EEG 1,EEG 2,EEG 3,EEG 4,EEG 5,EEG 6,EEG 7,EEG 8
276.871,274.818,241.299,217.36,241.112,189.643,152.314,167.409
283.79,286.376,242.262,220.248,242.897,194.087,154.79,177.147
284.728,294.566,239.224,220.503,240.002,194.552,151.696,176.845
280.296,297.264,234.358,217.261,234.558,190.314,144.381,167.279
276.389,299.82,234.113,217.894,233.228,190.723,142.531,164.924
277.347,303.009,238.88,225.201,238.198,197.836,151.024,176.391
278.843,298.602,241.875,231.013,243.773,202.425,160.261,184.264
272.931,284.202,239.371,227.858,244.012,198.076,159.589,173.085
261.893,271.2,235.018,221.071,240.526,192.288,153.423,158.12
254.923,268.424,232.483,218.905,237.69,193.915,149.69,157.595
252.633,271.666,230.124,218.971,235.044,197.642,146.324,160.47
248.702,274.383,225.989,215.379,230.69,194.084,140.476,153.377
242.473,275.224,222.004,209.914,226.485,185.116,136.238,144.355
238.413,274.751,220.769,209.013,225.536,180.497,137.141,143.252
236.515,272.125,222.335,212.772,227.81,182.445,139.695,148.367
233.403,267.827,225.582,214.924,231.069,183.733,140.101,155.889
230.235,265.829,229.117,214.591,233.689,183.389,141.079,164.646
230.194,266.145,230.377,215.307,234.264,185.887,144.22,169.829
232.042,263.634,228.706,216.784,232.81,189.055,146.219,166.656
231.201,257.498,225.472,218.004,230.564,189.876,145.564,162.288
224.785,250.514,219.937,219.279,226.281,190.15,140.834,163.32
216.028,244.021,213.031,219.015,219.67,189.756,131.191,160.22
210.598,238.912,208.867,215.065,214.259,185.473,123.48,148.762
207.713,233.878,207.673,208.316,211.61,178.229,124.415,141.353
202.615,226.494,205.812,201.299,209.638,172.89,129.599,141.562
195.556,219.044,201.388,193.927,206.587,168.848,131.186,139.812
191.341,215.808,196.178,186.182,202.914,162.771,128.531,135.338
192.615,216.829,193.914,182.247,200.722,158.814,124.841,135.767
197.455,219.338,196.152,184.246,201.704,160.661,121.225,139.163
202.914,221.594,200.498,187.8,205.053,162.526,118.332,136.387
207.892,224.14,203.56,189.443,207.9,160.874,118.32,129.559
211.518,227.716,204.065,190.195,208.288,160.233,121.674,129.192
212.204,228.332,202.53,190.115,206.779,161.18,125.682,133.565
210.042,219.968,199.255,188.4,204.788,159.268,128.011,134.001
207.278,205.774,194.931,186.941,203.234,154.895,128.003,134.315
206.076,197.037,192.815,187.323,203.699,152.036,126.629,140.364
206.844,197.646,195.755,187.801,207.651,151.617,126.257,145.342
206.879,199.97,199.33,185.427,211.622,150.577,126.056,140.977
203.069,198.656,196.097,180.032,209.699,146.026,122.536,128.358
197.804,197.535,189.15,175.221,204.287,139.569,116.958,114.702
195.645,198.577,187.648,173.398,202.987,135.124,114.737,106.953
194.803,195.731,189.166,172.291,204.087,134.194,116.472,108.102
190.731,187.009,185.003,170.414,200.432,137.174,117.897,117.35
185.222,181.644,178.082,170.752,194.134,144.669,118.492,129.11
182.34,185.615,176.253,173.979,191.345,153.269,118.33,133.282
180.042,190.324,177.135,175.699,189.853,156.656,112.864,125.243
174.685,186.158,174.991,173.796,185.154,153.27,102.775,111.46
167.182,175.696,169.981,170.778,178.939,147.902,95.311,102.2
159.959,166.06,162.953,168.502,173.57,145.466,91.518,102.427
154.377,159.736,154.374,165.598,167.796,145.06,88.102,105.506
151.286,155.163,148.005,160.097,161.133,142.217,86.064,101.241
150.073,149.742,146.194,152.53,155.561,136.241,85.323,92.227
149.016,143.691,146.575,145.319,152.345,131.034,82.563,89.364
149.13,142.403,147.618,141.633,151.924,130.745,79.931,96.183
153.192,149.32,150.797,144.358,155.097,136.517,83.216,106.585
157.323,155.89,154.398,150.091,159.332,143.3,89.794,112.617
153.524,150.725,153.635,149.04,159.386,142.04,91.471,112.627
143.632,137.95,148.572,137.841,154.667,129.213,88.254,107.625
136.576,130.125,142.673,124.475,148.386,112.125,85.173,95.238
133.92,128.918,137.307,117.109,142.21,101.957,81.342,79.314
131.462,127.637,133.623,116.475,137.288,102.584,74.965,70.407
129.541,124.988,132.984,120.458,135.173,109.928,71.381,72.817
132.343,126.201,135.356,126.992,136.336,117.89,74.786,83.119
139.474,133.03,140.281,130.919,139.784,120.815,79.139,93.144
144.012,138.232,143.921,127.803,141.752,117.397,77.815,96.234
141.915,135.201,139.273,119.931,137.611,111.139,72.827,95.086
137.485,129.21,127.783,110.824,128.998,102.166,67.248,91.678
135.556,129.224,120.788,101.569,123.333,89.626,61.434,82.06
137.227,134.048,124.242,97.27,124.985,82.776,60.117,73.123
140.763,135.676,130.987,100.495,129.552,87.549,64.836,71.9
139.7,129.952,129.971,101.422,127.507,91.278,64.105,64.801
131.583,120.654,121.417,96.052,118.474,87.169,53.668,49.779
125.438,115.524,116.017,95.723,113.436,86.739,47.024,48.851
128.455,117.673,118.126,103.695,116.851,92.52,52.026,64.84
136.865,123.616,123.113,109.856,122.54,94.517,61.718,79.54
144.366,128.358,127.241,108.685,125.7,90.464,67.318,84.682
149.092,130.236,129.137,103.322,126.123,85.864,67.171,82.859
150.843,131.236,127.245,98.642,123.991,84.942,65.335,79.249
147.073,130.367,119.93,94.642,117.337,85.761,61.755,76.089
138.949,125.278,109.743,88.342,107.099,82.434,53.483,72.062
135.917,122.544,105.08,84.522,101.883,77.854,47.081,71.309
142.249,128.847,108.999,90.471,106.379,81.404,50.529,77.217
147.425,134.83,113.424,99.626,112.094,89.299,56.781,81.879
141.231,127.704,111.165,99.322,109.743,89.198,54.522,79.983
129.587,113.271,104.11,91.15,101.543,82.668,47.447,78.269
125.132,106.962,98.18,85.804,95.771,79.048,46.339,79.257
128.976,110.236,95.871,84.78,95.032,76.616,49.955,75.769
132.436,111.908,95.065,83.338,95.351,71.398,49.577,68.807
129.823,105.627,93.025,80.65,93.576,67.448,43.382,65.874
120.239,94.175,87.139,74.766,88.042,64.005,33.18,60.188
106.673,83.186,76.877,63.834,78.363,56.179,20.587,44.931
96.905,76.584,68.205,54.7,69.662,48.988,12.152,34.757
96.114,75.616,67.679,53.537,68.083,47.784,12.603,39.825
100.641,79.268,72.717,55.625,71.752,47.425,16.095,47.591
102.37,81.967,73.876,52.678,72.158,41.296,14.242,45.655
97.6,77.592,66.96,43.112,65.342,29.48,6.371,35.14
90.094,68.776,57.397,33.406,56.545,18.799,-2.266,23.443
84.922,62.997,50.251,28.907,50.291,14.941,-8.805,15.113
84.277,63.69,45.394,27.539,45.625,15.203,-13.932,8.602
88.539,70.169,43.186,27.305,43.229,15.78,-16.018,4.369
96.499,79.809,45.256,31.261,45.767,19.199,-12.482,9.113
104.742,87.821,49.633,37.895,50.207,24.965,-7.613,21.173
107.538,87.196,50.426,36.588,48.802,23.004,-11.021,23.987
100.522,73.689,44.213,22.278,39.462,8.493,-24.529,10.576
86.714,51.644,32.419,3.582,26.636,-9.128,-38.135,-3.89
74.661,32.118,18.059,-10.078,13.614,-19.982,-44.706,-7.826
67.907,22.8,5.398,-17.449,2.539,-23.53,-49.704,-7.583
61.619,18.799,-2.491,-21.926,-4.776,-26.322,-59.997,-13.226
52.643,10.701,-6.836,-27.15,-9.642,-36.313,-72.417,-27.241
44.536,-0.401,-8.827,-32.37,-12.779,-50.928,-78.7,-39.778
39.109,-8.183,-8.463,-33.287,-12.633,-57.167,-75.09,-35.655
32.572,-13.639,-9.022,-30.832,-11.652,-51.157,-65.999,-16.567
23.644,-20.365,-13.637,-30.751,-14.625,-42.814,-60.476,-3.453
15.752,-27.263,-20.432,-34.529,-21.228,-40.601,-63.426,-9.706
9.388,-33.061,-26.904,-39.825,-28.194,-45.699,-71.752,-26.971
3.595,-37.213,-31.979,-44.444,-33.062,-54.337,-78.991,-40.26
1.103,-37.479,-34.628,-47.295,-34.795,-60.974,-82.354,-45.32
1.194,-35.241,-38.049,-52.06,-37.513,-66.648,-85.036,-51.37
-1.528,-34.35,-45.923,-60.723,-45.074,-73.822,-87.592,-62.482
-7.299,-36.347,-52.567,-64.785,-51.472,-75.126,-85.893,-64.663
-12.539,-43.672,-51.331,-59.497,-50.523,-67.203,-83.666,-53.734
-16.909,-55.689,-47.155,-54.134,-47.222,-61.407,-87.643,-45.271
-21.708,-65.159,-47.657,-54.922,-48.147,-64.353,-92.158,-41.477
-27.212,-68.573,-51.719,-56.656,-51.796,-68.412,-90.444,-33.434
-34.148,-70.148,-55.946,-58.687,-55.807,-71.597,-90.556,-31.335
-43.394,-74.174,-62.049,-68.588,-63.113,-83.267,-100.953,-48.674
-52.929,-81.684,-71.086,-84.707,-74.129,-101.571,-112.912,-69.187
-58.748,-90.813,-78.99,-93.464,-82.252,-108.588,-113.637,-66.952
-59.948,-97.112,-82.589,-88.405,-83.339,-96.608,-106.486,-46.615
-59.525,-97.884,-82.801,-78.476,-80.781,-80.077,-103.513,-31.88
-59.563,-94.512,-80.055,-73.315,-77.705,-73.621,-106.17,-31.43
-60.387,-90.167,-75.278,-73.025,-74.372,-76.435,-108.921,-41.313
-61.728,-86.536,-72.56,-73.11,-71.864,-80.028,-110.51,-53.308
-61.681,-82.543,-73.835,-70.245,-70.88,-77.989,-109.936,-54.109
-61.659,-80.656,-78.426,-68.171,-72.895,-74.974,-107.099,-46.764
-67.477,-86.852,-86.123,-73.082,-79.978,-81.733,-107.246,-51.14
-80.76,-99.685,-94.967,-81.14,-89.475,-96.022,-113.939,-69.209
-97.111,-112.148,-102.965,-86.103,-96.886,-107.04,-124.566,-84.15
-109.24,-120.599,-108.761,-89.417,-100.046,-111.437,-133.049,-85.426
-109.385,-121.658,-106.733,-89.151,-95.31,-107.479,-131.76,-70.891
-98.052,-112.91,-94.479,-79.217,-81.849,-93.406,-119.086,-46.273
-88.054,-102.259,-83.55,-66.418,-70.588,-80.256,-107.712,-32.125
-89.047,-100.303,-84.62,-63.827,-71.449,-80.549,-109.088,-40.61
-95.648,-104.562,-91.175,-68.559,-77.877,-86.422,-114.23,-51.619
-99.879,-106.808,-93.652,-69.154,-80.382,-83.505,-110.786,-45.677
-103.602,-108.936,-94.713,-67.531,-82.031,-76.407,-105.031,-36.289
-112.09,-118.691,-100.81,-73.195,-89.43,-78.193,-107.456,-38.496
-122.533,-134.177,-110.705,-83.346,-100.487,-86.025,-113.316,-40.909
-125.211,-140.509,-118.399,-87.4,-108.185,-88.697,-114.195,-34.556
-117.585,-126.989,-121.122,-84.986,-110.02,-87.458,-113.653,-34.301
-111.827,-108.71,-121.383,-85.457,-110.207,-92.078,-118.239,-53.708
-120.267,-113.419,-124.457,-92.99,-114.355,-102.895,-125.226,-77.894
-136.949,-139.42,-132.213,-101.262,-122.257,-109.49,-128.709,-81.273
-147.439,-158.467,-140.748,-106.064,-129.859,-109.223,-131.309,-71.51
-151.696,-162.289,-148.232,-111.974,-137.496,-111.466,-139.471,-76.422
-158.922,-164.791,-158.162,-119.804,-148.059,-117.794,-150.633,-90.363
-166.963,-167.454,-170.158,-122.94,-159.14,-118.737,-157.581,-90.906
-167.332,-162.276,-176.778,-120.286,-164.845,-113.303,-159.45,-85.038
-164.194,-155.5,-175.333,-119.929,-165.081,-113.267,-160.111,-87.193
-167.838,-158.297,-173.36,-128.955,-166.64,-126.12,-163.95,-93.208
-174.854,-164.866,-176.286,-142.649,-172.162,-141.97,-170.418,-95.528
-173.498,-162.364,-179.185,-148.04,-174.83,-145.228,-170.543,-92.224
-165.002,-154.334,-176.042,-143.866,-169.548,-139.878,-162.203,-93.797
-162.069,-153.118,-169.228,-141.4,-161.122,-140.928,-157.311,-108.346
-167.709,-157.341,-164.986,-142.563,-156.141,-144.575,-160.017,-113.682
-171.403,-155.425,-163.904,-140.501,-154.371,-139.032,-160.221,-94.141
-165.785,-144.175,-162.241,-135.182,-152.569,-128.66,-154.923,-73.502
-156.869,-134.482,-161.668,-131.789,-152.588,-123.625,-153.106,-72.168
-156.182,-139.804,-168.254,-133.332,-159.334,-126.105,-159.264,-84.762
-165.908,-158.607,-181.074,-138.737,-171.091,-132.71,-166.893,-100.805
-177.356,-175.081,-191.878,-144.451,-180.4,-138.793,-169.07,-110.289
-183.736,-178.841,-196.045,-149.52,-184.24,-143.17,-167.703,-109.638
-184.384,-171.153,-194.225,-153.699,-183.808,-146.294,-166.589,-105.774
-180.4,-158.636,-188.082,-153.296,-179.751,-145.491,-165.035,-103.061
-176.671,-152.179,-183.115,-148.182,-175.639,-140.432,-164.044,-100.667
-177.986,-156.763,-183.266,-143.289,-174.33,-134.39,-165.343,-97.075
-178.85,-160.78,-180.103,-139.17,-169.919,-128.227,-166.439,-90.718
-171.342,-152.704,-167.134,-132.776,-158.944,-121.998,-165.008,-83.567
-159.601,-139.316,-157.141,-124.588,-151.477,-116.319,-160.649,-77.773
-150.982,-130.722,-161.092,-115.601,-154.037,-108.44,-152.47,-70.645
-143.167,-123.387,-167.73,-106.138,-157.026,-98.59,-141.797,-63.406
-134.445,-113.414,-164.965,-100.995,-152.859,-95.509,-133.891,-62.35
-129.745,-106.403,-156.487,-101.823,-145.765,-99.323,-131.906,-63.306
-129.249,-105.641,-149.194,-103.445,-140.534,-99.515,-134.548,-58.675
-129.711,-109.881,-148.115,-107.925,-140.904,-100.645,-141.601,-59.325
-132.469,-118.112,-156.219,-119.564,-149.166,-112.478,-151.613,-75.148
-137.599,-123.639,-165.746,-128.269,-157.537,-122.157,-156.612,-87.664
-140.874,-118.879,-165.126,-124.091,-155.816,-116.755,-151.539,-79.592
-140.434,-109.322,-155.686,-115.329,-146.641,-108.739,-143.792,-66.276
-138.809,-106.335,-148.974,-113.585,-140.981,-111.276,-142.652,-67.013
-139.187,-111.559,-151.514,-116.97,-143.631,-117.434,-145.823,-74.188
-141.397,-117.911,-158.641,-118.322,-149.416,-116.99,-145.303,-72.332
-142.542,-119.594,-163.173,-117.801,-152.442,-113.076,-141.255,-66.318
-143.256,-119.178,-165.644,-120.871,-154.447,-115.182,-141.645,-72.249
-146.411,-122.62,-168.906,-126.954,-158.117,-122.636,-147.828,-87.158
-150.222,-128.919,-170.749,-128.414,-160.179,-125.04,-151.854,-91.737
-152.526,-134.052,-171.229,-125.136,-160.041,-121.309,-151.927,-84.974
-154.347,-136.325,-173.779,-124.792,-161.951,-120.558,-153.361,-83.453
-152.746,-132.077,-174.685,-125.228,-163.203,-121.424,-154.001,-86.7
-142.699,-119.766,-166.348,-117.785,-156.001,-113.886,-147.377,-78.879
-127.066,-105.909,-149.94,-104.068,-140.948,-98.776,-134.519,-60.14
-115.095,-97.802,-135.139,-91.888,-126.869,-85.933,-122.195,-46.652
-113.038,-96.714,-130.094,-85.385,-120.774,-81.597,-115.724,-46.383
-119.06,-100.276,-133.529,-85.023,-122.098,-84.748,-114.039,-52.161
-126.533,-106.383,-136.194,-86.974,-124.042,-88.183,-112.321,-52.833
-130.711,-112.746,-132.826,-85.668,-121.712,-85.735,-110.03,-45.604
-130.145,-115.043,-127.617,-80.422,-116.969,-78.724,-108.594,-37.447
-126.622,-111.792,-125.64,-74.922,-113.796,-71.767,-106.229,-34.405
-126.03,-108.564,-127.983,-72.721,-114.762,-67.963,-104.066,-36.441
-131.099,-109.488,-133.23,-75.009,-120.085,-68.834,-107.438,-41.499
-135.528,-111.204,-137.938,-79.616,-126.447,-73.344,-115.792,-46.735
-135.344,-112.319,-142.284,-84.565,-132.522,-78.934,-122.798,-51.671
-135.177,-115.949,-149.278,-89.634,-139.757,-83.57,-125.353,-57.658
-136.269,-119.837,-153.925,-92.402,-143.826,-85.719,-124.214,-60.106
-135.045,-119.938,-150.208,-93.201,-140.689,-88.06,-122.203,-55.689
-131.042,-117.764,-143.274,-97.867,-136.082,-95.101,-123.035,-49.659
-125.565,-114.762,-140.224,-106.137,-136.046,-102.854,-127.439,-47.625
-121.396,-111.039,-141.812,-111.336,-139.741,-104.246,-132.478,-53.244
-123.313,-107.783,-146.283,-113.319,-144.619,-102.897,-134.263,-66.185
-132.572,-105.932,-151.774,-117.377,-149.621,-106.911,-132.9,-79.136
-142.857,-107.772,-155.733,-122.126,-153.284,-113.733,-132.496,-87.27
-145.351,-113.683,-155.542,-121.296,-153.08,-115.39,-133.287,-91.748
-141.026,-119.435,-153.375,-116.55,-150.613,-113.285,-132.9,-92.132
-139.888,-124.6,-154.928,-115.057,-151.252,-113.007,-133.363,-88.697
-144.557,-131.537,-158.631,-115.719,-153.801,-111.738,-135.782,-85.708
-147.8,-135.612,-157.875,-111.614,-151.795,-103.868,-134.659,-83.423
-146.549,-132.366,-153.787,-103.831,-146.185,-92.583,-127.125,-78.315
-144.315,-127.222,-151.598,-99.465,-143.144,-86.234,-119.775,-70.198
-141.299,-124.232,-149.498,-98.285,-141.853,-85.889,-117.764,-60.793
-136.169,-119.171,-144.222,-95.742,-138.26,-85.914,-117.794,-53.493
-134.098,-113.599,-140.384,-95.279,-135.932,-86.234,-118.506,-54.932
-138.916,-114.604,-142.516,-101.164,-139.208,-90.768,-122.993,-66.285
-144.833,-119.152,-145.653,-106.077,-142.624,-95.381,-128.163,-76.788
-146.4,-120.535,-144.409,-102.321,-140.393,-93.416,-127.099,-76.636
-145.926,-119.958,-143.346,-95.837,-137.602,-89.182,-121.358,-70.969
-146.564,-118.969,-148.017,-95.979,-140.718,-90.955,-118.747,-69.61
-147.499,-116.559,-153.585,-101.238,-146.025,-96.481,-120.86,-71.342
-147.996,-115.942,-153.691,-104.343,-147.353,-97.865,-122.059,-70.555
-149.146,-120.278,-151.854,-103.378,-146.56,-93.99,-119.658,-67.736
-149.361,-123.075,-152.937,-100.746,-147.444,-89.077,-117.247,-66.007
-145.609,-114.913,-154.31,-98.155,-148.548,-87.213,-118.23,-67.427
-140.693,-101.068,-153.229,-98.088,-148.441,-91.59,-121.573,-71.349
-141.929,-99.956,-152.74,-103.273,-149.691,-100.107,-124.221,-73.505
-151.408,-118.245,-156.397,-112.167,-154.331,-105.852,-125.971,-72.635
-162.581,-140.672,-162.975,-119.629,-160.475,-106.509,-128.705,-73.452
-169.162,-152.627,-168.77,-121.972,-165.018,-105.099,-130.962,-78.219
-171.932,-155.777,-172.018,-120.147,-167.091,-103.774,-130.371,-83.195
-171.574,-153.9,-171.427,-117.151,-166.367,-102.644,-128.219,-84.032
-165.556,-144.829,-165.452,-113.86,-161.846,-101.34,-125.831,-80.823
-157.757,-131.435,-157.893,-109.916,-155.86,-99.106,-123.248,-77.7
-157.281,-124.057,-156.553,-106.789,-153.996,-96.112,-122.782,-77.998
-165.885,-130.285,-163.638,-109.441,-159.282,-98.12,-127.848,-85.044
-175.991,-145.733,-172.73,-120.239,-168.098,-109.924,-137.155,-98.315
-178.45,-155.472,-174.569,-129.922,-171.43,-121.18,-142.347,-105.025
-170.664,-150.296,-165.361,-126.965,-163.82,-117.295,-136.214,-94.827
-159.505,-137.786,-151.206,-115.23,-150.808,-103.112,-124.08,-78.529
-154.134,-129.893,-143.499,-109.131,-143.343,-96.601,-118.879,-74.4
-156.431,-129.406,-147.797,-114.004,-146.195,-103.232,-123.147,-83.119
-160.064,-133.597,-156.106,-120.934,-152.751,-111.341,-126.271,-90.153
-157.288,-137.239,-154.159,-118.749,-151.198,-109.058,-120.037,-85.833
-147.438,-134.591,-139.959,-107.142,-139.115,-97.566,-108.677,-73.91
-138.691,-128.523,-127.89,-97.441,-128.57,-88.663,-102.658,-66.782
-136.656,-125.171,-127.968,-97.513,-129.101,-89.13,-104.207,-70.52
-136.443,-122.096,-134.039,-102.515,-135.222,-93.224,-106.273,-77.621
-133.4,-116.901,-138.879,-106.209,-139.36,-95.046,-105.8,-81.454
-131.618,-114.84,-142.787,-108.753,-142.144,-95.639,-105.496,-82.244
-136.404,-119.33,-146.259,-110.959,-145.896,-96.539,-106.89,-81.032
-145.673,-125.893,-148.377,-111.559,-149.811,-97.27,-109.623,-80.8
-150.44,-127.152,-147.622,-108.402,-150.031,-95.836,-111.492,-82.214
-144.447,-120.493,-141.283,-100.494,-142.648,-89.901,-109.165,-79.681
-132.227,-109.98,-130.361,-91.101,-130.086,-81.048,-102.277,-71.108
-123.007,-101.196,-120.883,-84.486,-119.657,-73.868,-93.873,-61.949
-120.248,-97.114,-116.982,-80.577,-114.852,-70.491,-86.687,-55.988
-121.465,-98.511,-118.284,-78.754,-114.938,-70.428,-83.13,-53.228
-124.065,-105.135,-123.505,-82.036,-119.831,-73.998,-86.088,-56.633
-127.19,-114.278,-129.496,-90.145,-126.937,-80.371,-93.345,-66.564
-130.053,-120.815,-131.025,-95.737,-130.009,-84.945,-97.818,-73.941
-132.045,-122.344,-128.758,-95.301,-128.551,-85.66,-98.264,-75.029
-134.607,-122.486,-129.763,-96.047,-129.775,-88.368,-100.751,-80.926
-141.222,-127.658,-137.377,-104.931,-138.244,-98.374,-109.004,-96.655
-152.705,-139.429,-148.931,-117.318,-150.993,-110.412,-119.65,-108.325
-163.198,-150.299,-160.317,-124.68,-161.943,-116.311,-126.922,-107.894
-166.023,-151.833,-166.879,-127.439,-166.654,-118.208,-130.782,-108.29
-163.621,-146.654,-166.986,-132.007,-166.242,-124.99,-137.462,-119.901
-165.163,-145.893,-165.68,-140.76,-166.9,-139.087,-149.704,-136.275
-172.508,-153.455,-166.126,-149.181,-170.072,-152.134,-159.713,-147.489
-177.224,-161.597,-164.666,-151.54,-169.686,-154.864,-158.243,-148.702
-175.71,-165.188,-162.628,-149.149,-165.711,-148.794,-148.871,-141.307
-175.24,-168.185,-168.751,-148.569,-167.685,-142.994,-141.944,-132.737
-179.978,-173.681,-183.408,-152.162,-178.775,-142.72,-140.113,-128.93
-184.867,-179.523,-195.996,-157.31,-190.318,-146.797,-141.92,-131.425
-186.388,-183.582,-200.372,-161.839,-195.531,-151.378,-147.191,-138.346
-186.274,-184.528,-198.993,-163.171,-195.758,-151.104,-151.947,-141.594
-183.148,-177.83,-192.359,-155.663,-190.632,-140.468,-148.725,-130.847
-173.48,-161.63,-178.917,-139.702,-177.237,-123,-135.445,-108.119
-162.577,-147.379,-165.692,-130.167,-163.13,-115.767,-122.742,-97.386
-157.84,-145.585,-160.236,-135.079,-158.33,-125.618,-121.752,-114.7
-153.948,-145.496,-154.672,-136.878,-154.984,-131.597,-124.176,-133.182
-145.073,-134.051,-140.45,-122.22,-141.938,-117.759,-117.298,-123.795
-138.551,-119.081,-126.561,-103.875,-126.769,-97.481,-106.413,-100.691
-139.251,-112.508,-122.951,-93.178,-120.105,-85.173,-98.944,-87.184
-139.173,-110.86,-123.691,-84.979,-117.738,-78.15,-91.682,-86.049
-131.401,-104.872,-118.734,-74.671,-111.646,-71.141,-84.002,-92.073
-120.026,-95.038,-108.984,-65.851,-103.309,-64.633,-80.367,-98.188
-113.226,-90.102,-102.895,-63.95,-99.534,-62.375,-81.979,-100.701
-112.875,-93.172,-103.023,-68.741,-101.197,-66.109,-85.956,-102.029
-113.836,-96.038,-103.255,-73.153,-101.993,-71.484,-88.085,-98.948
-113.202,-93.081,-101.477,-74.966,-99.947,-75.96,-88.272,-89.946
-113.828,-91.608,-103.928,-82.206,-101.269,-85.468,-92.036,-89.26
-115.728,-95.885,-110.561,-96.296,-106.794,-100.423,-100,-103.797
-114.125,-97.863,-111.484,-103.892,-107.611,-106.547,-103.649,-113.873
-109.022,-95.83,-104.444,-97.63,-100.9,-95.742,-97.023,-102.585
-105.565,-97.38,-98.297,-88.094,-94.853,-80.946,-85.297,-82.976
-105.2,-101.754,-97.828,-86.276,-94.794,-76.605,-79.007,-77.926
-105.708,-102.857,-100.708,-90.741,-98.503,-81.069,-81.77,-89.926
-105.484,-100.146,-104.577,-95.065,-102.761,-85.085,-86.157,-101.255
-102.423,-93.845,-106.845,-94.969,-104.735,-83.386,-83.439,-96.618
-95.501,-84.148,-104.235,-90.057,-102.041,-77.178,-73.9,-80.745
-88.648,-76.948,-97.112,-84.739,-95.869,-72.281,-64.774,-70.355
-85.581,-76.659,-89.387,-82.683,-89.673,-71.449,-59.951,-70.947
-83.313,-77.058,-83.438,-81.249,-84.41,-70.046,-55.56,-72.057
-77.817,-70.201,-78.267,-77.121,-78.38,-64.596,-48.015,-65.619
-70.91,-59.118,-72.086,-72.329,-70.81,-58.854,-41.654,-57.203
-66.902,-53.256,-65.526,-70.192,-63.882,-57.119,-42.124,-56.01
-66.042,-54.41,-61.637,-69.305,-60.554,-57.49,-45.715,-61.273
-64.159,-54.382,-61.304,-64.848,-60.057,-54.345,-44.553,-63.717
-59.53,-48.537,-61.218,-56.076,-58.647,-46.64,-40.127,-59.171
-53.406,-41.121,-56.245,-46.376,-53.031,-38.352,-37.77,-51.553
-42.672,-32.736,-42.823,-34.324,-40.474,-28.582,-31.985,-42.093
-27.534,-21.409,-27.118,-19.123,-25.142,-15.681,-18.468,-31.768
-21.703,-15.874,-23.93,-12.522,-21.263,-10.418,-11.256,-30.261
-31.931,-21.658,-34.696,-22.03,-32.649,-20.523,-21.119,-41.451
-41.659,-26.318,-42.213,-33.302,-42.24,-32.044,-34.044,-52.034
-38.627,-23.972,-39.297,-35.234,-40.142,-34.142,-36.708,-54.534
-33.782,-26.262,-37.884,-39.355,-37.674,-38.405,-37.138,-59.686
-35.825,-34.218,-42.917,-53.267,-41.601,-51.682,-43.05,-71.943
-38.738,-37.676,-47.719,-67.587,-46.174,-64.07,-50.487,-81.953
-41.64,-41.065,-54.83,-79.18,-53.469,-72.305,-59.773,-88.873
-49.479,-51.07,-69.802,-92.688,-68.772,-81.5,-74.546,-99.835
-55.453,-53.85,-81.71,-100.34,-81.193,-85.873,-86.351,-107.426
-50.182,-39.576,-78.47,-92.632,-77.987,-76.558,-84.095,-98.719
-39.743,-26.517,-68.297,-80.978,-67.12,-63.868,-74.033,-86.515
-34.185,-31.07,-63.942,-80.753,-63.11,-63.927,-68.195,-92.884
-33.608,-42.364,-63.99,-85.992,-65.531,-71.503,-64.249,-106.218
-35.743,-46.811,-63.909,-84.209,-67.406,-72.219,-57.068,-102.181
-39.679,-47.255,-65.32,-76.816,-68.346,-65.765,-51.948,-86.12
-41.864,-46.875,-67.023,-69.316,-68.263,-57.636,-51.361,-70.361
-41.113,-41.986,-64.909,-61.328,-64.274,-47.741,-48.729,-52.161
-42.839,-37.018,-62.452,-57.614,-60.963,-42.486,-44.98,-45.728
-49.788,-41.676,-64.659,-66.845,-65.22,-53.965,-49.065,-73.52
-54.275,-50.8,-65.658,-80.813,-70.078,-73.717,-56.681,-111.562
-48.945,-49.852,-58.901,-81.289,-64.887,-77.844,-53.929,-112.226
-38.794,-37.272,-49.698,-67.494,-53.892,-61.967,-40.423,-73.154
-34.451,-24.865,-45.964,-54.455,-47.853,-44.776,-28.075,-37.26
-38.705,-21.824,-47.63,-50.914,-48.17,-40.536,-23.575,-37.451
-44.215,-27.344,-48.316,-51.899,-47.833,-44.716,-23.445,-63.174
-43.953,-34.424,-41.676,-48.36,-41.137,-45.82,-21.506,-80.687
-38.98,-35.699,-27.509,-35.693,-28.094,-36.851,-14.285,-66.812
-33.999,-29.927,-12.913,-19.794,-13.767,-21.497,-2.796,-34.689
-31.035,-24.037,-4.605,-15.34,-4.92,-16.175,5.648,-27.359
-28.134,-22.506,-0.449,-23.2,-2.389,-24.974,4.787,-50.955
-22.513,-19.281,4.38,-26.312,-1.101,-29.491,0.821,-64.401
-14.596,-8.556,7.787,-19.368,1.123,-22.63,3.555,-57.352
-6.098,4.391,9.225,-11.036,4.858,-13.528,12.388,-49.24
2.804,11.096,15.101,0.252,13.008,0.284,25.021,-30.134
10.756,11.275,25.461,18.498,23.537,22.383,40.698,7.19
14.4,10.029,31.13,30.391,28.209,34.371,48.979,23.898
13.882,9.913,28.198,23.581,24.377,21.853,41.556,-5.445
15.106,11.844,23.867,11.32,19.935,4.744,30.929,-38.981
22.437,18.67,26.876,14.933,23.491,9.982,35.092,-25.724
33.499,31.731,37.709,33.667,34.455,32.53,52.472,18.549
43.13,45.764,49.411,48.707,44.948,47.143,67.822,40.583
47.525,52.233,55.485,49.578,48.847,46.019,74.258,31.25
46.457,48.752,55.326,43.477,47.067,43.5,76.627,27.841
45.713,43.286,54.186,41.057,45.9,48.615,79.498,47.116
52.673,47.689,58.925,45.043,51.479,55.729,83.682,65.445
65.574,63.229,70.141,51.858,62.984,59.5,89.179,63.604
74.675,77.891,80.294,57.763,73.059,61.045,93.21,50.637
78.063,86.287,84.574,64.959,78.86,64.199,94.233,43.566
83.203,96.559,87.435,77.725,85.055,72.201,96.864,48.532
90.221,109.297,92.661,91.977,92.75,83.546,103.222,60.321
91.634,112.491,97.193,100.389,98.015,94.052,110.458,71.855
89.666,104.614,101.119,104.68,102.54,102.22,119.758,80.229
94.503,100.021,110.004,110.449,111.646,107.299,133.253,84.04
104.461,104.471,121.628,116.105,122.089,107.74,143.444,83.235
108.773,109.347,127.314,118.965,126.628,107.793,142.49,83.389
107.836,112.531,127.437,123.71,127.353,116.128,139.258,91.371
109.963,120.035,129.454,134.363,130.765,132.246,146.498,105.015
117.104,132.834,136.146,147.911,137.546,146.18,160.368,116.482
125.673,145.848,144.633,157.2,144.617,149.518,170.268,121.567
132.518,152.529,151.319,157.693,150.454,143.841,175.334,121.752
138.468,152.367,157.266,156.435,157.299,142.975,181.709,124.103
144.392,151.575,165.132,161.807,166.138,153.866,189.547,130.549
145.619,151.424,169.739,167.704,170.717,164.524,191.263,132.736
141.967,150.206,166.505,168.261,167.821,168.116,187.577,132.616
144.032,154.584,164.558,171.245,166.465,173.392,190.715,143.489
156.619,169.283,171.701,179.86,172.486,181.355,202.889,160.179
169.152,183.145,179.131,184.271,177.319,181.528,210.537,162.877
171.976,183.619,177.88,181.964,174.635,175.418,207.882,154.225
168.973,174.439,172.398,182.032,170.105,175.331,204.129,152.82
166.843,166.529,167.939,184.482,167.127,179.881,202.723,155.244
165.334,164.08,163.426,180.508,162.846,177.002,198.584,146.413
163.666,165.132,160.542,171.28,159.416,166.312,193.05,131.126
165.621,168.436,165.569,167.496,163.794,160.101,192.442,126.588
174.834,177.637,180.973,175.601,178.641,167.16,201.142,140.1
189.816,195.055,201.679,192.347,199.566,183.424,219.569,162.967
204.273,212.462,219.022,208.888,218.113,197.942,238.832,179.877
211.655,217.879,227.346,218.271,227.624,204.737,245.904,183.529
211.533,211.883,229.075,219.811,229.475,205.769,240.766,180.204
210.612,207.233,230.659,217.346,230.524,205.181,236.594,181.061
213.021,210.645,232.465,214.962,232.719,205.468,239.934,187.656
213.696,214.477,228.957,213.117,230.836,206.275,242.901,190.555
209.491,211.598,220.492,211.009,223.536,206.947,239.962,188.219
208.503,208.465,216.56,212.353,219.003,210.958,238.68,191.961
216.299,213.03,221.428,218.328,221.952,217.873,243.522,201.392
224.992,220.624,226.634,220.381,224.987,217.482,245.55,200.419
227.441,223.626,224.869,211.58,221.284,203.67,238.244,182.085
228.462,224.208,220.737,197.248,215.329,184.467,227.505,157.283
235.432,228.921,223.177,190.028,216.128,174.776,222.296,144.904
246.896,237.301,232.5,195.627,224.668,180.768,224.299,152.219
253.856,241.982,238.291,205.048,231.39,191.833,227.653,163.422
252.537,239.891,234.433,208.697,230.103,196.891,228.86,165.069
249.933,236.868,229.126,209.957,227.698,199.82,231.315,166.183
250.345,237.068,228.763,212.365,229.462,204.227,234.507,173.751
249.182,237.533,227.121,210.085,228.616,202.64,232.616,177.846
247.68,239.565,223.814,204.776,224.482,196.566,230.059,175.701
254.012,248.471,229.693,208.895,228.978,200.923,237.211,180.344
264.404,257.558,242.944,221.149,241.816,215.386,249.365,194.573
266.387,258.008,247.707,225.433,246.944,220.378,252.792,199.715
261.181,259.214,241.855,219.161,241.107,210.825,246.391,184.344
260.132,269.226,239.223,215.337,237.712,203.383,239.425,166.819
263.098,273.582,244.304,218.022,241.645,206.013,236.306,168.47
259.977,259.587,247.036,220.998,244.456,211.605,236.47,184.566
247.13,235.716,239.86,221.033,240.126,214.305,239.05,194.202
229.672,214.193,226.49,215.722,230.296,209.593,239.076,182.054
214.729,198.59,215.687,204.639,220.238,196.817,231.298,157.962
205.616,189.947,210.571,193.442,213.619,183.277,219.335,143.814
201.668,190.928,209.625,186.941,211.254,174.508,212.043,139.851
204.192,201.884,214.779,187.408,214.976,173.761,214.006,139.498
212.159,214.972,223.736,193.587,222.177,182.063,222.203,146.536
216.799,220.255,226.125,197.889,224.009,191.026,229.977,157.125
213.369,216.404,220.19,195.597,219.483,191.516,232.649,161.598
207.58,208.201,215.068,189.856,216.145,184.706,230.831,158.76
205.886,201.352,215.571,186.424,216.929,179.921,229.254,157.155
208.431,197.489,219.17,189.269,219.172,184.857,229.505,163.691
209.77,190.004,221.091,194.006,219.175,192.791,227.761,168.242
204.423,176.296,217.009,190.73,213.331,189.547,222.23,157.597
193.857,166.139,207.206,179.562,202.047,176.585,216.957,140.61
185.098,166.375,197.586,171.163,191.845,168.287,215.18,133.925
181.575,170.55,193.594,170.072,189.005,168.284,215.054,136.798
180.321,169.987,194.513,170.362,192.291,167.732,215.133,139.459
178.112,165.547,194.923,167.786,194.72,163.406,215.905,140.351
175.498,164.412,192.316,165.231,192.65,160.691,215.585,143.424
175.177,169.543,191.23,166.361,190.385,162.157,213.344,148.266
177.911,176.801,196.118,170.819,193.751,165.235,212.675,151.69
180.216,181.263,202.643,174.747,200.67,167.611,213.644,155.171
178.548,181.332,201.753,174.847,201.992,169.112,210.759,160.887
174.687,177.808,191.872,171.916,193.949,169.236,204.255,162.528
173.005,173.522,182.132,168.807,184.986,166.465,201.057,155.577
174.265,171.286,181.767,168.281,184.981,163.313,203.527,151.23
175.757,170.765,189.904,171.829,192.753,164.35,207.636,154.805
175.592,170.889,198.842,176.639,199.938,167.194,209.745,150.448
174.398,171.758,203.701,178.116,202.332,166.654,209.465,134.954
174.454,172.302,205.155,176.599,202.265,164.516,207.843,128.697
178.073,172.903,206.636,177.276,204.12,166.135,207.036,137.733
184.218,176.532,210.208,182.267,209.347,170.766,208.604,144.694
188.908,182.542,214.435,187.474,215.03,173.059,210.586,142.262
192.137,187.85,218.027,190.507,219.346,173.97,212.521,144.367
195.95,191.158,220.111,193.075,222.726,178.024,216.497,155.906
195.76,188.704,217.644,194.166,222.826,181.93,219.796,162.656
186.922,176.828,210.043,190.991,217.064,180.094,218.4,159.687
176.213,162.858,202.329,185.59,208.554,175.474,214.494,156.92
174.449,159.848,200.359,182.267,203.953,173.124,211.764,155.964
181.458,167.845,204.54,179.498,205.35,169.961,210.255,150.249
186.733,173.137,208.113,173.024,206.994,162.985,209.806,144.37
183.432,167.863,204.717,165.486,203.26,158.818,211.169,148.541
176.53,159.221,198.206,163.719,197.742,162.728,213.218,159.618
174.063,156.566,197.781,168.77,198.385,169.288,214.656,166.236
173.939,157.304,202.413,174.523,203.891,171.088,215.471,163.563
168.169,151.977,200.674,173.609,203.349,165.564,213.333,150.787
158.504,141.561,190.081,165.612,193.619,155.732,206.981,131.69
155.867,138.44,183.089,160.441,186.444,151.326,202.851,124.607
162.274,145.244,185.438,164.193,188.501,157.445,204.433,139.322
167.28,150.308,187.977,168.631,190.801,165.135,204.499,154.519
165.447,149.925,185.545,166.338,186.762,165.761,199.356,152.265
163.154,153.318,181.904,161.808,181.07,162.657,194.179,144.305
167.235,163.822,181.43,161.899,180.335,162.828,193.591,147.32
175.288,172.92,186.733,166.256,186.044,167.027,198.525,160.391
179.177,173.48,193.474,167.736,191.785,168.295,204.579,168.565
176.438,167.23,192.766,160.724,189.817,159.342,203.905,159.164
172.262,158.666,185.418,149.763,183.027,144.412,195.629,137.464
171.237,152.598,182.017,145.466,181.617,136.978,187.699,122.256
172.559,153.057,187.014,150.366,188.208,140.682,185.792,123.45
172.266,155.868,193.715,156.018,194.765,145.148,185.51,130.781
169.406,153.803,194.955,155.661,193.785,143.543,180.194,129.17
167.388,149.633,190.341,152.203,186.443,140.739,173.248,120.777
169.092,152.755,184.326,152.159,180.146,142.842,173.235,119.858
175.532,166.149,181.262,155.782,180.328,146.586,180.361,127.702
184.103,179.244,180.837,156.06,183.666,144.266,185.665,130.23
190.085,180.396,182.378,151.31,185.374,139.046,185.392,124.935
201.206,181.901,196.591,156.523,196.096,148.083,194.281,134.845
233.384,207.351,236.505,187.153,232.154,182.431,229.408,178.299
280.08,251.064,290.103,232.556,283.804,228.822,279.899,236.285
315.961,287.284,328.878,269.084,322.701,266.315,317.418,277.413
333.654,309.89,344.91,291.329,340.196,290.56,332.958,298.166
343.392,325.54,350.027,305.359,347.239,304.814,337.589,308.677
346.363,329.244,349.444,310.196,348.32,307.684,337.947,308.066
338.178,318.158,341.342,305.755,341.722,301.912,333.071,297.037
326.684,308.391,331.168,301.382,333.373,297.598,326.11,287.393
323.744,313.749,327.851,304.732,331.465,300.961,323.579,289.482
325.144,322.424,327.846,308.469,331.341,304.062,322.975,296.894
316.119,315.102,319.264,297.956,321.353,292.576,312.471,287.365
295.103,294.449,302.919,275.459,303.512,270.291,290.949,256.647
276.096,278.297,291.838,260.585,292.007,258.011,275.046,234.003
266.106,271.698,289.326,258.647,290.216,257.899,272.566,232.267
256.763,263.817,284.971,253.758,286.646,250.701,269.562,228.217
243.894,250.958,273.703,240.358,275.482,233.813,257.564,215.714
236.166,240.404,261.157,229.457,262.447,222.534,244.774,210.013
237.656,232.902,250.992,223.209,251.505,218.178,236.332,205.434
241.08,225.917,243.009,214.361,242.618,210.716,230.442,192.429
240.729,223.306,236.526,203.255,235.348,200.51,225.359,182.027
236.808,222.929,226.596,192.742,225.185,192.115,216.803,178.454
229.567,215.784,209.48,180.086,207.92,182.607,201.968,170.5
220.91,206.16,192.209,167.379,189.826,171.894,188.074,157.113
214.809,205.019,183.548,161.737,180.788,166.131,184.547,149.011
208.134,203.931,179.687,158.541,178.09,162.374,186.445,148.538
194.888,187.706,171.982,146.198,171.191,150.508,180.062,146.636
181.166,164.891,163.71,127.73,160.755,132.667,165.32,139.43
177.775,155.291,163.847,115.948,156.587,121.26,154.148,134.417
182.761,160.152,169.782,112.956,160.323,119.843,150.457,133.72
185.004,164.105,171.343,111.371,164.339,120.601,147.777,126.225
178.494,156.198,165.648,108.2,163.247,117.275,140.905,107.312
166.603,141.126,157.443,106.4,158.14,111.501,132.054,91.053
156.13,129.702,149.886,107.262,151.775,108.163,126.759,91.759
150.627,124.237,142.298,108.71,144.671,109.278,125.32,105.471
148.263,120.939,135.177,108.73,137.286,111.245,123.198,115.35
143.31,117.404,129.429,104.38,130.216,105.878,117.982,106.13
131.767,111.082,121.809,92.679,121.137,89.304,108.767,77.178
116.819,99.482,110.541,77.295,109.102,70.639,96.157,47.625
105.274,86.111,101.169,67.4,99.547,63.506,86.122,39.781
99.304,78.981,97.869,66.387,96.667,68.262,81.856,54.035
95.446,79.352,96.07,67.51,95.897,72.187,77.558,67.984
90.793,79.633,90.377,63.679,91.245,68.003,70.153,62.915
85.746,75.264,82.233,54.875,83.671,58.559,63.485,39.947
80.522,69.985,76.064,45.46,77.282,47.546,58.201,12.414
74.647,67.146,72.934,40.699,72.499,40.044,52.624,-2.265
69.863,64.53,69.494,41.843,66.427,40.21,48.77,4.29
66.987,59.654,62.685,43.687,58.147,43.159,47.036,19.465
62.293,52.6,53.906,41.198,49.771,41.055,43.297,26.083
54.072,45.341,45.569,34.034,42.035,32.681,35.682,21.384
48.475,42.6,38.556,25.89,34.893,24.028,27.352,12.335
50.973,46.714,35.001,22.409,30.872,23.403,22.374,7.269
55.682,50.774,34.274,23.369,29.703,30.642,22.081,11.958
52.23,44.739,29.775,20.999,25.533,34.996,23.65,23.842
40.643,27.907,19.397,11.646,16.555,29.231,22.269,29.878
29.54,10.144,11.115,-0.486,8.905,15.844,16.194,17.406
22.96,0.595,11.031,-11.328,6.731,0.214,8.901,-8.089
17.928,-2.009,13.562,-18.888,6.025,-11.893,4.499,-26.748
11.469,-5.423,10.382,-21.543,2.013,-16.303,1.637,-29.537
2.846,-13.746,1.553,-22.319,-5.072,-16.939,-5.25,-26.27
-7.227,-24.121,-8.541,-27.65,-13.794,-21.554,-17.277,-27.761
-14.581,-30.398,-15.449,-35.687,-20.747,-28.552,-26.373,-31.933
-16.722,-31.611,-16.226,-39.187,-21.414,-32.193,-27.568,-35.129
-19.368,-34.173,-15.756,-40.525,-19.356,-36.606,-29.376,-42.733
-25.072,-39.1,-18.452,-43.627,-19.667,-43.831,-36.014,-51.905
-26.285,-38.958,-18.043,-42.083,-17.807,-43.843,-36.826,-49.983
-23.296,-35.453,-13.616,-35.986,-13.06,-36.907,-30.857,-43.63
-27.979,-39.876,-16.01,-37.48,-15.04,-38.101,-33.156,-50.581
-40.777,-51.153,-25.814,-47.534,-24.283,-49.766,-45.878,-64.299
-49.172,-57.95,-30.779,-54.379,-29.833,-59.398,-55.714,-67.853
-50.463,-60.164,-28.055,-54.989,-29.05,-62.312,-58.956,-65.748
-53.436,-65.206,-27.871,-56.212,-30.403,-63.82,-61.969,-69.706
-60.805,-71.146,-36.556,-60.49,-38.826,-66.066,-65.841,-74.746
-67.702,-72.073,-49.632,-65.139,-50.82,-67.917,-69.176,-72.924
-72.424,-70.584,-60.902,-69.348,-61.624,-70.58,-74.927,-70.871
-74.858,-70.984,-67.563,-72.267,-68.112,-73.182,-81.526,-75.512
-72.878,-71.669,-68.815,-72.204,-68.961,-72.746,-81.936,-81.182
-69.648,-73.516,-68.8,-72.703,-68.791,-72.794,-79.017,-83.054
-72.264,-81.539,-74.168,-79.754,-74.643,-79.6,-82.604,-85.524
-80.075,-93.107,-83.962,-91.715,-85.748,-90.656,-90.845,-90.819
-85.928,-98.732,-90.572,-101.623,-94.533,-99.403,-94.778,-95.786
-88.812,-99.216,-92.58,-109.647,-98.689,-108.145,-96.472,-102.89
-94.347,-105.861,-95.534,-119.565,-102.707,-119.963,-101.518,-112.787
-102.392,-119.041,-99.65,-126.479,-107.126,-126.651,-105.816,-114.804
-107.502,-128.312,-102.648,-127.908,-110.392,-126.301,-108.957,-111.549
-109.91,-132.386,-108.829,-132.735,-116.101,-131.24,-117.855,-120.483
-113.897,-136.881,-120.607,-143.056,-125.951,-143.01,-129.77,-139.055
-119.319,-139.311,-130.49,-148.348,-133.988,-148.641,-135.597,-150.674
-121.575,-133.357,-129.951,-143.623,-133.693,-144.173,-134.467,-153.922
-119.631,-124.139,-121.897,-137.394,-127.222,-139.824,-132.666,-157.355
-119.057,-124.445,-117.416,-137.6,-122.985,-141.994,-135.13,-159.591
-123.275,-134.743,-120.187,-140.083,-123.798,-143.925,-140.768,-152.231
-127.327,-141.476,-122.808,-138.182,-124.261,-139.256,-143.394,-138.17
-124.571,-136.369,-119.141,-133.162,-120.154,-132.418,-139.12,-129.272
-117.596,-126.772,-113.379,-130.298,-115.446,-131.111,-133.831,-129.999
-116.407,-125.082,-112.985,-132.157,-116.56,-136.817,-135.611,-136.437
-122.026,-132.03,-115.568,-135.084,-120.69,-142.033,-140.291,-140.415
-123.8,-137.086,-112.624,-132.632,-119.173,-138.021,-138.58,-133.942
-117.732,-134.903,-105.069,-123.754,-111.895,-126.377,-132.556,-119.825
-111.406,-129.351,-102.613,-115.212,-107.703,-118.832,-130.614,-113.246
-110.462,-124.24,-109.409,-117.264,-112.725,-127.219,-136.134,-130.526
-112.061,-120.045,-117.913,-130.069,-121.727,-147.105,-145.407,-163.548
-111.065,-116.484,-118.473,-139.822,-123.648,-159.493,-149.529,-179.169
-110.079,-118.051,-114.574,-142.973,-120.031,-161.691,-147.049,-171.605
-116.189,-130.226,-117.179,-149.821,-122.605,-165.374,-146.678,-165.759
-127.536,-145.912,-125.65,-158.662,-131.691,-166.874,-150.027,-163.276
-136.798,-153.088,-133.374,-161.039,-140.057,-160.2,-153.217,-152.641
-142.156,-153.521,-141.284,-161.076,-147.659,-155.786,-158.716,-145.155
-144.171,-155.454,-149.296,-163.678,-154.626,-159.186,-165.947,-151.279
-142.491,-158.06,-151.445,-162.821,-156.088,-159.895,-166.342,-157.505
-140.375,-157.807,-149.386,-156.013,-153.51,-153.341,-158.671,-153.255
-142.222,-157.678,-152.588,-152.07,-155.401,-149.198,-153.013,-148.209
-145.718,-160.05,-159.528,-155.995,-161.504,-152.668,-155.024,-151.326
-145.162,-161.385,-159.015,-162.557,-162.639,-159.041,-160.626,-160.366
-141.062,-159.467,-151.313,-166.822,-157.593,-165.045,-164.493,-168.701
-138.638,-157.246,-146.149,-167.239,-152.67,-168.636,-163.975,-166.003
-138.692,-155.358,-144.788,-163.037,-148.865,-166.464,-160.599,-149.675
-138.144,-150.564,-143.136,-158.279,-144.874,-162.219,-159.785,-137.991
-137.55,-144.267,-142.561,-159.569,-143.618,-164.487,-162.704,-146.742
-137.949,-139.888,-143.326,-163.4,-144.624,-170.145,-162.018,-160.541
-136.517,-136.6,-140.681,-160.133,-142.54,-167.949,-153.977,-158.356
-134.577,-136.027,-135.653,-153.974,-138.783,-162.341,-149.576,-153.648
-136.78,-141.492,-133.962,-155.908,-138.684,-166.233,-158.684,-167.227
-140.548,-149.358,-135.138,-159.363,-139.661,-172.013,-169.896,-182.479
-141.67,-154.826,-136.572,-152.489,-138.272,-164.763,-167.842,-175.528
-142.777,-158.272,-139.31,-142.212,-138.263,-151.413,-158.63,-156.505
-145.813,-159.414,-142.886,-139.752,-141.376,-145.924,-155.682,-145.513
-146.706,-155.563,-144.331,-141.151,-143.184,-146.122,-156.643,-143.514
-142.438,-147.556,-142.945,-138.862,-141.514,-143.475,-154.045,-143.445
-137.022,-141.581,-141.317,-136.162,-140.098,-139.478,-152.703,-145.869
-135.041,-141.49,-141.693,-137.826,-141.605,-139.634,-157.519,-151.1
-132.79,-141.975,-141.901,-138.063,-141.936,-139.875,-158.88,-149.286
-127.447,-138.345,-139.276,-133.464,-138.131,-137.054,-150.727,-138.512
-127.103,-136.727,-137.269,-133.765,-136.002,-139.842,-145.37,-133.902
-135.764,-141.5,-139.672,-142.683,-139.64,-149.333,-151.101,-139.496
-143.228,-146.549,-143.097,-149.51,-143.476,-153.86,-158.457,-143.227
-142.61,-149.485,-143.733,-149.451,-143.411,-151.548,-160.11,-142.405
-140.022,-155.087,-144.424,-149.339,-143.549,-150.882,-160.086,-142.843
-141.152,-161.636,-148.251,-152.549,-147.251,-154.17,-161.28,-145.397
-145.404,-163.805,-152.962,-156.026,-152.163,-158.078,-162.916,-147.981
-153.275,-166.059,-156.305,-158.649,-155.919,-161.01,-166.14,-149.59
-165.517,-176.687,-160.451,-162.024,-160.184,-163.466,-171.879,-152.889
-178.306,-192.704,-168.41,-167.326,-167.703,-167.422,-179.171,-163.027
-186.469,-202.593,-177.709,-173.715,-176.372,-173.245,-185.108,-176.693
-188.724,-202.707,-181.936,-178.343,-180.425,-177.344,-186.222,-182.606
-189.958,-202.697,-181.701,-182.289,-180.807,-180.258,-186.236,-180.597
-195.896,-210.18,-184.729,-190.715,-184.777,-188.2,-192.69,-181.776
-202.625,-217.498,-191.433,-200.977,-191.901,-199.104,-202.628,-187.757
-200.794,-215.235,-193.328,-203.438,-193.758,-202.81,-206.23,-190.485
-190.27,-207.723,-186.659,-196.833,-187.711,-198.067,-202.797,-188.608
-178.035,-200.442,-176.095,-187.151,-178.482,-191.076,-199.219,-185.75
-166.604,-188.746,-166.202,-175.097,-168.963,-181.177,-196.595,-178.438
-155.694,-171.655,-158.367,-161.082,-160.018,-167.931,-191.561,-164.041
-147.218,-158.802,-154.837,-153.367,-155.572,-161.673,-186.687,-155.476
-141.814,-155.58,-157.365,-157.072,-158.349,-168.545,-187.047,-167.641
-137.629,-155.538,-162.54,-165.802,-164.371,-179.283,-191.254,-192.297
-133.912,-152.054,-165.641,-171.182,-168.513,-183.872,-193.849,-205.305
-132.116,-147.774,-167.319,-171.98,-171.087,-183.399,-192.582,-197.302
-134.362,-148.823,-170.721,-172.69,-174.824,-183.595,-191.587,-183.381
-140.545,-157.28,-176.046,-177.086,-180.111,-186.268,-196.121,-180.323
-147.449,-170.076,-182.268,-183.582,-185.92,-189.024,-203.594,-185.091
-151.145,-178.135,-187.366,-187.086,-190.214,-189.432,-205.808,-186.354
-149.549,-173.782,-186.674,-185.165,-189.609,-187.325,-200.551,-184.303
-145.382,-162.97,-179.876,-180.203,-184.224,-183.116,-194.43,-182.493
-143.655,-156.369,-173.408,-174.928,-178.341,-176.852,-192.368,-177.293
-143.715,-152.657,-169.243,-169.411,-173.007,-170.175,-190.699,-167.822
-141.366,-146.235,-162.429,-161.7,-165.469,-162.926,-185.084,-156.31
-140.217,-142.825,-155.691,-153.642,-159.416,-155.093,-180.486,-146.434
-149.224,-150.788,-160.585,-155.074,-164.551,-156.163,-185.051,-151.982
-165.125,-163.364,-174.801,-167.173,-178.093,-169.086,-195.753,-173.269
-174.646,-169.616,-181.765,-176.318,-185.12,-179.898,-202.331,-189.039
-176.47,-174.477,-179.283,-179.864,-183.164,-185.694,-202.788,-198.48
-180.088,-186.972,-179.811,-186.379,-182.973,-194.383,-202.302,-209.463
-186.769,-202.43,-185.476,-191.589,-187.457,-198.096,-202.029,-204.339
-189.802,-210.555,-188.564,-188.352,-190.709,-189.339,-199.265,-180.148
-188.049,-209.043,-188.294,-184.636,-191.537,-181.641,-194.662,-167.576
-186.83,-203.667,-189.621,-188.086,-193.917,-185.27,-192.24,-176.648
-188.482,-200.271,-193.064,-192.985,-198.513,-190.848,-194.435,-184.324
-191.151,-200.084,-196.212,-195.063,-202.598,-192.316,-200.213,-182.812
-194.227,-201.729,-199.307,-198.759,-205.362,-196.194,-205.571,-184.767
-197.054,-202.762,-202.025,-203.004,-206.502,-200.949,-205.506,-188.456
-196.126,-199.789,-199.7,-199.413,-202.7,-195.626,-198.221,-182.503
-190.655,-193.222,-190.976,-188.422,-193.128,-181.435,-187.69,-170.036
-187.057,-191.037,-184.372,-180.227,-185.317,-171.781,-180.882,-161.573
-190.52,-199.202,-186.598,-178.345,-186.315,-170.866,-180.11,-157.445
-195.945,-209.757,-192.31,-176.819,-192.483,-170.296,-180.268,-150.793
-194.909,-209.441,-193.565,-171.798,-194.898,-164.994,-177.503,-142.097
-186.789,-196.935,-188.544,-164.102,-189.036,-157.799,-173.595,-137.778
-177.693,-181.735,-179.849,-155.481,-177.481,-151.607,-169.448,-136.291
-170.861,-169.08,-169.824,-147.181,-164.47,-145.507,-161.718,-128.695
-163.583,-156.731,-158.933,-139.573,-151.338,-138.687,-149.945,-115.594
-156.35,-147.039,-151.097,-134.672,-142.456,-134.482,-142.756,-110.111
-154.423,-146.545,-150.684,-134.591,-143.246,-134.566,-147.054,-116.193
-158.349,-154.184,-154.425,-138.433,-150.21,-136.76,-157.131,-127.088
-163.936,-162.436,-157.466,-143.002,-155.791,-139.825,-161.615,-138.771
-166.985,-164.292,-158.374,-142.407,-156.28,-140.445,-154.588,-142.236
-164.192,-158.117,-154.978,-134.763,-150.759,-135.93,-141.058,-131.674
-157.051,-150.51,-146.789,-127.953,-141.816,-130.825,-131.437,-119.117
-150.814,-147.349,-138.682,-128.117,-134.956,-129.18,-128.822,-114.825
-145.078,-144.45,-133.52,-129.435,-130.77,-126.636,-127.313,-111.584
-136.93,-137.64,-128.728,-124.518,-125.117,-117.981,-123.341,-99.476
-131.786,-133.396,-124.922,-118.187,-119.667,-109.007,-120.352,-84.791
-134.313,-135.281,-124.893,-118.209,-118.882,-109.261,-119.227,-83.569
-136.557,-133.751,-124.643,-119.298,-118.475,-114.394,-115.57,-95.289
-130.644,-125.139,-118.946,-113.272,-111.999,-113.502,-109.933,-101.979
-122.244,-121.294,-111.651,-105.743,-103.933,-108.885,-108.679,-97.917
-120.501,-128.28,-109.915,-105.834,-102.748,-109.125,-113.119,-94.93
-123.612,-135.311,-111.948,-108.735,-105.615,-110.439,-115.56,-95.253
-123.8,-131.596,-111.41,-103.969,-103.95,-103.169,-109.527,-87.661
-120.378,-120.36,-109.081,-93.487,-99.008,-90.343,-99.803,-73.427
-116.836,-111.531,-107.17,-85.831,-96.005,-81.86,-93.443,-65.683
-113.129,-109.624,-103.264,-81.536,-93.492,-77.922,-89.036,-63.877
-109.313,-111.795,-98.517,-77.104,-90.525,-73.125,-84.455,-57.259
-106.631,-111.856,-96.802,-71.918,-89.496,-66.579,-80.695,-46.201
-105.489,-107.652,-97.558,-67.241,-90.578,-61.498,-77.816,-41.26
-106.217,-103.673,-98.075,-64.578,-92.072,-60.04,-77.015,-46.745
-107.184,-103.431,-96.499,-64.37,-91.938,-60.7,-78.923,-55.813
-106.418,-105.472,-92.408,-65.471,-89.006,-60.929,-80.27,-60.036
-103.975,-106.372,-86.65,-64.339,-83.944,-58.071,-76.878,-54.407
-98.787,-102.521,-80.74,-58.371,-78.478,-50.745,-68.482,-39.745
-89.955,-92.587,-77.79,-51.754,-75.424,-43.273,-61.341,-27.117
-79.554,-79.804,-78.838,-50.231,-76.03,-41.683,-60.745,-26.347
-68.217,-68.532,-78.211,-50.939,-76.129,-43.762,-61.892,-30.505
-53.777,-59.254,-69.985,-46.787,-70.498,-41.604,-58.382,-28.285
-37.173,-48.762,-56.147,-38.6,-60.176,-34.299,-53.252,-23.298
-24.389,-36.082,-44.74,-33.69,-51.934,-29.285,-51.726,-24.823
-18.608,-24.253,-40.761,-33.252,-49.643,-29.408,-50.559,-29.893
-12.417,-12.304,-37.074,-27.659,-45.688,-24.779,-40.785,-24.774
1.591,3.052,-23.628,-10.732,-30.92,-7.316,-21.579,-3.023
16.056,16.824,-6.402,6.322,-12.668,11.203,-6.504,20.496
20.968,22.321,1.639,10.231,-4.123,14.472,-5.111,25.59
19.522,21.175,1.108,4.927,-4.408,5.842,-9.541,14.93
19.761,18.45,0.334,0.453,-5.586,-2.025,-11.22,5.435
24.688,17.963,1.755,-0.923,-4.787,-5.299,-11.634,1.542
32.718,21.147,3.359,0.523,-3.023,-3.796,-12.249,1.171
39.587,25.781,4.582,4.835,-1.839,2.87,-11.45,8.08
42.04,28.5,6.251,8.115,-1.325,8.79,-9.079,20.928
38.769,26.691,5.603,5.167,-2.581,6.732,-6.982,27.993
28.992,20.557,-2.776,-3.82,-9.801,-2.14,-8.422,19.684
18.138,16.991,-14.37,-10.199,-19.724,-7.77,-12.019,6.791
17.094,22.729,-14.919,-4.186,-19.458,-0.123,-9.138,12.354
25.67,32.604,-2.905,10.366,-7.415,16.067,2.009,32.369
32.737,37.093,8.987,21.208,3.97,26.62,12.821,41.29
34.431,34.863,16.168,25.133,9.578,27.606,18.776,36.201
31.923,26.994,19.88,23.31,11.082,21.968,19.958,29.78
23.22,14.601,15.693,15.849,6.586,12.527,15.201,24.721
11.07,5.028,4.659,10.199,-1.823,8.658,7.711,23.9
2.814,4.6,-2.927,14.685,-6.709,17.8,5.51,32.62
0.679,10.4,-1.981,25.937,-5.688,32.534,11.235,45.542
1.494,15.37,3.644,34.711,-1.925,41.179,18.836,52.943
1.115,14.268,8.095,35.962,0.977,40.401,21.682,51.406
-1.911,8.063,8.326,31.474,1.506,34.034,20.076,44.44
-4.11,4.582,6.649,28.134,1.726,29.731,19.45,41.807
-2.829,7.076,7.064,28.405,3.478,30.455,20.897,47.713
-1.206,9.877,9.705,26.944,5.27,30.295,20.201,52.374
-2.404,10.874,10.999,21.728,4.774,25.418,16.734,47.685
-5.655,13.195,7.73,16.037,0.496,17.926,11.992,35.432
-8.935,15.299,1.861,11.404,-5.655,10.912,6.003,21.625
-7.644,16.015,1.148,12.618,-5.542,12.629,5.936,21.893
3.697,22.055,12.22,27.638,8.255,31.32,21.942,48.909
20.78,35.258,30.664,49.904,29.636,55.803,46.664,81.395
31.794,45.173,43.263,61.217,42.969,65.796,61.355,87.576
33.193,45.473,43.966,58.451,42.838,62.925,63.016,76.338
31.967,43.17,40.434,54.561,38.657,62.925,63.416,76.832
35.021,46.018,43.016,55.881,39.829,67.435,68.897,87.827
43.666,53.588,54.267,59.942,47.522,70.951,77.676,93.166
55.279,62.907,69.768,68.388,59.686,78.213,87.856,97.878
64.278,71.166,81.575,81.375,72.051,90.585,96.594,108.659
65.651,75.073,83.413,90.448,77.694,97.566,98.826,115.029
63.145,76.641,79.009,93.439,76.485,97.605,95.609,117.029
64.873,80.926,77.667,98.433,76.218,101.013,94.683,126.96
69.563,86.701,80.648,104.866,79.132,106.727,97.28,135.814
69.54,90.174,82.009,102.703,79.757,103.151,96.759,125.681
63.221,90.305,79.176,91.1,75.783,91.06,91.766,107.233
54.722,85.158,75.073,79.837,70.957,83.084,88.629,103.261
48.846,75.291,74.999,77.992,71.155,87.212,93.241,114.779
49.569,68.009,81.269,88.389,78.723,102.189,105.622,130.977
54.275,67.533,86.703,102.578,85.694,117.087,115.579,141.979
54.228,68.949,82.857,105.523,82.145,116.796,110.255,133
47.073,67.127,73.302,93.746,71.563,98.851,92.49,101.105
39.503,61.954,66.315,79.533,64.228,78.655,77.941,72.854
37.999,56.692,64.616,76.008,64.014,73.534,76.291,77.125
43.275,56.594,68.86,83.236,69.948,82.687,85.308,103.154
47.873,60.109,75.663,87.636,76.77,87.281,93.669,111.267
42.195,57.104,76.104,79.046,76.318,76.957,91.785,90.89
28.874,46.307,68.984,66.266,69.553,65.338,85.718,73.857
20.184,37.677,63.315,64.625,66.207,68.575,87.213,82.625
19.531,32.863,63.137,73.528,68.569,82.496,93.696,102.095
19.778,25.245,63.341,80.159,69.314,92.238,94.193,110.431
18.494,17.796,60.124,80.02,64.927,92.88,87.558,107.116
19.795,19.419,55.965,79.707,59.471,90.267,82.554,102.104
24.272,28.604,55.325,82.665,57.605,89.493,85.826,102.647
29.919,38.078,60.597,85.3,61.748,90.668,95.579,113.549
37.083,47,70.261,86.886,71.205,93.763,104.295,130.049
44.342,55.83,78.851,91.281,80.826,100.614,107.56,138.144
46.22,59.805,80.052,95.551,83.988,106.49,105.837,131.546
40.322,57.181,72.337,90.395,78.097,100.771,98.84,116.188
31.94,52.046,62.163,77.101,67.903,85.511,89.749,101.458
28.316,45.601,57.16,68.805,61.343,76.478,86.699,96.443
30.85,38.394,56.585,70.024,59.922,78.59,89.174,101.758
34.319,34.036,54.267,70.518,57.626,79.974,86.829,102.733
34.806,32.379,49.908,63.13,51.812,72.674,76.017,87.881
35.707,32.925,49.646,54.541,48.104,62.823,65.25,69.081
41.171,40.67,54.918,55.337,51.035,61.592,64.566,67.715
47.356,53.894,58.097,62.72,55.125,68.356,71.951,80.649
47.803,59.962,53.36,62.298,51.988,68.749,75.066,82.174
45.246,55.665,47.685,53.397,45.569,60.618,71.648,70.436
47.084,52.842,51,51.555,47.532,59.497,72.225,71.496
53.379,57.023,61.421,62.901,59.272,71.618,81.301,93.635
60.721,61.875,71.547,78.856,72.377,88.287,93.999,121.597
67.972,64.679,77.6,88.396,79.549,98.433,102.163,137.79
72.492,68.556,78.231,85.339,78.876,94.569,97.741,127.55
73.623,73.699,76.086,75.412,75.553,81.623,85.163,96.724
75.651,77.142,75.129,70.984,75.091,73.946,79.385,74.912
77.883,77.575,72.696,73.664,73.87,75.382,82.071,75.509
75.941,79.107,66.179,76.361,68.097,78.613,82.679,83.784
72.485,85.185,61.589,77.686,63.608,80.94,80.088,88.521
69.804,87.585,63.398,80.037,64.983,84.319,79.928,92.465
63.346,78.38,66.047,80.963,66.938,86.09,80.214,95.034
53.107,65.705,62.806,75.711,63.292,80.703,75.275,87.581
47.067,60.435,56.48,67.629,57.461,71.711,67.868,75.603
50.787,63.085,56.125,67.776,58.525,72.062,66.857,81.136
61.354,69.808,62.902,77.032,66.614,83.166,73.366,103.656
70.963,77.38,67.852,82.257,72.053,89.597,78.465,115.455
74.648,82.087,67.712,77.804,72.063,84.189,77.169,105.258
72.456,78.969,68.477,71.354,72.913,75.664,74.396,85.833
66.094,67.682,70.229,67.605,74.372,70.148,72.95,69.194
59.101,58.742,66.735,64.399,70.22,66.022,67.844,59.892
56.189,62.098,60.08,60.611,62.592,61.813,57.119,55.325
57.743,71.719,58.716,58.753,59.82,60.002,48.729,53.526
59.865,75.664,62.627,61.574,62.598,64.268,50.792,61.305
61.441,74.993,64.005,67.396,64.292,72.997,59.77,79.004
65.605,77.268,61.751,71.928,63.195,80.606,66.155,94.965
71.749,80.387,61.913,73.095,63.461,83.402,66.554,99.879
72.975,77.374,64.927,70.686,65.401,79.776,63.273,89.096
66.817,68.679,66.488,67.09,66.043,73.131,60.635,69.35
58.958,60.371,65.079,66.506,64.701,71.048,61.443,62.057
53.324,56.664,59.344,67.753,60.416,73.033,61.272,69.532
50.914,58.297,50.44,66.116,53.668,71.538,56.171,68.909
52.915,62.291,46.119,62.543,50.295,66.631,52.336,59.633
56.572,64.198,50.734,62.464,54.132,66.151,55.199,63.405
58.495,64.536,59.22,67.184,61.273,72.385,59.332,77.007
58.448,65.867,63.623,70.843,64.393,77.717,58.3,79.064
55.593,66.384,61.209,70.408,61.246,78.389,55.623,72.927
52.266,65.736,58.734,73.139,59.452,82.384,59.239,80.437
52.512,65.847,61.175,80.292,63.413,90.077,66.551,97.357
50.25,62.177,60.316,77.242,62.757,85.308,65.05,92.96
38.676,50.478,50.868,58.916,51.685,64.256,52.988,62.344
27.429,38.471,43.554,43.498,43.189,48.004,44.286,40.03
28.38,35.756,46.352,44.209,46.468,50.59,46.736,48.307
35.275,39.479,50.186,49.935,50.919,58.633,50.623,64.577
35.779,41.243,45.392,47.119,45.915,55.763,45.679,59.59
30.925,39.944,36.98,40.775,37.445,47.688,37.243,43.247
27.281,37.967,31.707,38.287,32.677,44.552,34.026,37.735
24.543,35.57,27.487,35.054,28.329,41.464,32.9,39.095
22.976,35.97,24.964,31.311,24.834,36.568,29.424,40.097
25.305,40.472,27.593,35.034,27.727,37.709,26.972,44.725
26.959,40.002,30.529,42.321,32.659,42.528,27.068,47.516
21.463,29.06,27.555,41.217,30.68,40.598,25.533,39.386
12.406,17.977,20.972,32.002,23.094,32.716,21.352,28.683
9.346,18.307,17.631,25.429,18.668,29.199,19.586,30.164
15.282,28.481,20.127,24.929,20.436,32.029,22.625,40.079
22.733,38.337,22.37,23.204,21.475,31.449,25.308,40.336
23.489,39.74,17.923,16.769,16.2,23.157,22.608,26.091
19.638,33.78,11.089,12.935,10.172,17.195,16.778,13.025
18.516,28.159,10.409,17.596,11.203,22.452,13.612,12.909
20.357,26.138,15.671,25.693,17.205,33.485,15.75,20.201
21.215,24.912,21.059,30.152,21.655,40.465,21.477,27.835
22.307,24.865,25.591,31.382,24.302,41.575,27.243,34.182
25.696,29.381,30.622,32.515,27.534,40.154,30.555,35.188
28.814,36.063,32.902,33.627,29.625,38.476,31.721,31.656
29.729,38.202,30.095,33.628,28.943,36.385,32.226,33.804
29.452,34.711,25.485,32.51,26.73,33.368,31.391,42.052
27.679,30.469,20.091,30.635,22.413,30.756,27.289,42.655
21.89,25.959,10.226,26.893,13.376,28.222,19.96,30.709
11.21,16.871,-2.937,19.969,1.034,22.544,11.043,14.451
-0.01,7.13,-10.39,13.6,-6.707,15.821,3.826,1.04
-5.516,6.794,-6.874,14.314,-3.898,16.113,3.034,-3.42
-4.933,14.067,0.747,20.343,4.015,23.099,8.153,3.791
-1.966,18.409,4.432,24.465,8.399,27.707,12.883,15.521
2.422,18.492,6.358,27.049,10.238,29.451,15.038,24.449
6.51,18.741,9.476,29.858,12.625,32.769,15.62,27.099
6.757,18.74,10.799,28.001,12.726,32.863,12.987,19.904
7.042,19.841,12.231,22.589,11.758,27.593,9.624,7.446
14.095,27.982,18.152,21.271,14.797,24.672,11.349,0.732
23.615,42.733,22.588,21.441,18.454,23.059,16.116,2.295
27.19,54.043,19.307,15.742,16.765,14.506,17.455,7.181
25.239,51.19,13.116,7.978,11.7,4.009,13.902,10.311
20.999,33.609,8.479,4.448,6.809,0.37,8.16,6.676
15.271,14.059,4.586,3.236,2.575,0.083,3.879,-2.074
11.485,6.07,2.638,2.392,0.192,-0.467,3.238,-5.715
11.655,9.085,3.37,3.046,0.121,1.742,4.656,-0.894
12.095,13.622,4.03,3.908,0.671,5.473,5.415,4.993
10.409,15.464,2.693,2.305,0.272,4.919,4.031,6.236
7.856,15.818,-0.425,-2.268,-2.534,-0.601,-1.176,1.476
6.002,14.854,-3.325,-7.161,-7.02,-5.085,-9.183,-8.23
5.778,13.246,-4.277,-8.518,-9.29,-4.017,-13.962,-16.246
6.752,14.847,-4.122,-4.184,-7.175,1.818,-11.184,-13.123
6.696,20.083,-3.535,3.824,-3.112,9.269,-3.916,0.686
3.304,22.229,-2.715,8.89,-1.553,13.493,0.588,11.235
-2.668,17.336,-3.057,7.727,-3.823,11.978,-1.105,8.716
-8.127,8.511,-5.282,5.074,-7.203,8.503,-5.431,-1.29
-11.295,-0.159,-8.604,4.669,-9.779,6.96,-8.815,-8.544
-10.811,-3.512,-10.573,5.708,-10.892,8.059,-11.03,-7.099
-6.593,0.947,-8.8,7.694,-9.455,11.247,-10.731,1.126
-3.981,4.019,-5.991,8.085,-7.598,12.341,-7.658,4.521
-6.331,-2.188,-6.004,4.038,-8.216,8.425,-4.433,-2.511
-7.972,-8.053,-6.14,-0.47,-8.592,5.094,-2.047,-8.722
-5.845,-4.685,-3.544,-1.349,-6.361,6.683,-1.903,-6.066
-5.217,-1.114,-2.321,-1.765,-5.354,7.939,-6.398,-2.857
-8.137,-5.924,-7.466,-5.736,-9.789,3.024,-13.25,-7.813
-9.894,-11.601,-16.724,-12.089,-18.074,-6.632,-17.863,-17.788
-6.405,-7.679,-21.37,-15.219,-22.999,-13.861,-17.986,-23.045
1.437,4.087,-17.313,-11.326,-19.881,-13.021,-13.453,-18.032
8.833,13.56,-10.919,-4.68,-13.355,-7.64,-7.415,-8.801
12.023,14.571,-7.723,-1.127,-9.255,-4.591,-4.246,-5.257
11.573,10.067,-4.658,0.826,-5.827,-3.434,-3.83,-6.164
8.614,5.363,-0.388,2.555,-1.422,-2.427,-4.228,-5.02
2.515,0.621,-0.664,-0.611,-0.804,-5.228,-6.498,-4.856
-4.411,-4.529,-7.208,-8.968,-6.167,-12.128,-10.906,-10.846
-7.482,-6.124,-14.241,-15.403,-12.946,-16.747,-15.008,-17.578
-6.607,-2.032,-17.604,-15.613,-17.469,-14.689,-17.384,-16.71
-5.675,3.129,-18.221,-12.256,-20.103,-9.052,-19.096,-11.604
-6.443,3.247,-19.155,-10.794,-22.236,-7.524,-22.076,-13.194
-6.886,-0.642,-20.547,-12.545,-23.005,-12.044,-24.432,-20.553
-3.583,0.562,-17.795,-12.119,-19.042,-14.265,-21.008,-20.782
4.577,13.437,-9.425,-5.709,-9.911,-7.997,-11.713,-10.499
13.668,29.198,-0.641,2.147,-0.537,0.643,-2.731,-0.278
17.65,30.709,3.312,4.288,3.563,1.843,-0.303,1.314
15.15,17.98,0.917,-1.166,0.543,-6.189,-6.135,-5.945
10.594,7.155,-4.245,-9.117,-5.477,-15.705,-15.148,-15.662
8.635,3.852,-4.583,-10.933,-6.563,-15.544,-17.824,-12.757
9.641,2.767,0.846,-5.955,-1.651,-6.979,-11.657,6.22
10.082,2.199,3.28,-6.619,0.419,-8.392,-7.976,11.865
8.284,2.203,-0.122,-17.47,-3.704,-24.421,-14.592,-13.503
7.438,1.635,-3.042,-24.368,-6.817,-33.904,-21.958,-38.823
9.023,0.405,-4.535,-20.381,-6.495,-28.401,-21.244,-39.885
10.851,0.559,-6.473,-14.431,-5.891,-21.416,-16.17,-32.612
13.154,4.75,-4.411,-9.616,-3,-16.196,-10.078,-28.308
16.429,11.578,2.942,-2.433,3.414,-6.538,-3.362,-20.361
16.655,15.084,7.982,3.318,7.409,2.527,-0.777,-12.28
11.709,12.745,5.382,1.518,4.771,1.395,-5.336,-14.871
7.386,10.861,0.014,-4.486,0.119,-7.308,-10.205,-22.483
8.898,13.006,-0.778,-5.992,-0.047,-11.003,-7.103,-18.234
12.337,11.525,1.457,-2.151,2.729,-4.99,0.807,-2.273
11.814,3.056,0.522,-0.493,2.528,0.811,3.631,6.715
6.943,-4.741,-3.459,-5.94,-1.711,-3.295,-1.83,-0.778
-0.43,-8.206,-8.229,-15.569,-8.039,-13.429,-10.788,-13.584
-8.07,-9.928,-15.488,-22.309,-15.211,-18.649,-16.868,-16.606
-12.535,-9.492,-22.859,-22.368,-19.792,-16.207,-16.757,-9.202
-12.799,-6.496,-23.659,-19.907,-19.181,-13.954,-14.31,-3.713
-11.459,-5.432,-19.086,-21.504,-17.109,-17.764,-16.801,-8.618
-10.138,-9.087,-15.946,-27.186,-17.375,-24.47,-23.709,-19.905
-8.556,-13.53,-15.848,-32.029,-18.323,-28.727,-27.615,-28.182
-7.918,-14.64,-17.129,-34.003,-18.606,-29.945,-24.76,-27.97
-10.578,-14.661,-20.63,-36.49,-20.935,-32.822,-20.029,-24.594
-15.764,-16.629,-27.644,-42.229,-27.508,-40.711,-21.863,-28.547
-18.008,-16.783,-34.611,-45.175,-34.2,-45.846,-27.955,-35.453
-14.627,-12.264,-36.094,-39.309,-34.934,-39.725,-28.37,-33.525
-10.977,-7.897,-32.529,-31.525,-30.796,-30.152,-24.556,-28.501
-10.565,-5.66,-26.751,-28.124,-25.17,-26.383,-22.514,-28.961
-10.924,-4.296,-20.719,-24.744,-18.884,-24.365,-20.276,-29.05
-12.51,-8.769,-19.324,-20.287,-16.055,-20.669,-18.186,-25.49
-16.013,-18.336,-23.096,-18.025,-18.675,-17.667,-19.032,-21.939
-16.362,-20.568,-24.098,-16.014,-19.939,-15.398,-18.738,-18.76
-12.153,-13.614,-19.963,-13.42,-16.39,-13.904,-15.207,-16.213
-9.414,-9.331,-17.018,-14.143,-13.538,-14.959,-13.763,-15.234
-10.421,-9.995,-17.3,-17.712,-14.304,-17.51,-16.813,-14.514
-12.036,-9.15,-18.493,-20.889,-16.861,-20.833,-22.593,-16.619
-13.433,-8.699,-20.612,-23.962,-20.213,-26.012,-29.231,-24.146
-14.756,-12.383,-22.318,-26.379,-22.248,-29.96,-33.153,-30.021
-13.946,-15.528,-20.925,-27.462,-20.981,-30.71,-33.203,-31.867
-9.991,-13.74,-17.387,-28.905,-17.74,-31.72,-30.88,-36.814
-5.499,-9.777,-14.343,-29.727,-14.292,-32.679,-26.416,-40.628
-4.382,-8.351,-13.363,-28.941,-12.343,-31.494,-23.952,-35.991
-5.606,-8.752,-14.149,-27.722,-12.661,-29.943,-26.583,-29.516
-3.557,-6.439,-14.662,-24.739,-12.889,-28.136,-28.633,-28.534
2.353,-1.754,-13.175,-19.704,-11.035,-25.52,-26.876,-31.174
8.082,2.873,-8.494,-14.539,-6.784,-22.562,-24.518,-28.564
12.985,9.537,-2.077,-9.861,-1.085,-18.911,-23.015,-17.934
15.999,15.303,-0.607,-10.224,0.399,-19.882,-23.745,-15.803
11.579,9.845,-8.136,-20.676,-7.447,-31.09,-28.348,-32.382
-1.235,-5.664,-18.129,-33.827,-18.878,-43.204,-32.857,-48.605
-13.718,-16.555,-21.913,-37.33,-23.755,-43.202,-32.176,-47.88
-17.873,-17.832,-20.254,-31.404,-21.711,-34.47,-28.419,-39.804
-15.549,-17.361,-19.134,-25.574,-19.466,-28.74,-26.833,-35.663
-12.483,-16.793,-19.659,-24.381,-19.007,-29.203,-27.631,-32.62
-11.401,-12.83,-19.551,-25.193,-18.432,-30.758,-28.265,-27.73
-14.397,-10.603,-20.693,-25.946,-19.879,-29.995,-29.179,-24.807
-21.708,-15.53,-26.907,-27.888,-26.016,-29.66,-32.339,-26.531
-27.779,-22.485,-34.83,-30.398,-31.884,-32.485,-37.516,-31.58
-27.761,-25.256,-36.628,-29.401,-30.815,-34.867,-41.556,-35.783
-23.37,-24.257,-32.127,-23.764,-25.082,-31.878,-40.502,-34.534
-18.898,-22.021,-28.366,-19.719,-22.227,-27.746,-35.412,-32.376
-18.24,-20.455,-28.42,-22.942,-24.184,-31.208,-32.506,-37.7
-22.852,-20.143,-28.936,-28.708,-26.165,-39.107,-33.31,-44.368
-29.194,-21.086,-27.633,-30.409,-25.283,-41.815,-33.129,-42.373
-33.077,-24.431,-26.527,-30.036,-24.037,-39.756,-30.958,-37.155
-36.155,-30.216,-28.514,-30.965,-25.535,-38.308,-31.292,-38.31
-41.466,-35.059,-33.38,-31.258,-29.493,-37.117,-34.394,-43.731
-44.865,-34.597,-36.382,-27.234,-31.87,-32.232,-33.238,-41.957
-42.156,-30.615,-35.195,-20.31,-30.809,-24.478,-26.23,-28.87
-38.551,-30.735,-34.42,-18.753,-30.353,-22.338,-23.268,-19.583
-38.137,-34.556,-35.47,-25.659,-31.576,-29.453,-29.326,-25.062
-35.103,-31.442,-32.452,-31.706,-28.786,-36.165,-34.048,-31.425
-26.464,-19.523,-24.977,-30.558,-21.236,-35.421,-28.926,-28.531
-20.882,-11.947,-22.046,-28.367,-17.037,-33.326,-21.768,-27.148
-25.582,-18.458,-27.766,-31.489,-20.656,-37.285,-23.438,-34.25
-33.855,-32.759,-33.874,-37.279,-25.982,-45.74,-30.785,-43.581
-34.199,-41.323,-31.342,-37.983,-25.212,-48.909,-32.012,-46.87
-27.168,-39.28,-23.371,-31.483,-20.081,-41.476,-24.481,-41.371
-21.977,-32.321,-18.767,-24.612,-17.647,-31.885,-16.907,-31.943
-20.651,-25.914,-18.113,-22.462,-18.422,-29.564,-15.227,-25.54
-19.801,-22.715,-18.431,-24.617,-19.715,-34.171,-17.534,-25.538
-19.743,-24.448,-20.767,-29.405,-22.128,-39.919,-20.136,-28.407
-21.405,-29.285,-24.083,-33.506,-24.581,-41.243,-20.991,-26.572
-24.519,-34.742,-25.059,-35.055,-24.94,-38.435,-20.88,-21.732
-29.775,-39.652,-25.339,-35.744,-25.225,-36.476,-22.432,-23.278
-34.998,-38.845,-27.789,-35.883,-26.79,-37.44,-25.295,-31.535
-34.934,-26.465,-28.75,-34.516,-26.26,-40.093,-25.829,-38.294
-29.142,-8.637,-23.253,-31.16,-21.104,-40.171,-23.286,-35.685
-24.015,-2.706,-15.15,-25.197,-14.172,-32.694,-20.508,-20.778
-24.328,-14.759,-12.918,-19.859,-10.842,-23.598,-20.241,-8.165
-27.139,-29.209,-16.617,-20.014,-12.365,-24.596,-24.103,-19.763
-27.035,-32.823,-18.393,-22.578,-13.804,-31.747,-28.494,-42.997
-24.408,-30.856,-16.29,-20.808,-12.445,-31.787,-26.947,-44.632
-23.372,-29.779,-16.659,-15.621,-12.494,-25.747,-21.339,-31.605
-23.496,-26.167,-21.277,-12.401,-15.952,-23.249,-17.907,-31.008
-22.646,-20.838,-25.214,-13.29,-19.319,-24.636,-16.566,-33.289
-24.893,-23.863,-27.798,-17.547,-21.787,-25.299,-15.972,-22.025
-32.02,-35.031,-31.315,-22.92,-24.709,-25.496,-18.915,-14.207
-33.975,-37.185,-31.469,-25.819,-24.849,-26.6,-24.591,-23.707
-24.47,-22.352,-24.725,-24.677,-19.791,-25.852,-25.476,-32.723
-14.658,-6.717,-18.508,-21.57,-14.805,-20.318,-19.377,-25.019
-15.609,-6.46,-19.283,-18.867,-14.584,-12.546,-15.063,-11.505
-22.652,-17.651,-22.824,-18.106,-16.835,-8.906,-17.94,-9.535
-26.769,-27.788,-24.249,-19.442,-18.228,-10.992,-21.297,-17.325
-26.039,-30.139,-23.336,-20.178,-17.65,-13.439,-19.246,-21.948
-23.442,-26.61,-21.181,-18.868,-15.806,-13.531,-16.319,-22.723
-22.493,-24.034,-20.195,-17.57,-15.354,-13.946,-18.012,-27.939
-22.907,-23.344,-21.356,-16.656,-16.417,-14.597,-21.727,-34.508
-20.49,-18.12,-20.955,-13.184,-14.682,-11.134,-21.682,-30.902
-15.258,-8.531,-16.312,-6.164,-8.773,-2.263,-17.295,-16.954
-12.463,-2.788,-10.448,1.152,-3.271,6.889,-12.99,-6.879
-12.653,-3.319,-7.272,4.716,-1.477,10.145,-11.139,-9.062
-11.268,-5.041,-6.543,2.723,-1.507,5.589,-9.528,-13.786
-7.311,-3.548,-4.31,-1.816,0.438,-2.529,-6.462,-11.353
-4.167,0.547,1.594,-3.108,5.691,-6.134,-3.662,-6.72
-4.672,0.626,7.14,-1.009,10.649,-2.667,-2.127,-4.398
-7.678,-6.856,7.75,0.597,11.196,3.062,0.118,0.751
-10.066,-14.259,4.188,0.776,7.869,5.83,1.575,5.155
-12.032,-13.522,-1.1,-1.463,2.753,2.534,-3.214,-4.948
-14.164,-5.948,-6.023,-6.753,-2.723,-4.625,-11.733,-23.984
-13.835,1.439,-8.024,-11.021,-6.314,-8.319,-15.478,-30.019
-11.85,1.79,-7.132,-10.647,-6.759,-5.63,-14.592,-20.838
-13.243,-5.214,-6.214,-6.806,-5.314,-0.419,-13.539,-11.974
-19.13,-14.657,-7.486,-2.684,-4.883,3.237,-10.815,-9.587
-25.592,-23.548,-10.957,-0.759,-7.501,3.582,-5.873,-9.467
-27.029,-28.152,-13.368,0.056,-10.115,2.578,-2.227,-6.695
-22.364,-25.441,-11.364,1.698,-8.493,3.521,-1.397,-1.285
-19.998,-21.452,-8.524,0.426,-6.497,3.738,-4.3,-1.332
-23.675,-21.162,-9.055,-4.421,-8.193,2.064,-8.803,-5.905
-23.874,-19.441,-8.776,-4.585,-7.999,4.921,-7.41,-0.801
-18.959,-16.456,-6.608,-1.354,-5.042,8.472,-1.788,6.357
-20.773,-20.417,-9.336,-5.915,-8.157,1,-4.109,-6.776
-30.933,-28.925,-16.425,-14.483,-16.92,-10.312,-14.798,-26.715
-36.953,-30.062,-19.188,-13.726,-20.564,-9.608,-20.647,-24.677
-32.229,-20.345,-14.635,-5.617,-15.572,-0.923,-16.528,-10.765
-23.814,-7.616,-9.005,-2.492,-9.005,1.159,-10.678,-10.316
-18.981,1.439,-7.613,-5.873,-6.244,-3.762,-8.863,-16.547
-14.467,7.026,-7.096,-7.148,-4.459,-5.46,-7.096,-11.333
-8.129,6.917,-5.738,-6.761,-2.753,-4.926,-4.008,-5.19
-7.584,-4.696,-9.395,-13.264,-6.368,-11.511,-5.808,-13.914
-14.936,-22.431,-16.834,-22.678,-13.694,-20.595,-12.59,-23.552
-18.576,-29.303,-17.513,-22.249,-15.041,-19.459,-14.732,-18.546
-10.455,-18.57,-8.653,-11.979,-7.693,-9.644,-7.864,-10.801
0.198,-3.421,0.326,-2.428,0.123,-1.49,0.088,-12.303
0.72,1.92,2.094,3.454,2.14,4.581,2.117,-12.002
-6.24,-1.488,0.114,10.492,1.927,13.684,1.747,0.342
-9.223,-4.35,-0.019,18.536,4.225,22.953,3.924,15.563
-5.242,-2.359,1.025,21.933,7.07,25.647,6.964,22.499
-1.516,0.99,-0.34,16.931,5.929,19.181,5.562,18.279
-4.345,1.339,-5.295,4.723,-0.408,5.577,-2.353,3.824
-10.451,-0.19,-11.328,-7.793,-8.294,-7.734,-10.792,-11.9
-11.597,-0.653,-14.53,-12.942,-12.412,-13.224,-11.875,-17.176
-6.361,-1.293,-13.215,-9.933,-11.271,-11.088,-5.355,-9.908
0.741,-2.198,-7.672,-3.113,-6.682,-5.185,3.286,3.816
7.436,-0.179,0.381,2.629,-0.776,0.753,7.76,12.707
12.35,1.833,6.98,4.474,3.887,3.415,5.939,9.092
12.574,-2.245,9.055,4.018,5.523,3.324,3.235,-0.809
6.073,-11.594,5.67,1.83,2.959,0.358,1.568,-9.897
-4.482,-19.79,-1.561,-3.504,-2.819,-6.842,-3.877,-17.372
-10.282,-20.319,-5.607,-6.639,-4.911,-11.404,-8.937,-15.746
-7.045,-13.885,-2.469,-2.753,0.13,-7.181,-5.831,-1.747
-3.934,-9.896,-0.652,-1.574,2.691,-5.456,-2.156,3.659
-8.062,-12.783,-6.49,-12.032,-4.103,-17.468,-6.811,-14.768
-10.677,-14.954,-10.43,-22.024,-9.918,-29.28,-11.058,-32.379
-4.892,-11.192,-6.094,-18.917,-6.619,-24.987,-7.723,-24.469
1.471,-5.557,-3.033,-10.876,-2.63,-14.173,-4.257,-6.444
2.588,0.169,-6.06,-7.465,-3.69,-9.62,-3.875,0.806
1.738,5.863,-8.441,-6.174,-4.694,-8.48,-2.837,-0.057
1.515,6.342,-7.415,-3.339,-3.039,-5.326,-2.292,-0.629
2.534,1.062,-5.503,1.712,-0.416,0.137,-3.166,1.163
3.699,-2.8,-5.431,6.541,0.706,4.524,-4.025,2.885
1.923,-2.438,-8.435,6.862,-1.528,4.603,-6.509,2.124
-2.399,-2.353,-11.24,3.522,-4.418,2.356,-10.924,0.702
-7.284,-7.134,-12.245,-0.903,-6.209,-1.473,-14.891,-1.632
-13.775,-16.351,-15.388,-8.309,-10.548,-11.039,-18.358,-8.386
-21.337,-25.167,-21.127,-19.188,-17.891,-25.598,-22.258,-18.639
-25.759,-29.011,-24.573,-28.368,-22.88,-36.956,-24.995,-26.99
-24.343,-26.485,-22.964,-30.044,-21.685,-37.959,-23.076,-27.387
-19.575,-20.167,-18.701,-24.59,-16.269,-30.178,-16.141,-19.892
-16.178,-15.041,-15.734,-17.559,-11.451,-21.262,-9.234,-11.68
-15.91,-13.998,-14.727,-13.134,-9.521,-15.77,-7.318,-7.121
-17.381,-16.048,-14.257,-12.642,-9.845,-14.067,-10.964,-6.45
-18.655,-18.226,-14.505,-14.993,-11.571,-15.033,-17.011,-9.202
-18.698,-18.429,-16.216,-17.393,-14.467,-16.862,-21.746,-13.004
-16.752,-16.366,-17.988,-17.669,-17.24,-18.232,-23.643,-14.678
-12.178,-12.086,-17.586,-15.041,-17.307,-18.4,-22.859,-13.941
-7.94,-7.782,-16.97,-12.958,-16.351,-19.153,-21.518,-14.78
-9.021,-8.825,-20.607,-17.778,-19.957,-23.858,-22.521,-17.687
-13.849,-15.539,-26.647,-28.381,-27.02,-30.841,-24.748,-17.328
-15.179,-19.327,-27.374,-34.424,-29.102,-33.327,-23.821,-14.206
-11.311,-15.159,-20.499,-29.538,-23.169,-27.752,-19.007,-13.48
-7.993,-9.92,-13.64,-19.17,-16.31,-18.516,-15.318,-14.875
-9.353,-11.57,-13.6,-12.205,-15.217,-12.935,-16.985,-17.589
-14.278,-18.239,-17.613,-11.084,-18.23,-12.974,-22.465,-23.502
-17.458,-21.183,-18.122,-11.167,-18.629,-13.372,-25.62,-28.32
-14.154,-16.266,-11.731,-7.995,-12.505,-9.989,-21.449,-25.567
-10.358,-11.51,-4.937,-4.625,-5.331,-6.963,-14.331,-19.253
-15.098,-14.663,-5.516,-4.606,-4.232,-7.539,-11.985,-15.939
-23.966,-20.557,-10.263,-4.627,-6.607,-7.726,-12.834,-14.048
-28.013,-22.78,-13.132,-3.698,-7.921,-6.689,-12.382,-11.613
-26.247,-20.676,-12.853,-3.958,-7.692,-6.717,-10.62,-8.015
-21.47,-13.812,-8.398,-2.27,-4.436,-4.803,-7.476,-0.713
-18.019,-6.648,-2.906,2.486,-0.234,0.412,-2.919,6.52
-19.926,-7.61,-4.281,3.6,-2.216,3.292,0.194,5.327
-25.266,-17.238,-11.891,-2.219,-10.226,0.5,-0.903,-2.902
-27.419,-27.11,-14.687,-7.929,-14.305,-3.052,-3.436,-6.576
-21.377,-27.682,-6.998,-5.036,-8.506,-0.017,-1.082,2.136
-9.657,-17.229,3.269,4.089,0.753,8.473,4.931,15.851
-2.835,-5.903,5.054,6.604,2.701,9.773,4.169,15.118
-6.716,-3.008,-2.211,-3.246,-4.594,-2.869,-7.032,-6.029
-11.622,-2.948,-8.108,-12.506,-11.634,-14.529,-16.207,-21.806
-7.9,1.19,-6.239,-9.532,-11.426,-11.087,-13.594,-13.231
-3.523,-0.342,-4.048,-5.031,-10.311,-5.402,-9.331,-5.712
-8.062,-13.988,-7.945,-11.045,-14.279,-12.606,-12.94,-21.096
-13.968,-22.922,-10.764,-17.487,-16.445,-21.576,-14.795,-35.419
-12.204,-16.029,-6.908,-13.728,-11.757,-18.944,-7.559,-27.883
-8.614,-9.067,-3.485,-9.056,-8.09,-13.009,-1.876,-17
-9.448,-12.772,-4.986,-10.987,-10.244,-12.307,-5.143,-18.288
-8.789,-14.715,-3.834,-9.85,-9.816,-9.37,-7.33,-15.425
-3.803,-9.164,3.601,-0.587,-2.404,0.22,-2.247,0.592
-3.17,-8.33,8.009,5.3,2.605,6.718,0.083,7.45
-9.529,-15.166,2.837,-0.015,-1.091,2.777,-5.21,-5.369
-13.311,-16.906,-4.929,-7.899,-6.294,-4.079,-8.576,-13.727
-8.76,-7.829,-5.386,-6.796,-4.422,-2.19,-3.146,-1.648
-1.711,1.646,0.103,1.298,1.792,6.961,5.601,12.676
-0.933,-0.132,1.317,3.945,2.415,10.26,7.142,9.231
-6.303,-8.873,-4.118,-2.544,-4.215,2.83,0.085,-4.035
-8.914,-9.812,-7.197,-7.461,-8.863,-4.849,-5.721,-9.152
-5.678,-1.076,-4.457,-3.965,-7.349,-4.04,-5.066,-5.459
-3.937,3.536,-3.035,1.312,-5.651,0.928,-2.85,-2.356
-6.335,-1.882,-4.816,2.413,-5.776,3.367,-1.061,-0.927
-7.018,-8.124,-2.923,2.77,-2.47,4.439,3.949,3.481
-5.864,-9.163,3.454,5.479,4.114,7.286,10.335,11.348
-8.483,-8.979,6.391,7.246,6.746,9.357,11.409,17.947
-14.768,-11.392,1.37,4.283,1.789,5.864,5.876,17.499
-20.55,-16.115,-7.718,-3.272,-7.034,-3.098,-2.449,8.33
-23.638,-21.28,-14.608,-12.476,-14.319,-12.419,-9.316,-4.41
-22.87,-24.09,-16.849,-18.436,-17.594,-16.596,-10.11,-10.462
-16.785,-21.648,-14.791,-16.042,-15.558,-12.85,-3.549,-1.862
-6.313,-13.981,-8.763,-6.407,-8.026,-4.089,4.756,15.205
2.35,-6.305,-2.174,0.071,-0.709,-0.365,7.711,20.519
3.972,-3.699,-0.655,-3.914,-0.397,-7.688,3.54,4.955
3.841,-3.041,-1.924,-9.136,-2.738,-14.826,-2.409,-11.785
9.462,1.043,1.712,-3.868,1.341,-8.718,-2.5,-9.664
14.218,3.296,6.296,3.836,6.691,1.074,2.429,-0.28
7.12,-4.673,0.864,0.364,1.404,-1.247,4.077,-2.027
-4.572,-15.503,-9.265,-6.854,-8.728,-8.071,2.536,-6.224
-4.487,-14.381,-8.613,-3.821,-8.246,-4.77,5.96,0.711
5.787,-4.351,0.947,2.95,0.14,1.512,12.182,8.979
11.17,-0.601,3.927,-0.265,1.349,-2.739,10.403,5.617
9.285,-4.038,-2.112,-8.468,-4.972,-11.194,2.434,-1.125
9.762,-4.102,-5.201,-8.193,-6.409,-10.181,0.656,2.202
14.245,0.835,0.563,-0.627,0.384,-1.827,6.059,11.465
17.421,4.842,8.767,4.569,7.888,3.673,10.164,15.883
18.493,6.126,11.769,5.534,10.578,4.581,11.103,14.817
19.544,7.622,9.837,6.128,9.651,4.876,11.342,13.334
20.8,10.845,7.889,7.372,8.384,5.455,10.212,15.404
21.005,12.909,6.548,5.811,6.181,2.832,5.614,18.195
20.618,12.562,4.291,0.031,1.9,-4.317,-0.774,12.938
23.859,15.12,5.02,-3.09,0.69,-8.564,-2.032,1.498
33.523,24.276,12.293,3.325,7.163,-1.841,4.978,-2.159
45.824,35.493,21.387,14.713,16.319,11.103,13.136,6.368
54.243,42.525,24.838,20.113,19.548,17.241,14.344,12.788
55.803,44.385,20.758,15.174,14.639,11.85,8.61,4.329
53.312,44.747,13.81,6.214,7,3.312,0.877,-9.137
51.687,46.496,10.345,1.542,3.513,-0.055,-4.683,-11.708
51.525,48.198,11.924,1.309,5.328,-1.403,-6.532,-9.691
51.135,48.597,15.529,1.518,8.643,-6.288,-5.441,-16.7
53.144,50.515,19.747,4.217,12.439,-8.804,-1.726,-23.394
60.191,55.672,25.425,12.688,18.81,-0.618,5.606,-13.084
67.887,61.514,31.955,22.182,26.659,12.628,14.98,6.996
69.39,65.461,36.594,25.721,31.897,18.566,20.944,18.229
63.607,65.586,36.748,22.772,32.323,14.927,19.627,18.125
56.014,59.011,33.461,18.095,29.381,9.309,14.422,15.531
51.716,47.055,30.572,15.484,25.727,6.763,11.874,13.792
50.538,38.003,30.067,15.682,23.244,6.804,13.563,12.679
49.771,36.601,30.356,18.856,22.518,9.904,16.846,14.138
46.601,37.168,28.307,22.331,21.5,15.121,18.404,17.334
39.861,35.675,23.64,21.394,18.399,17.256,15.653,17.634
32.487,36.123,19.782,17.249,15.259,14.814,9.763,12.285
28.031,37.595,18.275,14.264,13.753,11.045,5.336,4.382
26.111,33.074,16.515,11.139,12.25,6.464,4.92,0.135
24.325,23.827,13.902,5.04,10.241,0.589,6.468,1.391
21.986,17.674,13.849,-0.056,9.995,-2.094,8.216,7.46
20.214,15.807,16.385,2.666,12.35,3.715,12.449,20.504
19.338,13.439,17,11.409,14.649,14.36,18.563,34.803
18.624,9.648,14.06,15.184,13.742,18.05,18.389,29.959
17.3,6.919,9.939,9.459,9.62,10.535,8.565,0.564
13.606,3.875,6.293,3.2,4.732,1.896,-1.452,-23.864
7.292,-0.909,3.522,3.109,1.119,-0.012,-3.697,-20.611
3.062,-2.405,3.696,5.163,1.178,1.262,-0.377,-4.136
4.254,3.173,8.162,6.656,6.517,3.675,5.493,7.871
6.594,10.062,12.506,9.128,12.563,9.117,11.746,15.479
6.134,10.389,11.947,9.475,12.844,12.024,12.534,15.621
5.294,4.712,9.235,3.588,9.016,5.145,4.933,1.469
6.08,0.288,9.862,-3.166,7.91,-4.773,-4.435,-15.993
7.278,1.572,13.595,-1.29,11.098,-4.171,-6.559,-17.57
9.179,5.832,15.889,8.623,14.343,6.816,-0.218,-3.754
13.284,8.768,15.905,17.323,15.702,16.31,9.025,9.856
16.805,9.139,15.923,18.868,16.053,18.087,14.521,15.044
16.465,8.31,16.388,16.218,15.815,17.266,14.368,16.757
15.227,7.809,17.72,15.343,16.331,19.291,13.26,19.533
13.952,4.869,18.176,13.963,16.445,18.379,13.101,16.067
9.874,-1.055,15.589,8.476,14.52,10.32,11.725,5.087
6.869,-1.844,14.713,5.358,14.905,4.676,11.13,-0.559
9.333,5.344,18.962,8.864,19.225,7.146,13.179,1.891
15.093,13.678,23.582,14.112,22.453,11.725,14.886,5.952
21.877,21.873,25.25,18.165,23.62,14.876,14.684,11.689
27.732,32.02,25.984,22.036,26.209,18.098,15.457,17.627
28.722,35.965,26.5,24.177,29.174,19.747,18.104,17.38
24.59,25.996,24.993,21.536,28.175,15.965,17.866,9.832
20.761,11.614,22.882,16.843,24.583,10.171,13.691,2.297
20.975,6.419,23.718,17.136,24.185,11.035,12.182,3.488
22.772,8.636,26.508,23.187,27.672,18.41,15.357,12.841
22.414,9.582,28.092,28.773,31.165,23.529,17.788,20.18
19.102,8.301,28.042,30.177,32.363,22.511,17.347,18.059
13.352,6.2,26.338,28.679,30.601,18.983,16.63,8.463
7.732,1.496,24.441,26.739,27.93,17.662,18.259,0.435
6.918,-3.304,26.291,26.443,28.818,20.823,24.054,2.947
10.727,-2.277,30.045,27.033,31.81,25.515,30.902,12.201
14.489,4.286,29.704,26.397,31.264,27.366,32.434,17.492
18.282,11.948,27.868,27.654,29.899,28.985,30.995,20.359
24.779,18.595,31.579,34.045,34.426,33.718,33.638,24.264
31.888,24.42,38.883,40.567,41.986,37.277,37.11,22.406
37.151,31.232,43.131,41.992,45.609,36.526,35.19,15.307
42.931,39.741,44.756,41.777,46.724,36.347,32.632,14.021
52.751,48.834,49.908,46.579,51.89,42.444,36.679,22.63
67.307,60.162,60.815,56.522,62.192,52.939,45.415,35.381
83.856,74.052,72.165,64.482,71.991,59.79,53.116,44.919
96.682,83.236,77.458,64.667,75.762,58.346,56.911,47.498
101.004,82.684,76.13,57.85,72.734,50.681,54.118,42.189
99.087,80.393,72.491,49.397,66.782,41.298,44.556,30.39
98.112,87.129,70.275,44.702,62.918,34.62,35.821,19.729
100.154,98.816,70.372,44.47,62.638,32.424,35.598,17.624
100.536,101.113,72.377,46.909,64.55,34.032,42.788,21.588
96.97,89.844,75.56,51.645,67.579,39.214,51.094,27.097
93.111,74.524,78.667,56.688,70.677,46.092,56.422,36.51
91.373,64.239,80.356,58.844,72.256,50.656,58.801,49.56
89.484,60.943,79.39,57.906,71.076,50.549,58.135,54.603
87.625,64.774,76.563,56.279,68.508,47.42,54.218,44.913
90.028,75.258,75.309,57.186,68.659,46.986,52.876,35.359
93.743,84.244,75.921,60.208,71.766,51.59,58.957,40.841
88.119,79.606,73.806,58.669,71.731,53.231,63.833,49.166
74.322,65.449,69.039,51.404,67.024,47.085,59.124,43.834
68.931,63.219,68.997,49.589,65.645,43.679,53.348,35.313
77.865,78.884,74.751,57.908,70.742,49.54,55.816,37.956
86.263,90.937,78.38,66.124,74.858,55.681,62.642,46.394
82.152,83.209,76.757,68.268,73.577,57.31,66.056,53.1
71.073,65.393,72.863,67.778,69.568,58.128,61.49,55.696
63.194,54.654,68.476,65.345,65.686,56.332,52.158,51.214
61.407,56.176,65.945,59.83,64.563,48.672,48.264,41.579
63.945,64.613,68.108,55.04,68.033,40.753,52.395,34.72
66.928,70.682,72.146,54.749,72.497,39.744,55.906,36.431
65.226,66.71,72.71,55.989,72.774,43.862,54.623,43.623
59.083,56.046,71.018,54.251,70.678,46.596,53.918,47.938
54.339,50.149,70.834,50.045,70.151,45.132,55.259,44.919
53.578,52.348,69.997,46.414,68.5,41.679,53.25,37.42
55.333,56.074,66.257,46.262,63.164,41.271,47.779,33.215
58.442,56.984,63.388,50.972,58.448,46.55,44.564,37.268
60.81,56.215,63.037,56.133,56.789,51.958,44.926,43.737
61.373,56.453,61.818,56.331,55.552,50.715,46.239,44.307
65.011,61.414,62.318,56.6,57.868,48.263,50.273,44.081
75.58,73.155,71.533,65.981,70.364,54.991,61.236,52.214
85.637,85.132,85.528,81.209,87.741,68.525,74.624,63.905
84.505,86.822,92.511,90.532,96.791,77.939,79.182,69.69
73.536,78.215,89.27,89.81,94.26,78.772,72.587,68.828
62.033,67.384,80.548,83.308,86.027,72.857,62.386,62.638
55.788,59.446,70.772,75.177,76.635,62.603,54.031,50.858
58.475,60.066,66.708,70.53,71.711,54.412,50.996,41.471
69.513,72.753,74.117,74.752,76.888,56.499,56.058,46.695
78.352,86.735,86.432,84.111,87.13,65.775,63.164,62.706
76.593,87.986,91.884,89.312,91.974,70.824,63.58,73.367
69.706,79.617,89.758,88.976,90.622,69.67,60.578,73.827
67.202,74.252,87.276,87.47,89.744,68.325,61.893,68.877
71.15,75.161,88.693,87.046,92.955,69.466,66.995,63.539
77.007,77.244,93.277,88.835,98.328,73.341,71.924,65.839
78.916,76.91,96.249,90.199,100.354,76.077,73.373,72.399
75.591,74.41,94.525,86.069,96.908,71.596,69.117,69.105
71.42,71.607,91.408,79.636,93.378,63.972,63.761,60.044
70.519,70.395,90.128,78.679,93.862,62.303,64.29,57.719
72.597,72.301,89.866,83.662,95.69,67.144,68.671,59.635
74.239,76.206,89.137,89.282,95.491,73.305,70.439,61.367
72.761,77.896,86.567,90.904,92.674,75.93,68.714,63.358
69.214,76.02,81.729,87.66,88.106,73.017,65.303,63.388
67.756,74.643,78.525,84.584,85.116,69.152,61.842,62.687
71.87,78.012,82.735,88.601,88.659,72.38,63.067,68.013
79.428,86.233,92.931,98.3,97.806,82.333,70.465,78.37
83.295,94.132,99.774,103.106,103.66,87.623,75.6,81.567
80.731,95.439,98.339,97.865,101.015,82.442,72.297,73.549
78.213,91.512,93.46,90.274,95.123,75.679,66.148,67.694
81.186,89.416,90.369,87.282,91.769,74.299,63.008,70.875
84.981,91.35,88.633,85.035,89.623,72.607,61.011,71.495
85.027,95.448,87.678,80.365,87.557,67.168,59.478,65.947
85.467,100.079,90.127,78.027,88.972,63.782,61.441,65.003
86.138,99.48,94.289,78.096,92.226,62.69,63.299,66.428
80.208,89.623,93.861,75.01,90.597,59.031,58.259,59.997
72.399,79.603,90.28,71.921,86.349,57.31,51.136,51.632
74.71,80.089,90.945,75.093,87.814,63.003,51.967,50.517
85.697,88.328,95.761,81.348,94.012,71.014,58.616,55.497
94.412,96.19,98.099,84.762,96.408,75.278,60.977,62.672
95.761,100.646,94.169,84.333,91.051,75.598,56.915,65.546
92.646,102.349,86.294,82.467,82.243,74.637,53.296,62.597
90.878,101.969,80.5,82.352,76.864,75.018,53.597,63.067
92.311,98.811,80.036,84.602,76.737,76.214,54.043,68.12
92.343,93.267,81.082,85.526,77.171,74.599,52.635,67.141
87.716,88.85,77.625,81.528,73.217,68.549,50.766,58.815
82.409,87.946,70.248,75.324,66.377,62.52,47.71,53.448
81.823,89.394,66.057,73.193,62.78,62.606,43.785,55.575
85.219,91.352,68.422,75.677,64.446,68.048,42.601,60.587
87.161,92.225,73.089,77.153,67.517,71.862,43.513,64.068
84.783,91.019,75.97,74.872,69.275,69.958,41.199,64.21
81.396,89.793,77.688,72.776,70.864,66.188,36.947,61.537
82.423,93.054,80.136,75.032,73.504,66.681,38.211,60.416
87.949,101.91,82.359,79.105,75.732,70.496,43.773,63.308
92.391,110.193,81.628,79.339,75.416,71.331,45.078,65.899
93.696,110.476,79.739,76.268,74.478,68.567,42.504,65.598
95.424,103.303,82.479,75.313,77.216,67.684,42.67,65.182
97.344,95.324,89.338,77.377,82.531,69.848,45.102,63.631
94.599,89.981,91.926,78.937,83.971,70.996,46.089,58.735
87.473,86.568,85.546,78.871,78.355,70.335,45.596,56.098
83.382,86.298,76.827,79.093,71.012,71.213,44.515,60.097
86.998,91.544,74.906,80.676,69.604,74.176,44.181,65.349
92.717,99.852,76.756,81.503,72.497,75.14,45.044,67.003
92.184,105.946,73.21,78.927,71.565,71.802,43.219,66.08
86.976,109.156,66.406,75.515,66.613,68.64,38.141,63.675
85.664,110.921,65.059,76.177,65.002,70.629,37.95,62.663
89.366,107.894,68.977,78.843,68.071,74.139,44.376,66.907
90.552,98.968,71.702,77.599,69.676,72.313,46.307,71.078
86.086,91.191,71.507,72.764,67.357,65.883,40.404,65.441
81.302,88.716,71.613,69.991,65.705,62.664,37.72,56.815
81.181,88.921,74.504,72.67,68.83,67.927,42.705,62.579
83.281,89.549,78.301,76.411,73.705,75.044,46.309,75.292
80.961,88.032,78.064,73.674,73.418,73.333,42.916,70.712
73.825,82.622,73.412,66.768,68.146,66.579,39.354,56.109
69.724,77.946,69.443,64.558,65.065,65.572,42.403,57.351
72.059,77.951,67.668,65.986,65.443,66.679,46.277,65.459
74.618,78.091,65.491,64.23,64.165,61.999,43.568,58.394
74.158,75.57,63.879,62.625,61.575,59.639,40.408,50.956
75.072,75.511,66.182,68.259,63.09,69.034,45.104,63.565
78.49,79.004,70.563,77.111,68.263,80.982,51.96,79.408
79.415,80.257,71.549,81.47,70.833,83.9,51.907,77.494
74.936,77.289,68.407,83.48,68.976,83.513,48.789,70.283
68.067,73.893,65.095,88.724,66.731,89.279,51.171,76.719
63.219,72.611,63.189,94.81,65.832,96.857,56.707,88.599
60.722,71.421,61.606,96.311,64.422,98.009,58.04,90.506
58.547,68.287,60.957,94.024,62.734,95.136,56.101,87.338
56.6,65.12,61.104,90.542,61.812,93.022,54.574,87.433
55.683,63.368,59.071,84.194,59.485,88.301,51.336,83.941
55.067,60.892,55.183,76.403,55.099,80.436,46.561,74.355
53.166,56.989,52.721,73.091,51.781,76.743,45.398,68.053
50.6,55.406,50.972,73.6,50.318,77.88,47.41,65.079
51.504,59.401,50.108,74.047,50.686,78.948,49.447,62.99
57.508,65.248,54.384,75.614,55.373,79.847,53.444,70.1
62.857,65.708,62.033,77.496,62.467,79.322,58.871,83.725
61.897,61.286,66.508,75.9,65.898,74.484,60.152,86.572
56.72,58.258,66.705,71.399,64.242,67.563,56.295,75.674
52.328,56.507,63.934,66.013,59.569,61.264,51.554,65.511
49.169,51.902,56.485,58.918,51.844,55.493,46.936,62.059
45.585,46.428,45.17,50.376,41.771,51.438,41.131,57.996
44.643,45.303,37.532,44.84,34.65,51.638,36.226,50.898
49.108,47.927,37.847,45.677,33.851,55.062,33.82,45.552
52.399,49.006,38.59,49.214,34.319,56.766,33.09,45.083
47.417,46.833,32.975,49.653,30.687,54.968,33.303,48.532
38.658,44.041,25.923,46.834,25.401,52.685,32.566,51.314
33.667,40.661,22.261,43.986,21.912,51.603,31.046,52.257
31.493,35.129,19.582,42.106,19.537,50.726,31.732,54.397
28.406,31.87,17.552,40.615,18.442,49.76,33.377,55.137
26.047,35.765,19.261,40.495,20.332,50.074,32.185,51.066
27.823,40.638,24.676,43.238,24.946,53.004,29.764,48.222
32.189,37.176,30.735,47.125,30.188,57.238,31.203,52.971
34.514,28.823,34.511,48.609,33.55,59.891,36.842,61.591
34.075,26.008,34.637,47.913,33.799,61.402,41.993,68.632
33.958,30.242,32.042,47.773,31.992,63.722,44.862,73.755
35.315,35.353,29.474,47.891,30.076,64.782,48.062,75.148
35.977,37.083,28.586,46.56,28.838,62.428,51.879,70.911
34.738,35.337,28.744,46.124,28.463,61.265,54.593,68.266
34.244,32.851,30.278,50.614,30.286,66.821,56.648,74.542
36.735,32.932,33.273,57.469,33.745,74.335,57.099,81.719
39.983,36.117,33.942,59.361,34.429,74.37,53.508,78.285
41.071,40.07,30.45,55.573,30.72,68.317,48.621,69.032
39.806,42.32,26.68,52.073,26.434,65.198,47.81,65.413
37.588,42.233,25.029,51.92,24.079,67.71,50.457,68.994
37.865,42.905,24.494,55.172,23.531,73.465,52.819,77.523
43.838,48.608,24.974,60.976,25.254,79.506,54.717,87.811
52.741,58.235,26.571,64.576,28.356,80.623,56.027,90.006
58.396,66.709,28.172,61.998,29.905,74.947,54.248,79.024
58.477,70.636,28.18,55.381,27.989,66.767,48.76,61.206
56.226,69.287,26.871,49.016,24.298,59.857,42.464,44.412
57.684,66.175,28.604,47.59,24.738,57.648,40.994,38.447
65.853,68.487,35.86,54.893,32.943,64.618,49.105,52.157
75.596,78.363,43.339,65.7,42.805,76.471,62.661,76.546
79.01,90.361,45.21,68.329,45.49,79.924,69.358,90.238
76.316,98.083,42.86,60.897,41.579,71.955,64.427,86.528
73.573,93.899,40.714,53.194,37.614,64.522,58.152,77.33
72.118,73.926,40.401,52.227,36.234,65.649,59.712,73
68.938,48.604,40.117,54.508,35.466,69.633,63.647,73.094
62.63,30.195,36.139,51.668,31.718,67.081,61.18,71.999
54.558,20.642,27.984,42.733,24.023,58.401,54.608,67.255
47.467,22.46,21.113,36.656,17.132,53.323,51.44,65.136
43.417,36.456,20.949,38.665,16.267,56.431,53.175,71.52
42.369,49.625,26.43,42.951,20.601,61.335,56.724,78.612
42.923,49.701,31.298,43.845,25.373,62.388,60.649,77.271
43.508,42.743,32.861,44.966,29.043,63.257,67.102,76.831
41.724,40.082,33.949,50.407,32.813,68.718,75.974,89.635
34.951,38.997,32.919,53.571,33.172,72.961,78.927,101.708
23.727,29.114,24.607,45.334,25.159,64.968,70.342,88.508
12.364,12.352,13.446,32.053,13.829,48.822,59.276,60.719
8.971,7.241,13.193,34.246,13.417,47.423,59.959,57.99
24.788,30.256,33.848,63.036,34.485,75.924,79.673,92.436
58.688,70.33,69.631,102.809,70.883,118.724,114.647,136.072
88.366,94.73,100.697,127.436,101.77,147.533,148.509,165.566
98.036,91.408,115.044,132.304,114.791,156.653,166.218,182.548
95.264,78.691,117.34,129.662,115.444,156.926,168.553,187.879
87.786,69.272,111.865,122.046,109.637,149.799,161.664,176.076
74.887,61.445,99.787,108.249,98.638,135.72,148.049,158.892
61.115,56.635,87.352,96.467,86.623,124.961,134.423,154.351
53.154,55.51,77.944,91.237,76.347,121.433,129.257,157.395
50.006,51.464,69.167,86.631,67.007,116.984,129.957,151.796
45.384,41.718,59.917,77.784,58.131,105.504,124.927,134.909
35.731,32.869,49.506,67.278,48.65,90.299,110.821,115.553
26.249,31.781,40.12,61.728,40.431,80.507,99.333,103.82
24.524,34.509,38.323,63.239,39.151,80.728,100.074,103.623
26.124,27.805,41.611,63.517,41.748,82.531,105.469,106.825
17.176,6.149,35.578,52.409,34.917,73.958,101.235,102.222
-5.023,-19.303,14.528,32.078,14.494,56.77,85.364,92.126
-24.227,-33.009,-6.969,16.855,-4.999,45.256,70.908,89.254
-26.63,-31.226,-13.3,16.148,-9.464,46.745,68.306,94.963
-21.12,-25.399,-10.819,20.842,-6.734,50.489,69.294,92.81
-23.092,-26.542,-15.428,16.375,-13.411,42.995,60.122,73.644
-30.176,-30.461,-25.071,5.723,-26.361,28.764,44.423,54.727
-33.134,-30.125,-27.551,1.754,-30.438,22.039,34.806,53.448
-35.615,-31.463,-25.135,2.15,-26.467,21.833,31.29,56.284
-46.594,-43.984,-29.296,-5.988,-27.625,14.348,25.998,43.153
-65.683,-67.87,-42.095,-23.921,-37.898,-3.495,17.498,21.308
-84.413,-94.24,-56.639,-42.045,-50.97,-21.579,9.129,7.61
-95.003,-109.93,-66.587,-53.135,-60.596,-31.555,3.748,4.388
-95.941,-108.233,-69.566,-56.059,-64.466,-33.382,2.645,5.468
-92.629,-98.656,-68.189,-54.561,-64.963,-31.767,4.109,6.771
-93.279,-97.455,-68.653,-54.439,-67.405,-30.87,3.718,8.352
-101.784,-109.007,-74.745,-59.421,-74.61,-33.618,-3.064,6.995
-113.523,-123.259,-83.976,-67.703,-83.895,-40.578,-14.762,-3.141
-121.482,-130.489,-90.929,-73.074,-90.355,-46.965,-22.174,-15.253
-125.632,-132.078,-94.219,-74.147,-93.121,-49.528,-21.253,-17.582
-130.659,-134.818,-98.408,-77.208,-96.426,-52.898,-19.979,-14.643
-137.965,-141.265,-107.182,-85,-103.571,-60.859,-25.017,-18.287
-146.352,-148.752,-118.74,-93.325,-113.65,-70.699,-34.447,-30.251
-156.188,-154.397,-130.434,-100.78,-124.957,-80.262,-45.247,-44.206
-167.27,-159.93,-141.464,-110.235,-136.668,-90.436,-56.193,-53.667
-176.866,-169.225,-151.131,-122.046,-147.726,-101.312,-66.399,-58.238
-184.408,-181.012,-160.013,-133.999,-157.789,-112.656,-75.809,-63.926
-192.487,-190.46,-168.769,-144.446,-166.856,-124.037,-84.706,-74.257
-201.079,-196.473,-175.273,-152.832,-173.525,-133.096,-94.185,-85.32
-206.804,-199.662,-178.146,-159.539,-176.825,-137.959,-104.534,-90.045
-207.103,-199.251,-179.359,-165.623,-178.322,-140.942,-112.003,-88.05
-203.912,-199.269,-181.8,-174.629,-181.455,-150.045,-115.905,-94.48
-204.589,-206.89,-187.565,-189.623,-188.709,-170.098,-122.645,-121.813
-214.023,-221.191,-196.06,-205.274,-198.357,-190.731,-133.921,-153.268
-226.884,-233.852,-204.05,-213.342,-206.295,-198.536,-143.049,-164.683
-235.056,-239.741,-209.54,-213.989,-210.971,-195.783,-145.203,-157.95
-238.383,-241.443,-214.184,-212.982,-214.606,-192.673,-143.904,-148.442
-241.024,-243.725,-220.726,-213.773,-219.789,-192.822,-146.523,-143.17
-243.405,-246.845,-228.24,-217.06,-225.82,-195.435,-153.766,-144.146
-245.379,-250.399,-234.579,-224.311,-231.713,-202.484,-161.335,-155.906
-250.083,-256.148,-241.109,-235.666,-238.933,-214.768,-169.307,-177.323
-257.686,-260.967,-247.832,-245.312,-246.208,-225.425,-177.361,-194.737
-263.606,-261.209,-251.57,-247.135,-249.847,-227.574,-180.258,-196.772
-266.547,-263.142,-252.447,-243.76,-250.669,-224.818,-177.738,-189.352
-269.546,-272.559,-252.994,-242.477,-251.823,-224.962,-176.259,-185.371
-272.945,-282.645,-253.333,-245.151,-253.137,-228.2,-179.094,-187.942
-275.15,-285.575,-254.244,-249.228,-254.48,-230.939,-185.364,-193.37
-278.688,-285.109,-258.742,-254.06,-258.227,-234.099,-193.897,-199.559
-286.635,-288.277,-266.063,-260.173,-264.123,-239.74,-202.584,-205.807
-294.786,-293.076,-271.453,-266.357,-268.593,-246.706,-208.071,-211.701
-295.928,-292.824,-273.02,-269.836,-269.964,-250.861,-207.786,-215.034
-291.382,-289.496,-273.17,-270.33,-270.593,-249.49,-204.562,-214.448
-289.299,-291.576,-275.66,-273.194,-274.764,-248.027,-205.749,-214.117
-292.024,-298.398,-282.866,-281.915,-283.795,-253.362,-213.127,-216.929
-295.334,-301.427,-292.716,-291.974,-293.541,-263.161,-221.708,-223.153
-297.665,-300.606,-299.249,-298.66,-298.725,-272.173,-228.418,-236.462
-301.204,-304.298,-298.988,-301.299,-298.106,-277.713,-232.135,-250.751
-306.843,-314.435,-296.058,-299.411,-295.369,-277.013,-231.71,-248.526
-313.755,-323.387,-298.31,-296.578,-296.694,-273.994,-231.258,-235.995
-322.213,-325.459,-308.495,-300.459,-305.382,-278.702,-237.137,-241.198
-331.453,-324.292,-321.208,-310.17,-317.303,-290.065,-246.908,-263.506
-337.593,-327.918,-328.731,-316.284,-324.695,-296.378,-251.428,-276.07
-339.169,-338.045,-328.439,-314.957,-324.488,-293.489,-248.107,-272.183
-339.407,-347.194,-323.669,-310.82,-319.676,-287.644,-244.815,-264.188
-341.25,-350.625,-319.645,-309.55,-315.155,-285.617,-248.279,-258.124
-345.569,-353.108,-319.949,-313.242,-314.962,-289.337,-254.688,-255.735
-351.612,-357.813,-324.327,-321.098,-319.933,-297.505,-258.864,-261.397
-356.126,-359.993,-329.796,-331.9,-327.134,-309.131,-263.587,-276.59
-357.418,-357.811,-336.033,-343.215,-334.652,-321.817,-271.342,-294.435
-359.037,-358.049,-344.281,-350.539,-342.793,-329.681,-277.955,-304.163
-363.352,-364.348,-350.386,-351.616,-348.743,-329.47,-279.812,-303.488
-367.435,-370.372,-350.254,-350.532,-349.655,-326.216,-279.536,-300.501
-368.593,-369.336,-348.264,-352.815,-349.038,-326.616,-281.38,-300.059
-367.754,-363.351,-349.444,-356.892,-350.686,-329.079,-284.644,-297.879
-369,-363.117,-352.789,-357.761,-353.745,-328.576,-286.562,-292.718
-378.752,-377.891,-359.194,-358.964,-359.76,-329.645,-290.799,-296.508
-398.836,-402.459,-373.031,-369.188,-372.855,-341.907,-303.454,-320.315
-419.285,-420.784,-390.891,-386.208,-389.285,-362.478,-319.953,-352.047
-428.755,-426.327,-402.551,-398.375,-399.747,-377.415,-329.888,-367.942
-428.666,-426.66,-404.548,-400.971,-401.664,-380.169,-332.449,-364.213
-425.248,-425.544,-401.374,-398.077,-398.834,-375.554,-332.511,-355.376
-419.128,-418.722,-398.008,-394.234,-395.216,-369.724,-330.798,-350.05
-411.758,-408.37,-397.316,-393.014,-393.972,-366.552,-328.224,-347.448
-408.014,-402.319,-398.461,-395.341,-395.165,-367.645,-328.176,-348.318
-408.094,-401.768,-397.591,-396.689,-395.094,-370.128,-330.794,-353.973
-407.193,-402.138,-392.286,-392.927,-391.082,-369.583,-333.151,-358.72
-403.414,-400.338,-384.002,-386.868,-384.237,-366.471,-334.238,-357.874
-399.111,-397.282,-377.358,-383.753,-378.062,-364.642,-334.748,-355.869
-396.372,-395.528,-375.208,-383.522,-375.009,-364.304,-332.723,-354.727
-395.645,-395.018,-374.697,-383.13,-374.109,-362.888,-325.43,-350.667
-396.481,-393.548,-372.662,-382.184,-373.257,-360.167,-316.616,-343.86
-396.544,-389.442,-369.408,-380.571,-371.242,-356.675,-312.834,-337.155
-392.701,-383.225,-364.763,-377.313,-367.397,-352.617,-312.814,-333.045
-386.436,-380.063,-359.57,-374.665,-363.614,-350.098,-311.71,-333.475
-382.979,-383.08,-357.764,-374.784,-363.274,-349.758,-310.729,-334.649
-382.893,-384.918,-360.129,-374.585,-365.633,-348.494,-312.273,-332.51
-382.623,-379.486,-362.734,-371.268,-366.938,-345.063,-314.395,-331.857
-381.97,-373.242,-362.978,-366.767,-365.992,-341.717,-314.683,-334.52
-382.659,-373.115,-362.13,-363.511,-364.267,-339.929,-312.209,-333.032
-383.612,-375.969,-362.988,-362.405,-363.663,-340.493,-308.985,-327.996
-382.947,-375.969,-366.993,-363.938,-365.559,-344.423,-310.533,-329.466
-380.183,-372.717,-371.879,-365.997,-368.47,-348.929,-316.623,-337.131
-375.549,-369.607,-371.81,-363.686,-367.474,-347.472,-318.285,-339.448
-371.012,-368.569,-364.27,-356.446,-360.706,-339.377,-312.674,-333.909
-368.369,-366.608,-354.308,-349.579,-352.354,-332.019,-306.936,-329.937
-364.84,-358.364,-345.922,-344.365,-344.639,-327.702,-302.764,-328.371
-358.412,-346.204,-337.363,-337.365,-335.737,-321.054,-295.619,-319.853
-354.054,-340.741,-328.61,-331.065,-327.4,-312.902,-288.281,-306.721
-354.877,-344.132,-323.37,-331.832,-323.918,-311.259,-287.701,-303.617
-355.147,-346.188,-323.146,-338.145,-324.525,-317.138,-292.164,-312.935
-350.068,-342.607,-324.519,-342.385,-324.291,-323.023,-294.415,-321.176
-343.214,-339.896,-322.854,-341.942,-320.92,-324.898,-293.013,-321.457
-339.2,-340.738,-318.444,-340.323,-316.723,-325.196,-291.782,-318.831
-336.801,-340.39,-315.438,-339.953,-314.453,-325.617,-292.313,-317.456
-332.406,-336.039,-314.207,-338.698,-313.235,-324.204,-292.462,-317.41
-325.735,-330.074,-310.271,-332.444,-309.282,-317.933,-289.693,-315.875
-320.792,-326.238,-302.637,-320.662,-301.838,-306.172,-283.965,-308.458
-321.062,-324.586,-297.939,-308.923,-296.605,-293.461,-279.064,-297.916
-324.174,-321.627,-300.794,-302.829,-297.998,-286.15,-278.944,-294.289
-324.514,-316.711,-305.615,-301.465,-301.488,-284.914,-280.411,-299.056
-318.553,-310.85,-303.265,-299.552,-298.469,-283.997,-275.533,-299.529
-306.436,-302.057,-292.203,-294.471,-286.88,-279.085,-263.614,-287.309
-294.645,-292.531,-282.286,-291.001,-276.677,-274.937,-254.235,-273.572
-291.569,-289.635,-283.027,-294.907,-278.319,-278.862,-255.81,-273.578
-294.547,-291.891,-288.021,-301.555,-285.443,-286.896,-264.255,-283.257
-293.284,-289.811,-285.199,-301.684,-284.757,-289.078,-268.058,-287.364
-286.407,-281.61,-276.465,-295.097,-277.249,-284.584,-263.594,-284.279
-279.902,-273.179,-270.106,-286.662,-271.087,-277.728,-256.587,-282.574
-274.863,-267.78,-266.382,-277.631,-266.444,-268.665,-251.404,-281.112
-269.98,-265.137,-261.859,-269.643,-260.557,-258.993,-247.556,-273.659
-267.504,-263.695,-256.636,-266.442,-255.02,-254.494,-243.27,-263.878
-266.974,-260.65,-252.682,-267.447,-251.737,-256.153,-238.059,-259.811
-262.02,-253.196,-248.478,-267.11,-247.97,-257.623,-232.3,-260.287
-250.73,-240.1,-239.847,-262.234,-239.824,-254.08,-226.937,-258.296
-240.308,-224.783,-228.164,-255.607,-229.506,-247.587,-223.242,-252.67
-236.672,-216.915,-221.125,-250.905,-223.801,-242.272,-220.557,-247.102
-237.863,-223.632,-222.234,-248.109,-224.918,-239.555,-217.409,-243.628
-239.095,-237.728,-225.805,-245.596,-227.753,-239.338,-214.862,-243.287
-237.635,-243.324,-225.357,-242.237,-226.979,-240.146,-214.043,-246.149
-232.935,-235.047,-220.648,-236.265,-222.015,-237.379,-211.664,-246.33
-226.425,-222.023,-214.542,-227.337,-215.079,-228.471,-204.838,-237.678
-220.763,-212.516,-208.469,-219.447,-208.374,-218.582,-198.009,-226.071
-215.755,-205.394,-200.88,-215.021,-201.317,-213.018,-194.991,-220.691
-207.822,-197.731,-189.586,-209.793,-191.382,-208.763,-190.929,-218.53
-196.678,-190.088,-177.098,-200.301,-180.338,-200.955,-181.768,-212.001
-186.333,-181.667,-168.929,-190.164,-173.427,-191.436,-171.447,-201.401
-178.92,-171.026,-165.8,-184.065,-171.115,-185.06,-165.178,-191.536
-174.324,-162.308,-162.888,-180.808,-168.405,-181.568,-163.249,-184.784
-172.555,-160.073,-156.525,-175.726,-161.824,-176.096,-161.589,-180.31
-171.521,-161.563,-149.312,-168.3,-153.764,-168.219,-158.263,-178.85
-167.92,-161.608,-146.099,-163.44,-149.011,-164.258,-157.792,-184.508
-162.178,-158.752,-145.395,-163.307,-147.523,-166.257,-161.656,-194.067
-157.096,-153.886,-142.742,-164.423,-145.524,-168.837,-162.974,-197.168
-152.416,-147.967,-138.62,-163.717,-141.943,-168.487,-157.906,-192.312
-145.467,-141.356,-134.097,-159.594,-137.357,-163.835,-149.379,-183.098
-136.396,-134.787,-127.532,-151.148,-131.254,-153.804,-139.988,-168.931
-128.594,-129.616,-119.487,-140.95,-124.039,-142.379,-131.425,-154.823
-122.829,-124.631,-112.074,-132.745,-116.952,-135.061,-125.748,-150.87
-115.729,-116.128,-104.842,-126.517,-109.739,-131.389,-122.304,-154.786
-106.491,-104.029,-96.805,-120.083,-101.753,-127.528,-118.565,-153.321
-98.568,-93.395,-88.811,-112.864,-93.666,-121.836,-114.283,-143.672
-93.187,-87.073,-82.436,-105.567,-86.754,-115.053,-109.874,-136.326
-88.575,-82.368,-79.074,-98.98,-82.326,-108.784,-104.868,-136.007
-85.576,-78.474,-78.435,-94.354,-80.72,-104.48,-100.848,-136.614
-86.118,-79.079,-78.006,-92.799,-80.55,-102.612,-99.284,-134.4
-86.284,-82.416,-75.525,-92.711,-80.149,-101.284,-97.858,-130.677
-80.417,-79.92,-71.332,-90.026,-78.778,-96.604,-94.38,-123.626
-70.114,-69.67,-66.381,-83.043,-75.538,-87.692,-89.702,-111.34
-59.241,-57.924,-58.21,-74.004,-68.016,-78.268,-84.408,-99.342
-47.595,-47.516,-45.831,-65.944,-56.081,-71.223,-78.267,-93.472
-36.903,-37.957,-35.912,-60.805,-45.572,-66.382,-72.241,-91.613
-31.194,-30.944,-33.131,-58.27,-41.088,-63.138,-67.284,-90.138
-27.406,-25.768,-32.112,-54.667,-39.022,-60.075,-63.114,-86.946
-18.727,-18.481,-27.146,-46.734,-34.01,-54.615,-58.192,-78.66
-7.858,-10.298,-19.903,-37.73,-26.87,-48.249,-51.905,-68.96
-2.877,-5.972,-14.402,-34.231,-21.732,-46.884,-48.412,-68.292
-2.717,-4.616,-11.628,-35.394,-19.471,-50.099,-50.483,-75.077
-1.015,-3.261,-10.956,-34.145,-18.42,-49.262,-51.399,-76.143
2.14,-3.325,-12.118,-29.826,-18.465,-42.247,-45.381,-68.523
3.842,-4.516,-12.854,-27.619,-19.03,-36.465,-37.899,-61.127
5.446,-1.241,-9.476,-26.718,-16.974,-34.262,-35.504,-58.061
9.23,8.867,-1.525,-20.802,-10.566,-29.13,-34.971,-53.37
14.526,19.588,8.355,-7.939,-1.281,-16.969,-28.538,-40.267
19.805,23.69,18.139,6.009,8.657,-3.303,-16.676,-23.999
25.703,23.309,27.225,13.161,17.668,2.226,-9.134,-18.964
34.39,27.282,34.28,12.337,24.563,-2.048,-9.699,-26.968
44.791,37.644,37.482,9.862,28.455,-7.095,-10.093,-33.619
52.267,47.311,38.781,11.618,30.677,-4.521,-3.971,-29.504
56.003,52.368,42.265,17.948,34.384,4.086,5.298,-18.182
59.67,55.924,48.193,26.163,40.52,12.652,13.596,-5.76
63.441,59.695,55.078,34.128,48.02,19.534,20.372,3.318
64.807,62.288,62.748,39.86,55.982,24.387,23.748,4.92
65.756,64.967,69.945,42.36,62.944,25.504,22.642,1.261
70.467,71.653,75.164,44.773,68.101,26.493,22.613,1.536
79.259,81.783,80.222,51.907,73.684,34.705,30.583,11.055
88.548,87.813,86.949,62.818,81.229,49.269,44.116,26.09
95.112,86.614,91.928,70.189,87.142,59.917,53.358,37.187
100.313,87.273,93.198,70.744,89.189,61.527,54.826,38.627
107.09,97.02,95.783,71.03,91.706,61.355,55.057,37.189
114.564,109.393,101.997,77.91,97.201,67.473,59.54,42.943
121.757,117.113,108.468,90.238,102.928,78.996,66.549,55.961
130.458,124.663,114.554,102.686,108.179,89.927,72.223,68.898
139.305,137.492,121.092,110.726,114.152,95.251,75.474,74.007
144.203,149.346,125.752,113.12,119.375,95.3,77.183,69.735
145.616,151.439,127.992,114.139,123.073,96.805,78.414,65.674
146.691,147.369,131.547,118.523,127.506,104.042,80.804,71.411
148.079,146.425,137.999,124.6,133.43,111.913,85.813,81.361
150.343,148.135,144.837,128.528,139.522,114.662,91.861,83.678
155.345,147.93,150.315,131.164,145.449,115.33,94.936,79.725
162.147,148.597,154.912,135.335,151.141,119.525,94.774,80.193
166.585,153.735,159.186,140.57,155.883,126.024,96.621,87.778
167.134,160.777,162.522,144.507,159.298,130.303,102.618,95.589
166.289,165.941,164.348,146.674,161.653,131.531,107.15,96.55
165.246,168.548,165.747,148.673,163.937,131.959,106.448,92.61
163.498,169.803,166.984,151.647,166.553,133.558,104.665,93.75
162.74,170.677,166.448,154.728,168.071,136.705,105.455,101
165.494,170.765,164.681,156.707,167.716,140.637,107.026,104.689
170.825,169.652,163.754,157.028,166.67,143.373,107.696,103.017
174.811,168.936,163.368,155.737,165.86,143.08,109.019,102.664
175.48,169.579,162.542,154.366,165.267,140.753,111.302,104.107
175.455,170.598,162.791,154.713,165.744,139.405,111.754,103.765
178.157,172.064,167.319,157.838,169.918,142.505,112.221,106.765
182.6,174.343,176.462,163.95,178.538,150.875,118.816,118.169
184.957,176.606,184.533,169.823,186.497,158.279,128.224,127.565
184.991,178.966,185.979,171.073,188.096,158.245,130.613,125.682
186.46,182.685,183.359,168.577,185.206,153.516,126.994,119.472
190.504,187.473,182.661,167.249,184.081,150.626,126.49,115.711
194.2,191.772,184.771,170.703,186.984,152.912,131.387,116.502
196.149,195.104,187.394,178.014,191.421,159.929,137.059,124.972
198.591,198.12,190.442,184.89,195.403,168.047,141.225,135.956
203.808,202.399,195.865,190.439,200.588,175.386,146.421,142.111
210.151,207.64,203.555,196.092,207.855,181.667,153.747,146.927
213.725,209.826,209.383,198.803,213.06,183.29,159.274,152.373
215.301,209.563,211.214,197.605,213.891,180.276,161.451,154.14
218.488,213.147,212.05,198.781,213.937,179.805,163.944,154.062
221.446,220.079,212.933,205.194,215.049,184.218,166.747,154.516
221.372,224.708,213.031,213.06,216.669,189.538,167.335,153.768
220.839,226.808,214.436,219.555,219.775,195.067,168.385,156.461
221.386,227.522,217.121,223.542,222.622,201.288,172.569,166.24
220.721,225.011,217.878,224.002,221.904,204.894,176.061,173.176
219.048,220.586,217.158,222.142,219.681,204.114,174.889,168.968
219.834,218.954,218.17,221.383,220.266,203.124,173.127,163.81
223.824,221.345,222.238,223.591,224.239,205.854,176.665,170.222
228.394,225.905,228.585,226.946,229.711,210.559,182.446,182.293
232.345,232.119,234.154,228.488,234.237,213.682,184.084,187.823
236.13,238.889,235.535,227.209,235.428,213.34,182.944,186.53
239.455,242.873,233.658,225.316,233.573,210.254,184.131,184.596
242.192,243.355,232.659,226.304,231.915,208.503,187.563,184.152
245.06,244.427,233.972,229.839,232.448,210.232,190.443,183.392
248.819,249.645,235.817,232.327,234.329,212.601,193.057,183.314
254.055,256.951,238.014,233.82,237.243,214.776,197.231,188.936
260.065,261.002,242.201,237.709,241.976,219.756,202.133,199.483
264.619,260.641,247.766,244.399,247.491,227.759,205.141,207.287
267.126,260.623,252.436,251.281,251.728,234.993,205.869,208.942
269.819,264.908,256.072,255.608,254.604,237.147,205.78,206.748
273.699,272.25,259.994,255.677,257.166,233.358,206.134,203.522
276.063,277.396,262.802,253.295,258.777,229.134,207.841,202.138
275.494,276.535,262.264,252.738,258.717,230.359,210.132,203.733
275.807,274.356,261.841,255.812,259.959,235.821,212.91,207.945
279.943,278.625,266.228,260.483,265.386,240.712,219.102,215.362
285.223,287.372,272.659,263.446,272.067,242.187,226.871,222.514
288.28,292.28,276.744,263.66,275.905,240.593,227.535,222.494
289.41,291.989,279.948,263.227,277.754,238.902,219.786,217.508
290.772,292.581,283.924,264.788,280.001,240.105,214.123,217.381
292.12,295.453,285.385,268.952,281.609,244.597,216.959,221.827
291.261,294.359,282.267,273.657,280.771,249.792,223.653,223.073
289.845,288.691,278.928,276.974,279.03,253.678,228.835,224.457
291.922,286.835,279.522,279.372,278.448,257.555,231.176,232.598
296.302,291.672,282.007,281.202,278.562,261.893,230.945,241.64
299.024,297.331,284.069,282.173,279.806,264.655,230.729,244.675
300.692,301.323,287.333,283.679,284.341,265.883,233.797,244.668
303.231,305.673,291.267,285.832,290.493,266.659,238.959,245.628
304.992,308.4,292.402,285.45,293.529,265.368,241.785,247.29
304.398,305.926,291.261,282.315,293.441,261.903,241.288,248.941
303.008,300.727,291.156,280.559,294.152,259.574,240.916,248.998
303.512,298.76,292.788,281.076,296.538,258.97,242.448,244.388
307.482,301.817,295.141,281.121,298.739,258.161,243.805,237.074
314.117,307.582,297.201,280.677,300.104,258.042,245.038,234.074
319.91,313.544,297.752,281.915,300.792,260.288,248.268,237.685
321.303,316.15,296.695,285.171,300.245,264.176,249.907,244.257
318.674,313.013,295.917,289.126,298.864,268.027,245.811,249.573
315.997,308.838,297.42,292.325,299.325,270.306,241.628,250.924
317.109,310.85,301.199,294.179,303.223,270.773,244.216,249.196
322.523,318.457,305.263,295.301,307.896,271.256,249.847,247.465
327.912,323.792,307.623,295.812,309.758,273.016,251.42,246.959
328.49,321.988,308.139,294.552,309.188,274.284,249.13,247.823
325.947,317.437,308.033,291.395,309.113,272.699,247.648,250.447
326.84,317.652,309.51,288.516,311.479,269.357,249.578,254.039
334.828,323.769,315.062,288.237,317.094,267.648,254.19,257.962
347.412,332.129,323.493,291.015,324.887,269.156,258.85,263.692
359.579,340.951,330.29,295.653,331.526,272.954,261.154,269.767
368.561,349.701,333.736,300.232,335.013,276.855,260.355,270.091
374.245,357.037,335.597,303.801,336.486,278.926,258.52,264.289
376.976,362.137,336.623,306.928,337.209,279.372,258.809,259.526
376.396,364.124,335.249,309.013,336.344,279.671,260.452,258.09
372.392,362.63,330.691,308.423,332.922,280.818,260.853,258.807
367.035,360.417,325.223,305.368,328.088,282.164,260.204,263.426
363.181,361.088,321.6,300.725,323.459,280.479,258.225,266.004
360.625,364.323,319.231,295.711,319.133,274.656,254.639,258.725
357.425,364.961,315.153,292.578,314.568,269.045,252.043,248.944
354.499,358.901,309.531,291.481,310.163,267.027,249.768,246.364
352.742,348.945,305.936,290.403,306.96,266.886,244.835,248.429
347.653,338.99,303.556,288.396,304.033,266.061,240.897,250.008
335.98,329.195,297.703,284.599,298.737,263.641,241.741,251.363
323.72,321.545,289.95,277.83,291.632,258.989,242.364,251.78
317.976,319.397,286.891,270.886,287.309,253.561,239.05,249.104
316.349,321.115,288.754,268.908,287.804,251.353,236.672,248.607
311.983,321.225,289.142,271.718,289.281,253.35,237.911,255.413
304.349,317.265,285.497,273.809,287.903,254.514,237.617,258.074
298.402,311.7,281.672,271.791,284.688,249.785,233.329,242.249
294.667,305.38,280.095,268.071,281.986,242.487,230.474,220.185
287.447,295.039,277.569,266.267,278.832,240.412,231.611,215.623
275.243,281.233,270.709,266.016,272.798,243.971,231.735,225.6
264.604,271.441,261.604,264.738,264.578,246.566,228.589,232.176
259.702,270.895,254.686,261.792,257.59,244.943,225.782,233.482
257.618,275.978,251.222,259.367,254.338,242.613,225.678,235.988
255.205,279.499,250.418,259.278,255.099,242.932,227.061,237.585
251.954,278.12,251.456,259.566,258.001,243.203,226.829,233.679
248.504,272.993,252.575,257.544,260.307,239.751,222.448,226.654
245.815,266.013,252.622,254.051,260.793,234.841,215.927,221.933
243.073,259.472,251.795,250.991,259.168,232.544,212.841,221.018
239.236,258.364,249.05,248.519,254.579,232.531,214.184,222.056
236.349,264.075,243.446,246.499,247.484,233.052,214.654,224.515
234.98,267.79,236.849,244.685,240.484,233.487,211.087,227.576
229.941,261.843,230.324,241.162,234.453,230.927,205.598,223.72
218.712,252.986,222.44,234.904,227.799,222.635,201.726,207.779
207.492,251.317,213.796,228.147,220.735,211.425,200.121,191.833
200.994,251.749,206.444,222.424,214.785,202.198,196.604,191.5
196.724,243.065,201.433,217.666,210.658,198.213,190.004,203.943
193.331,228.879,199.812,215,209.025,199.802,186.084,213.648
193.348,221.739,200.119,214.251,208.568,202.259,186.716,211.591
197.453,223.735,198.706,212.573,206.192,201.103,187.073,202.196
202.578,225.963,195.612,207.945,201.851,196.931,184.55,192.948
204.865,222.744,193.967,201.496,198.749,191.987,180.807,186.346
202.699,218.502,194.922,196.668,198.847,188.092,178.146,186.169
197.696,218.31,196.515,195.303,200.575,186.23,178.117,194.585
192.477,218.251,195.761,195.155,200.733,184.679,180.224,200.271
187.896,212.115,192.285,193.807,198.759,181.442,181.745,191.618
184.115,201.623,189.672,192.983,197.882,179.104,181.795,179.478
182.161,193.987,191.397,194.988,200.342,181.541,182.977,183.234
182.186,193.415,195.994,198.079,203.911,186.651,186.279,200.62
182.75,198.002,197.589,199.246,204.654,188.472,187.759,210.634
182.883,202.403,193.181,197.547,201.594,184.075,183.41,201.35
182.61,202.322,187.538,193.831,198.224,175.863,175.365,183.519
181.922,197.964,186.561,190.896,198.822,170.09,170.337,175.528
181.006,192.879,189.772,191.602,203.239,170.98,171.538,181.25
180.572,190.262,193.989,195.472,208.234,176.105,175.807,189.477
181.34,191.706,198.944,200.66,212.998,181.397,180.748,191.591
183.42,196.537,204.246,207.053,217.947,186.841,187.093,192.129
185.508,201.509,206.087,213.744,220.24,193.82,192.291,198.658
184.939,201.819,202.279,216.342,216.952,199.104,191.212,204.653
179.663,193.186,195.974,212.217,210.299,197.553,184.306,198.454
170.595,177.362,190.485,205.939,204.557,191.964,178.11,186.519
161.405,163.544,185.963,202.295,200.564,188.81,176.192,182.254
155.453,158.507,182.517,200.447,196.977,187.97,175.281,184.363
152.339,157.844,179.794,198.786,192.789,186.941,171.582,185.833
148.6,153.047,175.802,196.006,187.106,184.98,165.847,183.965
143.652,145.484,170.781,190.932,180.587,182.013,161.577,178.21
140.561,142.926,166.584,185.948,175.044,180.418,160.202,173.151
139.307,144.031,161.82,182.075,169.497,180.334,158.422,172.962
136.511,140.986,154.393,174.146,161.299,174.788,151.434,168.917
132.664,135.533,147.17,160.782,152.086,161.163,140.06,153.68
131.436,135.922,144.157,149.288,146.374,148.395,130.823,138.946
131.648,139.898,142.998,142.681,143.476,142.011,126.411,133.223
129.704,138.036,139.775,137.367,139.803,137.78,123.939,128.151
127.134,130.09,136.245,134.476,136.791,134.731,122.197,123.724
126.564,122.936,134.538,136.386,136.52,135.856,120.986,129.083
126.17,118.106,133.849,138.931,136.973,137.815,117.857,137.551
122.904,111.34,133.213,137.376,136.27,134.35,112.109,135.181
117.759,102.709,130.812,132.017,134.051,125.824,107.189,124.246
115.41,99.954,126.595,126.523,130.971,118.238,105.643,116.657
117.173,105.329,124.083,123.991,129.006,115.636,105.471,114.82
118.798,108.808,123.927,123,128.282,115.825,104.228,113.244
117.559,104.674,121.992,119.619,125.743,114.02,101.81,110.876
115.03,99.57,116.193,113.557,119.736,109.226,97.796,109.246
112.34,96.557,109.785,107.97,113.195,103.49,91.932,105.846
108.954,90.742,106.605,105.295,110.001,99.294,86.515,100.829
104.861,83.033,105.624,105.076,108.98,98.293,83.188,99.695
101.021,80.763,103.203,104.004,105.603,97.157,80.802,100.443
99.881,85.737,100.427,101.315,100.881,92.462,79.715,96.375
102.38,90.64,100.565,99.78,99.716,87.905,81.234,92.651
103.696,87.209,99.862,96.819,99.584,84.856,81.874,94.781
99.048,77.022,92.449,86.496,93.287,77.387,75.642,90.888
91.669,69.883,81.414,72.3,82.03,65.315,63.338,73.48
87.763,69.146,73.644,63.809,73.626,56.428,53.37,57.819
87.625,68.649,69.848,62.541,70.513,53.67,49.722,55.462
88.458,66.733,68.267,63.839,69.908,54.184,48.581,58.592
90.153,68.385,69.639,66.139,70.949,56.177,48.994,60.616
92.238,71.984,72.993,68.545,73.507,57.553,52.526,63.55
92.003,69.941,74.446,68.097,75.023,55.756,54.576,66.453
89.755,63.181,73.312,65.419,74.299,53.026,51.581,67.056
89.46,61.779,73.151,64.758,73.958,53.552,49.208,66.935
91.823,70.049,74.835,65.939,75.108,54.744,50.516,66.024
91.921,78.761,74.702,64.73,74.573,51.539,49.759,62.924
85.99,75.875,70.227,59.956,69.818,46.103,44.74,58.77
77.612,62.918,62.815,54.099,62.558,43.18,40.465,55.811
74.084,53.203,56.206,50.443,56.708,42.56,40.291,56.927
77.129,53.267,53.461,50.36,54.276,41.684,42.025,60.373
81.392,57.077,54.347,52.012,54.223,40.359,41.893,59.76
82.149,58.241,55.868,52.918,54.323,39.999,40.152,56.122
79.938,56.402,55.444,52.218,53.027,40.421,39.787,54.931
78.192,53.548,54.223,51.405,51.771,41.333,41.268,55.506
79.101,52.336,55.351,52.995,53.562,44.095,44.134,56.989
81.271,54.885,58.436,55.868,57.394,47.062,48.071,59.041
82.332,59.412,60.943,55.838,59.678,45.803,49.854,56.011
82.813,62.128,63.724,54.086,61.093,42.908,48.424,50.478
83.669,62.04,67.771,56.736,64.28,46.241,48.034,54.227
83.905,60.687,69.27,63.287,66.935,54.774,50.045,64.117
83.645,60.586,65.821,66.789,65.455,59.987,51.815,68.378
83.964,63.819,61.802,66.028,62.103,59.82,52.388,68.423
84.111,68.93,61.643,65.541,61.648,58.512,51.82,66.92
82.487,71.703,63.155,65.331,63.416,56.895,50.115,60.545
79.22,70.843,61.784,62.205,62.771,53.665,48.339,55.454
78.559,72.422,59.774,59.65,61.089,51.872,48.799,60.634
85.228,82.856,63.586,64.334,64.94,55.374,53.318,70.894
94.752,95.151,70.494,72.274,71.927,60.886,58.644,75.766
96.338,95.771,70.409,71.831,71.434,60.692,58.735,74.254
87.941,85.661,61.78,61.874,61.715,54.189,53.507,72.077
78.085,77.317,52.351,52.26,51.236,47.959,46.824,70.037
72.44,74.076,45.639,45.908,43.742,42.298,38.254,60.599
68.603,70.008,38.048,37.919,35.666,32.626,27.131,44.506
65.398,66.505,29.734,31.235,27.679,23.974,19.289,38.371
65.876,67.262,27.144,32.316,25.577,23.4,18.96,45.665
69.108,64.625,31.165,35.975,29.174,25.48,21.212,46.798
70.582,54.764,34.164,33.867,31.655,23.07,20.458,33.709
69.415,48.226,31.999,28.592,29.597,18.704,18.34,19.944
67.265,48.8,28.345,26.405,25.637,17.332,17.911,15.635
63.624,46.553,25.55,26.227,21.931,18.65,16.731,18.97
54.798,35.638,18.869,21.663,15.166,16.823,9.695,21.675
36.977,19.226,2.441,7.92,-0.305,5.044,-5.677,12.43
13.419,2.558,-20.425,-12.532,-22.966,-15.88,-26.904,-10.308
-5.331,-9.986,-38.269,-30.993,-42.361,-36.473,-46.032,-33.554
-13.678,-17.963,-45.566,-41.709,-51.209,-49.145,-55.562,-46.644
-16.012,-24.771,-47.275,-44.404,-52.068,-52.001,-55.771,-48.149
-18.426,-32.403,-48.864,-41.057,-50.653,-46.512,-52.569,-41.199
-24.954,-41.313,-52.943,-38.213,-51.501,-41.159,-52.75,-35.348
-37.155,-52.142,-61.132,-43.099,-57.201,-45.836,-60.54,-39.635
-50.053,-62.284,-70.206,-53.524,-65.098,-58.345,-71.561,-52.112
-56.156,-66.476,-74.55,-60.612,-69.837,-67.327,-76.058,-64.051
-55.385,-63.778,-74.357,-59.898,-70.575,-66.23,-72.462,-66.524
-53.401,-59.303,-72.909,-54.276,-69.958,-58.461,-68.041,-57.799
-53.29,-59.116,-70.543,-48.612,-68.804,-51.212,-66.075,-48.191
-55.428,-65.212,-67.661,-44.543,-67.015,-46.627,-64.144,-44.462
-60.082,-74.117,-67.297,-41.628,-66.184,-42.52,-62.792,-40.996
-65.287,-80.258,-70.757,-42.366,-67.622,-41.828,-64.658,-39.252
-67.144,-80.536,-74.471,-49.055,-69.665,-49.372,-67.423,-48.754
-64.528,-75.937,-74.093,-56.283,-69.522,-58.653,-66.658,-62.558
-61.474,-71.36,-71.218,-57.677,-68.307,-59.721,-64.057,-65.156
-62.847,-72.557,-70.608,-55.451,-69.34,-54.817,-64.066,-57.751
-66.202,-79.504,-70.482,-53.182,-70.388,-50.041,-64.936,-48.311
-64.901,-85.902,-66.569,-50.321,-67.49,-45.766,-63.296,-38.732
-61.01,-88.22,-63.534,-50.14,-65.207,-45.218,-63.3,-36.978
-61.568,-88.065,-68.387,-56.873,-69.913,-52.408,-69.692,-49.058
-63.533,-84.772,-77.037,-62.997,-76.703,-58.54,-76.14,-58.573
-59.41,-77.465,-79.199,-59.232,-76.188,-53.998,-73.966,-52.685
-52.849,-71.877,-73.433,-52.073,-69.602,-47.491,-67.337,-47.896
-52.512,-73.116,-68.365,-51.761,-65.683,-49.849,-65.351,-55.375
-57.565,-77.922,-69.846,-56.964,-67.767,-56.626,-68.101,-62.079
-61.053,-80.817,-74.501,-62.738,-71.971,-61.422,-71.819,-61.169
-60.662,-80.833,-76.559,-65.654,-73.599,-62.872,-74.213,-54.159
-60.263,-80.873,-76.099,-63.301,-72.442,-59.585,-72.274,-41.654
-63.997,-83.792,-78.024,-61.534,-72.983,-57.235,-69.058,-41.87
-70.015,-87.371,-83.337,-68.704,-77.32,-65.96,-72.152,-68.295
-72.656,-85.814,-86.419,-79.661,-80.734,-81.475,-78.196,-93.41
-71.023,-79.887,-83.701,-82.552,-78.84,-88.376,-77.744,-89.848
-68.464,-76.728,-78.232,-76.197,-73.452,-81.973,-71.594,-70.694
-64.724,-76.252,-72.795,-67.121,-67.395,-70.532,-66.281,-56.163
-57.55,-72.309,-66.741,-59.112,-61.209,-61.85,-63.261,-48.35
-50.567,-67.425,-61.671,-54.489,-57.401,-58.43,-61.434,-47.554
-49.568,-68.075,-60.663,-55.542,-58.56,-59.485,-61.166,-54.84
-52.323,-70.248,-61.827,-59.986,-61.29,-61.733,-62.103,-60.902
-52.267,-67.616,-61.476,-62.401,-60.903,-61.645,-62.205,-55.821
-48.201,-63.026,-59.102,-59.913,-57.563,-57.899,-59.166,-43.499
-41.66,-58.929,-54.032,-52.759,-52.253,-51.096,-52.395,-33.917
-33.282,-51.976,-46.02,-43.688,-45.21,-43.49,-44.711,-28.867
-27.321,-43.772,-40.625,-38.578,-40.72,-39.876,-41.114,-26.357
-29.234,-41.715,-44.126,-42.289,-44.423,-44.848,-45.895,-32.005
-37.257,-46.872,-53.962,-52.51,-54.771,-55.872,-58.079,-48.873
-44.002,-51.61,-61.583,-61.381,-63.511,-64.371,-68.365,-63.79
-44.682,-50.354,-62.536,-63.434,-64.963,-66.651,-67.992,-63.488
-41.573,-46.647,-60.064,-59.627,-61.219,-65.76,-60.201,-51.851
-40.932,-47.115,-58.853,-54.258,-57.266,-63.221,-53.632,-38.551
-44.645,-53.004,-59.271,-51.483,-55.48,-59.6,-50.597,-29.592
-49.556,-61.369,-61.536,-54.492,-57.561,-59.492,-50.953,-32.557
-54.497,-70.22,-67.524,-62.776,-64.696,-65.552,-56.415,-48.827
-59.486,-78.591,-74.728,-70.922,-73.563,-72.479,-64.314,-63.569
-61.072,-83.807,-77.095,-73.863,-78.129,-73.942,-67.805,-62.843
-56.83,-83.057,-72.827,-70.863,-75.778,-70.213,-64.34,-50.61
-51.229,-78.624,-66.986,-64.96,-70.301,-66.001,-58.03,-40.602
-51.18,-76.808,-66.589,-62.481,-68.802,-66.403,-55.326,-44.744
-56.448,-79.383,-71.706,-67.027,-72.743,-71.961,-57.665,-60.009
-59.154,-81.473,-74.449,-72.45,-75.276,-75.395,-59.274,-65.978
-56.677,-81.464,-72.363,-73.135,-73.512,-73.286,-58.321,-56.93
-56.907,-85.1,-71.85,-73.835,-73.036,-72.795,-60.487,-52.007
