EEG 1,EEG 2,EEG 3,EEG 4,EEG 5,EEG 6,EEG 7,EEG 8
18.09,8.05,4.51,-2.46,4.763,-1.98,2.129,-1.336
12.89,9.182,3.335,2.229,3.676,5.033,2.041,-0.454
6.08,3.917,-1.19,3.851,-0.743,7.53,1.02,-1.438
3.071,-4.07,-5.439,4.269,-4.834,7.434,1.079,-0.134
3.839,-8.103,-6.016,4.781,-6.308,6.587,1.586,2.204
5.456,-6.86,-3.166,4.163,-5.252,4.223,1.132,1.926
6.484,-4.756,-0.104,2.307,-2.964,2.066,-0.559,0.024
7.96,-3.565,1.402,1.495,-0.559,2.816,-2.532,0.277
10.235,-1.504,2,2.119,1.108,4.31,-3.608,1.726
10.332,0.409,1.165,0.264,0.302,1.505,-4.99,-0.592
7.23,0.303,-1.86,-6.515,-3.769,-5.956,-7.866,-6.713
5.179,-0.313,-4.866,-13.645,-8.456,-12.646,-10.69,-11.809
5.819,-1.534,-5.916,-15.444,-10.8,-14.876,-12.089,-13.299
4.884,-5.57,-6.801,-13.43,-11.706,-15.251,-11.791,-12.02
0.746,-9.826,-9.131,-12.921,-13.587,-17.061,-10.903,-9.994
-1.85,-10.306,-10.371,-14.434,-15.386,-18.206,-11.396,-7.795
0.298,-8.738,-7.836,-13.867,-13.927,-15.836,-11.669,-3.9
2.939,-9.181,-4.27,-9.921,-10.096,-11.845,-8.886,1.13
0.891,-12.469,-4.6,-6.006,-8.853,-8.524,-5.77,3.097
-3.16,-15.476,-8.089,-4.139,-11.744,-5.593,-6.059,0.209
-2.785,-14.24,-9.36,-2.273,-14.418,-3.024,-6.835,-3.348
1.669,-8.424,-7.758,-0.218,-14.212,-2.193,-5.311,-3.923
3.702,-1.804,-8.729,-2.034,-14.619,-4.673,-6.392,-3.806
0.762,0.775,-14.112,-7.871,-18.326,-9.075,-12.636,-5.823
-2.806,-2.341,-18.912,-11.103,-21.987,-11.003,-16.77,-7.858
-3.52,-7.171,-19.433,-8.88,-22.299,-10.228,-14.299,-7.123
-3.209,-9.164,-17.895,-7.081,-21.43,-12.439,-11.241,-5.241
-3.948,-9.083,-17.418,-9.97,-22.325,-18.874,-12.385,-5.659
-4.861,-9.8,-17.38,-13.412,-23.611,-22.863,-14.474,-8.846
-5.22,-11.503,-16.015,-12.886,-22.61,-21.329,-13.732,-11.729
-5.503,-13.621,-14.233,-10.723,-20.006,-18.843,-11.709,-12.423
-5.653,-16.439,-13.725,-11.546,-18.623,-18.972,-12.298,-13.501
-5.147,-18.664,-13.193,-15.568,-18.786,-21.028,-14.325,-15.65
-3.968,-18.29,-11.238,-19.129,-18.709,-22.081,-12.804,-14.075
-2.654,-16.033,-10.714,-19.693,-18.895,-19.103,-9.43,-7.969
-1.795,-14.335,-13.547,-18.194,-20.771,-13.171,-10.076,-4.345
-1.485,-13.908,-16.486,-17.153,-23.178,-8.847,-14.072,-8.235
-0.952,-12.583,-17.889,-18.289,-25.209,-8.814,-18.253,-17.107
1.219,-7.623,-19.96,-20.443,-27.49,-11.462,-22.856,-24.793
5.702,-0.2,-21.236,-18.657,-27.62,-11.386,-25.551,-25.719
10.142,3.121,-18.38,-10.836,-23.019,-5.914,-22.621,-19.674
10.325,-2.462,-14.981,-4.378,-18.44,-1.271,-18.811,-14.059
6.331,-11.606,-15.976,-5.595,-19.404,-2.653,-20.717,-14.846
2.309,-16.179,-18.668,-9.226,-23.088,-5.155,-24.698,-18.309
-1.077,-17.774,-19.091,-9.611,-24.836,-4.824,-24.807,-18.347
-5.528,-21.11,-18.8,-9.536,-25.054,-5.315,-22.546,-15.949
-8.76,-23.052,-20.234,-11.421,-25.596,-7.796,-21.613,-15.052
-7.71,-19.055,-21.986,-13.124,-26.205,-8.507,-21.817,-15.597
-4.67,-12.567,-22.118,-14.421,-26.295,-7.905,-21.63,-16.491
-4.514,-11.148,-22.821,-17.485,-27.619,-10.137,-22.766,-19.283
-7.754,-15.794,-26.926,-20.732,-31.958,-13.492,-27.68,-24.015
-9.971,-18.815,-31.337,-20.023,-36.334,-12.6,-33.823,-26.51
-8.182,-15.005,-29.4,-14.909,-34.732,-8.101,-35.26,-23.377
-4.94,-10.212,-20.501,-9.003,-26.29,-5.111,-30.078,-16.681
-4.802,-13.054,-13.646,-7.687,-19.334,-7.276,-24.216,-12.56
-8.655,-21.748,-16.767,-13.489,-22.06,-14.252,-24.684,-14.841
-12.674,-26.748,-24.804,-20.41,-30.311,-20.374,-29.06,-19.596
-12.356,-24.328,-27.014,-20.714,-33.53,-20.601,-29.213,-20.28
-7.369,-19.786,-22.695,-16.647,-30.244,-18.021,-24.426,-17.107
-1.799,-18.182,-19.445,-16.065,-27.38,-18.971,-20.816,-14.608
0.391,-18.147,-20.206,-19.484,-28.111,-22.686,-19.768,-13.367
-1.371,-15.911,-21.561,-20.303,-29.427,-22.456,-18.091,-11.03
-4.882,-11.937,-21.507,-16.119,-29.148,-16.8,-16.37,-7.877
-7.425,-10.266,-20.937,-11.948,-28.178,-12.079,-16.619,-6.777
-7.414,-11.677,-19.272,-11.778,-26.436,-12.434,-17.109,-9.221
-4.846,-12.437,-14.759,-12.936,-22.105,-14.86,-15.908,-12.873
-1.359,-10.96,-8.211,-10.914,-15.322,-15.137,-14.245,-14.427
1.099,-9.959,-2.918,-6.287,-9.263,-12.095,-14.473,-13.482
2.144,-11.097,-1.062,-3.875,-6.713,-7.838,-16.08,-10.771
2.763,-12.132,-1.265,-5.782,-6.819,-6.605,-15.881,-6.577
3.822,-11.249,-1.218,-9.05,-7.545,-9.488,-14.144,-2.242
4.903,-10.367,-1.787,-11.089,-9.382,-12.246,-14.25,0.364
5.231,-10.317,-4.587,-12.417,-12.544,-12.359,-14.939,0.602
5.045,-9.158,-7.588,-12.879,-14.439,-11.764,-12.415,-0.414
4.15,-8.265,-7.645,-10.645,-13.564,-10.601,-8.583,-1.516
1.746,-10.879,-5.841,-6.973,-12.073,-8.109,-7.745,-3.45
-0.345,-14.609,-5.655,-6.439,-11.884,-7.923,-8.455,-6.83
0.446,-15.038,-7.081,-10.262,-11.782,-12.963,-7.293,-9.963
1.58,-13.576,-8.554,-14.636,-11.374,-19.33,-6.903,-11.592
-1.048,-12.999,-10.762,-15.773,-12.378,-21.296,-10.338,-12.118
-5.806,-12.523,-13.743,-13.326,-14.124,-18.708,-12.818,-11.643
-9.643,-13.683,-15.932,-9.637,-14.564,-15.16,-9.776,-9.918
-14.28,-20.172,-16.982,-6.007,-14.088,-11.484,-5.018,-6.31
-20.851,-29.209,-17.297,-1.418,-13.516,-6.577,-3.595,-1.117
-24.834,-32.764,-15.931,4.558,-11.676,-1.128,-4.251,3.45
-22.54,-27.988,-12.022,10.91,-7.855,4.845,-1.961,6.946
-17.789,-21.089,-8.156,16.102,-4.859,12.264,3.824,10.159
-16.775,-18.476,-8.977,17.617,-7.002,18.315,5.627,10.464
-19.312,-18.39,-14.755,14.068,-14.146,18.434,-1.141,4.889
-20.395,-16.992,-19.504,8.732,-20.485,13.452,-9.285,-3.515
-18.957,-16.907,-19.083,6.003,-21.997,9.226,-12.32,-7.987
-19.131,-21.999,-17.195,4.26,-21.404,7.799,-13.631,-6.44
-22.035,-28.092,-18.018,-0.827,-22.198,4.816,-15.819,-3.775
-23.17,-27.577,-19.298,-7.45,-23.275,-0.836,-16.742,-4.604
-20.035,-21.379,-18.035,-10.964,-22.484,-4.982,-16.096,-7.727
-15.623,-17.075,-16.184,-11.812,-20.784,-7.685,-15.398,-10.107
-13.901,-18.238,-17.723,-13.154,-21.456,-12.338,-16.444,-11.736
-16.804,-22.862,-23.69,-16.059,-26.339,-18.06,-21.092,-13.93
-23.687,-26.779,-31.151,-19.319,-33.207,-21.823,-27.759,-16.698
-30.787,-26.713,-36.23,-20.962,-37.858,-22.998,-32.024,-19.282
-33.707,-24.277,-36.743,-20.77,-37.754,-22.609,-32.752,-20.645
-31.822,-23.183,-32.431,-20.4,-33.108,-22.143,-32.692,-20.082
-28.23,-22.382,-25.605,-20.51,-26.801,-23.237,-32.8,-18.876
-25.974,-20.017,-21.38,-21.186,-23.408,-26.075,-31.348,-19.43
-26.512,-19.502,-23.238,-23.243,-25.63,-27.883,-29.671,-21.819
-30.13,-22.71,-28.202,-25.711,-30.912,-26.107,-31.082,-23.484
-35.505,-25.928,-30.971,-25.919,-34.35,-23.115,-32.799,-23.07
-39.697,-27.769,-30.974,-23.411,-34.904,-22.517,-29.627,-21.636
-41.073,-30.323,-31.298,-21.04,-35.445,-23.748,-24.669,-20.565
-41.802,-32.381,-33.879,-21.728,-37.892,-24.948,-24.884,-21.021
-44.11,-31.301,-37.323,-24.728,-40.846,-25.879,-29.254,-22.88
-45.883,-28.472,-37.971,-26.585,-41.181,-26.308,-30.925,-23.092
-44.148,-26.452,-33.784,-25.072,-37.102,-25.055,-27.148,-19.064
-39.817,-25,-26.699,-20.885,-30.038,-21.659,-21.281,-13.62
-35.768,-24.023,-20.678,-17.494,-23.898,-18.724,-17.518,-11.755
-33.347,-25.923,-18.553,-18.784,-21.905,-20.453,-17.168,-13.682
-31.56,-30.128,-19.474,-23.979,-23.335,-26.549,-18.915,-16.367
-28.326,-31.263,-19.154,-27.341,-24.168,-30.631,-20.18,-18.187
-23.087,-28.062,-15.162,-25.782,-21.862,-28.806,-19.338,-18.175
-17.907,-25.29,-10.342,-22.478,-18.076,-24.979,-16.283,-15.839
-15.209,-23.638,-8.727,-20.629,-16.039,-23.089,-12.714,-13.479
-14.138,-18.105,-9.785,-18.973,-16.067,-21.514,-13.038,-13.818
-11.534,-9.263,-9.502,-15.991,-15.344,-19.16,-18.044,-15.536
-7.632,-5.344,-6.79,-13.517,-12.855,-18.586,-21.003,-15.667
-5.887,-8.587,-4.434,-12.929,-10.61,-20.3,-17.948,-14.112
-7.067,-11.377,-4.214,-12.491,-9.625,-21.615,-13.691,-12.635
-9.153,-10.203,-5.696,-11.664,-9.83,-22.055,-12.513,-12.702
-11.544,-10.765,-8.332,-12.713,-12.18,-23.242,-12.849,-14.812
-14.473,-15.952,-11.501,-15.682,-16.442,-24.253,-14.086,-17.823
-16.225,-19.725,-13.665,-17.778,-19.94,-23.282,-17.837,-19.379
-14.886,-16.233,-13.707,-18.192,-21.033,-21.101,-21.399,-18.256
-11.484,-7.302,-12.847,-18.536,-20.946,-19.08,-20.503,-16.594
-8.635,1.401,-13.027,-19.436,-21.166,-17.892,-16.709,-17.188
-7.013,5.652,-13.675,-19.077,-21.067,-17.319,-14.294,-18.998
-5.902,4.007,-13.09,-15.808,-19.269,-15.942,-13.75,-19.22
-6.004,-1.633,-11.674,-11.742,-16.494,-13.88,-13.214,-18.317
-7.763,-7.708,-10.431,-10.062,-14.576,-12.364,-12.432,-19.04
-9.38,-11.778,-8.656,-10.027,-12.769,-11.016,-11.159,-20.81
-10.403,-12.742,-6.45,-9.624,-9.778,-9.944,-8.257,-20.136
-12.755,-10.913,-6.688,-9.971,-8.702,-10.58,-6.794,-17.52
-16.095,-8.965,-10.241,-12.571,-12.408,-12.716,-11.029,-16.7
-18.065,-9.991,-13.336,-15.992,-17.212,-14.476,-16.531,-17.701
-18.629,-12.773,-13.99,-18.249,-18.943,-15.175,-16.53,-18.984
-18.989,-12.987,-14.408,-18.734,-18.737,-14.964,-13.099,-21.176
-18.788,-10.232,-15.037,-17.332,-18.221,-12.805,-10.721,-22.346
-17.782,-7.215,-14.132,-15.332,-16.937,-9.535,-9.565,-19.591
-17.711,-5.169,-12.6,-15.041,-15.661,-8.781,-9.73,-16.703
-19.942,-6.03,-12.326,-15.714,-15.657,-9.58,-11.795,-17.89
-23.461,-11.84,-12.366,-14.91,-15.941,-7.07,-14.668,-19.175
-26.825,-19.396,-11.656,-14.606,-15.392,-3.434,-17.37,-17.367
-28.796,-22.441,-11.165,-17.771,-14.591,-4.971,-18.53,-16.868
-28.447,-19.979,-11.538,-21.152,-14.079,-9.781,-16.927,-19.988
-27.588,-17.512,-12.356,-20.584,-13.755,-12.074,-14.827,-21.868
-28.997,-18.597,-13.223,-18.123,-13.773,-12.314,-14.654,-19.295
-31.945,-20.283,-13.875,-16.85,-14.101,-12.982,-15.305,-15.995
-33.575,-20.516,-13.936,-15.616,-13.885,-13.044,-15.143,-15.766
-33.001,-22.171,-13.147,-12.947,-12.453,-11.565,-13.731,-16.424
-31.45,-24.145,-11.776,-10.308,-10.4,-10.458,-11.261,-14.418
-30.406,-20.838,-11.048,-10.133,-9.575,-12.846,-9.801,-11.504
-30.948,-14.952,-12.173,-12.92,-11.276,-19.27,-11.558,-11.928
-33.128,-15.116,-13.864,-16.54,-13.702,-25.02,-14.082,-14.727
-35.395,-20.392,-13.839,-18.915,-14.167,-25.329,-14.11,-15.028
-35.865,-22.693,-12.591,-19.399,-12.892,-21.058,-13.915,-12.108
-34.701,-20.756,-11.66,-17.644,-11.058,-15.97,-14.927,-9.336
-34.103,-18.576,-11.125,-14.461,-8.884,-12.491,-13.816,-8.652
-35.026,-16.995,-10.835,-11.312,-7,-10.219,-10.459,-9.671
-36.477,-16.659,-10.804,-8.749,-6.005,-8.276,-7.897,-10.029
-37.882,-19.994,-11.092,-8.033,-6.053,-8.292,-6.968,-7.714
-38.388,-24.889,-12.393,-9.931,-7.847,-9.924,-8.659,-5.181
-36.258,-25.241,-14.718,-11.816,-11.254,-9.189,-12.789,-5.394
-31.522,-20.047,-16.534,-11.253,-14.188,-6.505,-15.451,-6.428
-26.627,-15.819,-17.017,-10.12,-15.13,-6.75,-15.18,-5.631
-23.244,-15.949,-16.315,-10.879,-14.089,-10.094,-14.223,-4.294
-20.038,-14.941,-13.458,-12.369,-10.942,-12.393,-12.799,-4.602
-15.954,-9.912,-8.198,-12.488,-6.127,-12.262,-9.68,-6.037
-13.393,-5.836,-3.578,-10.993,-1.851,-11.052,-6.388,-6.683
-14.364,-4.777,-2.927,-8.384,-0.367,-9.436,-5.916,-6.023
-16.237,-2.426,-4.857,-5.187,-0.901,-7.703,-8.171,-5.864
-14.738,2.69,-4.514,-2.319,0.269,-7.076,-10.229,-8.147
-9.887,5.314,-0.361,-1.036,4.734,-8.318,-10.155,-11.144
-6.475,2.015,4.255,-2.092,9.278,-10.021,-8.22,-10.453
-8.199,-4.077,5.857,-4.569,10.011,-10.423,-6.77,-6.361
-13.335,-10.366,3.471,-6.729,6.429,-10.09,-7.31,-3.906
-17.343,-16.522,-1.25,-8.093,1.113,-10.746,-7.473,-3.701
-18.196,-19.589,-5.444,-9.061,-3.162,-12.367,-6.419,-2.485
-17.209,-16.402,-8.041,-9.199,-5.7,-13.594,-7.646,-0.967
-16.253,-8.797,-9.899,-7.789,-7.133,-14.06,-11.622,-2.653
-16.768,-2.593,-11.697,-5.915,-8.151,-14.589,-14.576,-7.306
-19.051,-1.408,-12.92,-5.609,-8.984,-14.925,-15.092,-10.134
-21.308,-3.876,-12.442,-6.35,-8.852,-13.311,-14.558,-8.447
-21.432,-7.991,-10.106,-5.863,-6.889,-10.118,-13.457,-5.127
-18.626,-11.887,-6.438,-4.367,-3.329,-8.476,-11.761,-3.298
-13.531,-12.091,-1.643,-3.778,0.784,-9.505,-10.399,-2.563
-9.254,-9.531,2.602,-4.114,3.672,-10.602,-9.658,-1.562
-9.476,-9.981,3.275,-4.45,3.639,-9.709,-8.595,-0.965
-12.465,-12.975,1.162,-4.106,2.372,-7.672,-6.817,-2.439
-12.192,-11.698,1.1,-2.361,4.236,-6.075,-4.142,-5.019
-8.064,-5.339,4.06,-0.578,9.165,-6.09,-0.487,-5.269
-6.072,-0.85,5.23,-1.114,11.523,-8.077,1.183,-2.738
-8.328,-1.572,2.127,-2.712,8.705,-10.382,-1.583,-1.231
-9.554,-2.114,-1.625,-1.816,4.855,-10.028,-3.98,-1.914
-6.194,2.17,-2.343,1.495,3.97,-6.176,-1.59,-1.008
-2.077,8.077,-1.205,3.177,4.933,-2.028,1.535,2.158
-1.782,11.596,-1.151,1.227,4.977,-0.71,1.782,2.707
-3.551,14.035,-2.101,-2.239,4.035,-1.487,1.596,-0.095
-2.965,16.122,-2.388,-5.196,3.423,-2.315,1.792,-1.111
0.035,14.031,-2.589,-7.02,2.603,-1.186,-0.796,-0.071
2.025,7.264,-3.839,-6.42,0.862,4.459,-6.106,-1.556
1.801,2.736,-4.937,-3.271,-0.003,12.993,-9.179,-4.756
1.747,5.096,-4.14,-0.447,1.558,17.043,-7.332,-5.116
3.112,9.459,-1.784,-0.832,3.797,11.455,-3.831,-3.12
3.236,8.836,0.149,-4.552,4.327,-0.817,-2.776,-2.328
0.841,4.531,0.696,-8.661,3.834,-10.888,-4.147,-2.609
-0.642,3.306,1.001,-9.219,4.553,-11.725,-5.64,-1.712
0.461,5.676,2.133,-5.626,6.706,-5.94,-6.113,0.241
0.81,5.533,4.02,-1.058,9.091,-2.032,-5.426,1.666
-1.559,2.272,6.146,1.709,11.037,-3.427,-3.683,1.873
-3.958,1.627,7.001,0.949,11.287,-8.664,-2.261,0.856
-3.171,4.014,5.824,-4.092,9.003,-16.5,-2.931,-1.176
0.546,4.403,4.801,-9.582,6.813,-22.655,-5.593,-3.703
4.304,2.33,5.544,-10.369,7.504,-21.463,-8.48,-5.993
6.202,2.619,5.914,-8.218,8.891,-15.015,-9.405,-7.197
5.748,7.092,3.125,-8.245,6.846,-10.293,-7.483,-7.044
3.13,11.402,-1.908,-9.691,2.219,-8.965,-3.411,-5.907
0.446,12.349,-5.639,-8.661,-0.388,-8.049,0.622,-4.588
-0.531,13.98,-7.342,-5.861,-0.517,-6.212,-0.939,-5.151
-1.414,20.173,-9.293,-4.15,-1.406,-4.24,-9.903,-7.812
-3.77,26.267,-11.253,-2.69,-2.817,-2.419,-17.208,-8.351
-5.192,27.082,-10.598,-0.125,-2.241,-1.239,-16.184,-5.269
-2.965,25.774,-7.038,1.13,0.122,-2.464,-11.977,-2.95
0.729,26.531,-2.121,-0.157,3.66,-5.072,-8.739,-3.211
1.842,27.986,3.33,-0.29,9.218,-4.184,-4.369,-3.354
1.136,27.567,8.569,3.275,15.767,1.125,0.725,-2.544
2.757,25.606,12.874,7.671,20.717,5.14,3.832,-1.868
6.717,24.305,15.763,8.912,22.866,3.71,4.197,-1.581
8.446,23.743,16.03,6.132,21.811,-0.744,2.284,-2.349
6.543,22.207,13.965,1.664,18.445,-3.427,0.797,-4.328
4.878,20.631,13.084,-0.713,16.328,-2.582,3.152,-5.423
5.945,20.911,15.194,0.837,17.602,0.032,8.013,-4.78
8.133,22.261,17.554,4.2,19.872,2.57,11.033,-3.647
9.481,23.34,17.691,6.528,20.355,4.686,11.093,-1.894
9.266,24.494,15.895,7.972,19.059,6.188,9.587,0.304
7.578,25.3,13.182,10.396,17.272,7.744,7.313,1.35
5.65,23.449,10.67,13.463,16.267,10.396,6.112,1.416
4.276,19.718,9.345,14.635,16.743,12.423,7.676,1.896
2.694,18.199,9.239,14.067,18.286,12.578,10.354,3.987
0.946,18.704,10.057,15.442,20.281,14.227,12.72,8.046
0.631,17.958,12.145,20.049,22.891,19.665,14.983,11.434
1.63,16.645,15.472,24.138,25.776,25.139,15.336,10.874
1.12,16.412,18.384,23.918,27.168,26.165,12.82,6.768
-1.395,16.195,19.573,20.958,26.454,24.416,11.168,2.696
-2.055,15.66,19.951,19.639,25.423,25.428,13.19,2.087
-0.216,14.076,20.203,20.297,24.808,29.77,14.499,4.026
-1.291,8.908,19.349,20.068,23.32,32.214,9.618,4.108
-6.755,2.86,17.531,18.728,21.28,30.839,2.947,2.272
-10.184,2.69,16.508,17.162,20.456,28.724,3.23,2.704
-7.075,7.66,16.457,13.398,20.009,25.447,8.679,4.361
-0.533,10.781,15.857,7.319,17.8,18.09,11.388,2.962
4.445,10.023,14.662,4.528,15.217,10.85,11.613,1.162
6.356,8.645,13.906,8.185,14.862,10.308,13.903,3.731
6.22,8.576,12.966,12.527,15.142,12.998,16.348,7.098
5.832,10.295,10.979,10.63,13.405,10.113,14.564,5.201
6.866,14.272,9.357,4.332,11.685,1.99,11.127,0.374
7.976,18.258,9.346,0.939,12.932,-2.682,11.791,-0.639
5.288,18.829,9.203,2.719,14.68,-0.231,14.713,2.165
-0.433,15.781,7.508,6.147,13.32,5.011,14.221,3.303
-3.934,9.048,5.609,7.128,10.21,6.91,10.99,1.883
-4.574,-1.027,5.017,3.329,8.549,2.014,8.65,1.849
-5.368,-7.632,6.916,-1.955,9.755,-5.554,8.323,4.499
-6.084,-6.188,11.337,-2.408,13.331,-7.695,11.255,7.81
-5.475,-3.315,15.362,1.689,17.177,-4.004,18.211,10.354
-4.653,-4.163,16.893,4.389,19.456,-1.272,24.077,11.379
-4.079,-4.315,17.48,3.405,19.96,-1.683,21.746,10.354
-2.121,-0.823,18.39,1.645,19.224,-1.067,13.115,8.348
1.563,3.078,18.079,0.122,17.226,0.487,7.2,6.879
5.771,6.024,16.372,-2.844,14.619,-1.356,7.794,6.538
10.046,10.127,16.015,-5.019,13.71,-4.288,11.118,7.714
13.043,14.604,17.604,-1.968,15.51,-1.468,14.841,10.224
13.185,15.276,18.846,4.951,18.363,7.082,20.399,12.59
12.446,10.683,18.403,9.328,19.784,14.588,24.738,13.617
14.075,5.348,16.893,8.812,18.063,17.662,22.236,14.259
17.61,5.509,15.821,7.656,13.966,19.209,15.663,15.441
19.727,12.279,15.055,8.815,9.825,21.504,12.101,15.633
19.272,21.374,12.234,10.189,6.346,23.037,11.768,13.719
18.33,27.464,7.827,9.711,3.734,22.271,11.079,11.463
16.509,25.75,5.901,8.063,3.415,19.828,9.426,10.95
10.306,15.418,6.963,6.355,4.711,17.456,7.294,11.246
2.562,4.366,7.94,5.096,5.214,16.715,5.647,10.729
1.261,1.317,8.327,4.037,4.959,16.69,5.719,10.366
5.328,4.161,8.778,2.175,4.783,14.663,5.334,9.059
6.229,5.61,8.412,0.766,4.294,12.008,2.949,3.874
2.507,4.14,7.238,2.784,3.724,12.939,2.186,-1.672
-0.591,2.565,6.588,7.333,3.889,16.445,5.154,-1.818
-0.955,1.992,6.799,10.646,4.474,18.312,8.41,2.04
-0.039,0.811,7.041,11.899,4.531,17.848,9.757,5.932
2.105,-1.149,7.592,13.586,5.08,16.975,11.717,9.603
6.147,-1.126,8.917,16.044,7.372,15.521,14.557,12.391
9.895,0.863,8.209,14.306,7.802,9.957,13.332,10.864
11.057,1.13,3.99,6.563,3.265,1.051,6.654,5.5
11.636,-0.598,1.191,0.466,-1.224,-2.641,1.162,2.83
14.295,-0.916,3.032,0.493,-0.904,0.971,1.818,5.289
17.962,0.73,5.44,0.417,0.905,2.309,4.869,6.583
20.934,1.54,5.325,-3.123,0.875,-2.602,5.607,3.344
23.766,0.1,5.001,-5.235,0.96,-6.853,6.032,1.451
26.803,-1.57,6.162,-3.919,2.25,-5.968,9.289,4.606
29.188,-1.34,7.395,-2.249,2.993,-1.963,12.785,8.191
30.703,-1.24,8.27,-1.471,3.297,2.449,13.383,9.352
31.832,-3.849,10.384,-0.303,5.253,6.879,13.883,11.515
32.798,-6.12,14.205,1.757,8.948,11.687,17.123,14.996
33.49,-3.411,18.092,3.002,12.067,14.453,19.481,14.163
34.252,3.653,20.57,2.628,13.319,13.44,17.88,9.002
35.784,10.015,21.843,3.613,13.959,12.68,16.119,7.343
36.802,10.203,22.566,6.689,15.046,14.517,17.429,10.845
34.822,2.135,22.438,7.306,15.599,14.515,18.88,12.884
30.778,-9.754,21.306,4.209,15.03,10.739,17.326,10.877
28.5,-16.289,20.527,2.367,15.074,8.008,14.091,8.997
29.539,-11.791,22.106,5.492,17.806,10.089,12.599,10.499
31.635,-1.297,25.84,11.196,21.971,14.038,14.183,13.075
32.096,5.331,28.264,14.111,23.332,13.931,15.688,12.54
31.046,5.628,27.252,12.636,20.837,9.202,13.579,9.704
29.625,2.392,24.44,9.417,17.869,4.612,9.958,9.259
27.565,-3.495,20.878,6.233,15.827,2.127,9.273,11.879
25.44,-8.292,16.272,3.788,13.342,0.303,11.77,13.694
24.805,-6.015,12.671,3.244,11.403,-1.433,13.939,13.27
24.12,0.03,12.776,4.736,12.84,-2.618,14.456,13.319
19.805,-0.344,15.311,8.265,17.311,-1.031,16.735,15.833
12.146,-8.857,16.581,13.909,21.115,4.766,21.723,19.025
5.516,-16.716,15.696,18.836,21.879,10.718,24.993,20.126
2.968,-17.413,14.722,19.37,20.557,12.257,24.75,19.089
3.528,-14.35,14.616,15.679,18.994,10.128,23.433,17.697
4.358,-14.068,14.895,11.291,18.307,6.984,23.082,16.888
3.874,-16.488,15.928,9.372,19.002,4.243,24.515,16.078
2.54,-18.157,17.673,9.818,20.21,3.373,26.207,14.589
1.613,-20.094,18.34,9.949,19.749,4.507,23.585,13.303
1.582,-23.753,16.598,8.263,16.419,4.703,15.596,13.207
2.944,-24.509,14.193,6.75,12.712,3.193,9.836,13.43
6.939,-17.507,14.366,8.367,12.731,3.903,12.305,13.298
11.872,-8.559,16.154,11.864,15.269,7.808,17.951,13.445
12.711,-9.49,14.848,12.579,14.687,10.326,19.899,13.16
8.269,-19.459,9.818,9.688,10.102,9.146,18.102,10.874
3.463,-24.341,5.477,7.237,6.231,6.943,15.141,7.593
2.473,-18.623,4.338,7.051,5.551,6.104,12.228,5.83
3.888,-12.011,4.414,6.858,5.941,6.326,10.12,5.555
3.557,-11.936,3.472,5.542,5.536,6.44,10.436,4.629
0.334,-14.485,2.106,4.228,5.207,5.739,13.919,3.223
-2.778,-14.461,1.74,2.589,5.405,4.132,16.787,3.025
-2.946,-13.018,2.378,-0.78,4.797,2.3,13.778,2.457
-1.025,-13.062,2.597,-5.874,2.818,0.596,6.327,-0.75
0.2,-13.425,0.976,-11.546,0.385,-2.384,1.116,-4.61
0.671,-10.583,-1.644,-15.658,-1.431,-7.382,0.402,-6.892
2.945,-5.295,-3.028,-16.973,-2.197,-13.091,-0.084,-9.252
6.826,-3.384,-2.285,-17.595,-1.853,-18.879,-3.16,-12.195
9.234,-6.502,0.68,-18.572,0.327,-23.555,-5.32,-12.528
10.03,-7.532,5.455,-16.979,4.44,-23.974,-3.502,-9.178
11.475,-1.415,9.044,-12.625,7.426,-20.631,-0.822,-5.604
12.072,4.729,7.451,-10.674,5.477,-18.86,-0.424,-5.484
8.591,1.4,1.365,-12.824,-0.091,-20.296,-1.015,-8.431
3.052,-7.822,-3.612,-13.841,-3.693,-20.448,-2.03,-10.888
0.163,-11.468,-4.39,-10.95,-3.272,-17.61,-4.175,-11.325
0.467,-6.42,-3.33,-7.795,-2.051,-15.461,-5.185,-11.388
1.452,0.6,-3.244,-7.005,-2.58,-15.593,-4.212,-11.966
1.651,4.531,-4.576,-7.73,-4.476,-16.511,-5.395,-12.363
0.716,6.523,-7.156,-9.663,-7.259,-18.849,-10.611,-13.285
-1.577,6.3,-10.807,-12.782,-10.833,-23.683,-15.407,-16.14
-5.25,-0.106,-14.765,-15.843,-14.276,-28.228,-15.865,-19.086
-9.684,-10.235,-18.33,-17.82,-16.876,-28.839,-14.091,-19.065
-12.885,-14.264,-20.816,-18.18,-18.519,-25.859,-13.154,-16.772
-12.333,-8.424,-20.686,-16.572,-18.24,-22.539,-11.424,-14.271
-7.983,0.984,-17.174,-14.027,-15.238,-20.763,-7.235,-11.591
-3.281,7.065,-13.184,-12.844,-11.903,-19.568,-5.766,-9.78
-1.804,8.274,-12.93,-14.092,-11.954,-17.747,-11.738,-11.23
-3.658,6.098,-15.931,-16.511,-14.821,-16.226,-18.516,-14.978
-6.164,2.112,-17.806,-18.654,-16.62,-16.762,-19.168,-17.742
-7.218,-0.963,-16.916,-19.847,-16.156,-18.524,-19.05,-18.622
-7.033,-0.251,-16.301,-19.244,-15.819,-17.856,-23.145,-18.957
-7.083,1.918,-18.849,-17.163,-17.604,-13.901,-26.319,-20.006
-8.523,0.495,-23.473,-15.968,-20.913,-11.12,-24.492,-21.904
-12.009,-3.758,-27.616,-17.03,-24.179,-12.325,-21.84,-23.687
-16.813,-6.132,-30.455,-18.161,-26.491,-13.713,-22.674,-24.659
-20.199,-5.702,-32.052,-16.626,-27.509,-11.486,-24.709,-24.969
-21.387,-6.256,-32.861,-14.349,-28.257,-9.3,-24.935,-24.221
-23.103,-10.442,-34.249,-15.067,-30.326,-12.163,-24.951,-21.712
-25.537,-14.4,-36.458,-16.784,-32.695,-16.416,-25.824,-18.726
-25.757,-13.487,-37.736,-15.259,-33.03,-15.752,-25.603,-17.749
-24.381,-11.04,-37.562,-12.289,-31.995,-12.631,-24.607,-19.079
-24.028,-11.599,-37.506,-11.99,-31.995,-13.11,-25.589,-21.23
-23.758,-12.369,-38.015,-13.943,-33.08,-16.473,-27.637,-23.738
-22.731,-10.17,-38.149,-16.202,-33.618,-18.804,-27.244,-26.169
-22.66,-5.808,-37.045,-18.377,-32.187,-20.14,-24.045,-25.75
-21.835,-0.188,-32.796,-18.463,-27.053,-20.986,-19.309,-20.302
-17.107,2.366,-25.711,-15.698,-19.758,-19.99,-15.663,-14.574
-12.439,-3.663,-21.887,-15.342,-17.104,-19.5,-18.14,-16.521
-13.204,-13.028,-24.764,-20.048,-21.617,-23.229,-25.31,-23.984
-16.344,-16.157,-29.686,-24.855,-27.726,-29.911,-28.814,-27.35
-16.394,-14.323,-32.509,-27.111,-31.666,-36.167,-26.635,-25.76
-13.832,-12.284,-33.532,-28.152,-33.717,-39.415,-23.653,-25.085
-12.322,-8.324,-33.208,-26.797,-33.058,-38.055,-23.006,-25.539
-13.115,-2.782,-32.132,-21.862,-30.149,-33.277,-24.735,-23.924
-13.53,-0.419,-31.785,-16.018,-28.085,-27.765,-26.579,-21.059
-11.265,-1.205,-31.913,-13.006,-27.513,-23.125,-25.455,-20.45
-8.492,-0.526,-30.899,-14.009,-26.339,-20.405,-20.268,-22.507
-7.679,3.365,-29.507,-17.836,-25.004,-21.283,-14.279,-23.987
-8.226,5.784,-30.415,-22.51,-26.223,-25.862,-13.622,-23.509
-10.974,0.046,-34.242,-25.798,-30.006,-29.959,-19.053,-23.596
-18.362,-13.383,-39.412,-27.639,-34.355,-29.989,-26.543,-25.66
-27.483,-25.124,-43.437,-29.965,-37.816,-28.075,-33.572,-26.721
-31.599,-25.939,-43.672,-31.693,-38.607,-26.453,-35.808,-24.662
-29.323,-16.566,-40.238,-30.122,-36.213,-23.465,-30.825,-22.21
-24.998,-6.038,-36.119,-26.094,-32.751,-18.342,-24.358,-21.629
-21.777,-0.369,-32.862,-21.713,-29.405,-12.551,-20.637,-20.911
-19.481,0.839,-29.301,-17.746,-25.214,-8.143,-17.405,-17.772
-17.382,-1.961,-25.234,-15.832,-20.874,-7.531,-15.006,-14.012
-15.422,-7.731,-22.36,-17.207,-18.663,-10.072,-16.611,-13.061
-13.047,-10.877,-20.646,-19.747,-18.164,-12.081,-19.714,-14.963
-10.425,-7.879,-18.707,-20.906,-17.453,-13.082,-19.662,-17.672
-9.63,-1.955,-17.427,-20.826,-16.919,-15.488,-17.695,-19.754
-11.279,2.599,-18.411,-19.918,-17.465,-18.112,-16.747,-19.72
-13.643,1.719,-20.533,-17.135,-18.018,-16.149,-14.964,-16.464
-15.791,-6.527,-21.52,-12.73,-17.757,-9.121,-10.625,-11.491
-17.688,-15.536,-21.329,-9.597,-17.966,-4.177,-8.81,-9.446
-19.243,-18.144,-21.459,-9.749,-19.446,-6.963,-12.848,-12.521
-20.684,-17.037,-22.316,-12.146,-20.821,-14.618,-16.483,-16.039
-22.39,-16.637,-23.908,-15.471,-21.907,-21.781,-16.519,-16.381
-24.55,-15.84,-27.028,-19.503,-24.52,-26.422,-18.51,-17.133
-26.258,-13.963,-30.984,-22.981,-27.964,-28.068,-22.745,-20.576
-25.716,-13.3,-33.252,-23.709,-29.223,-25.768,-23.231,-22.229
-22.668,-13.636,-32.671,-21.284,-27.561,-19.835,-20.008,-19.279
-19.326,-12.362,-30.33,-17.931,-24.612,-14.028,-17.543,-15.998
-17.518,-10.269,-27.735,-16.539,-21.516,-12.528,-16.255,-16.034
-15.529,-8.548,-25.169,-17.023,-18.062,-13.462,-13.887,-16.572
-10.772,-4.337,-21.685,-15.994,-13.917,-11.286,-10.684,-15.32
-5.405,1.13,-17.312,-12.993,-10.05,-7.649,-9.186,-15.268
-3.894,1.09,-14.028,-11.788,-7.901,-8.352,-9.575,-17.093
-5.173,-3.064,-13.244,-13.071,-7.468,-11.202,-9.264,-16.924
-4.709,-3.231,-14.641,-14.096,-8.128,-11.364,-8.745,-15.092
-2.546,0.537,-16.829,-13.166,-9.37,-8.804,-11.437,-15.231
-2.012,1.946,-17.829,-9.564,-9.9,-3.536,-17.266,-16.171
-4.179,-1.016,-17.381,-5.307,-9.374,2.419,-22.451,-15.461
-7.474,-5.485,-17.312,-5.095,-9.312,2.935,-23.941,-14.924
-10.068,-8.459,-18.291,-9.557,-10.371,-2.653,-22.31,-16.264
-12.003,-10.262,-19.203,-13.964,-11.535,-7.776,-20.62,-17.593
-14.436,-12.147,-19.836,-16.026,-12.245,-9.538,-19.899,-17.818
-15.888,-10.467,-20.792,-17.972,-12.723,-10.874,-19.142,-18.662
-13.59,-2.649,-21.771,-19.973,-13.215,-12.731,-18.976,-19.905
-10.673,2.516,-23.762,-19.878,-15.3,-14.051,-20.424,-19.409
-13.911,-3.57,-28.62,-18.134,-20.15,-15.346,-21.596,-17.533
-22.123,-13.605,-34.193,-16.461,-25.206,-15.557,-20.626,-15.607
-27.237,-16.108,-36.454,-15.356,-27.899,-13.055,-19.458,-13.78
-27.063,-12.729,-35.103,-14.688,-28.869,-10.498,-18.694,-12.394
-26.35,-11.102,-31.788,-13.566,-28.069,-9.928,-15.02,-10.687
-26.615,-10.937,-26.556,-11.895,-23.881,-9.21,-8.314,-6.418
-24.857,-8.022,-19.766,-12.405,-17.555,-9.47,-2.67,-2.023
-21.209,-3.825,-14.386,-17.066,-13.258,-14.397,-1.782,-4.297
-19.16,-3.357,-12.206,-22.426,-11.909,-20.381,-6.343,-11.186
-18.625,-7.511,-10.312,-22.626,-9.47,-20.106,-11.211,-12.337
-16.035,-11.57,-5.76,-16.836,-3.714,-13.664,-9.403,-7.591
-11.012,-12.307,-0.808,-10.059,1.992,-6.361,-1.618,-5.287
-7.259,-12.231,-0.214,-6.697,2.933,-0.514,1.698,-5.295
-7.122,-13.486,-4.763,-6.788,-1.536,3.567,-6.141,-3.463
-9.832,-14.377,-10.285,-8.595,-7.376,3.352,-15.493,-2.455
-13.734,-14.104,-13.237,-10.986,-10.686,-1.785,-15.413,-4.585
-16.813,-13.675,-13.687,-12.12,-11.132,-6.156,-9.909,-5.575
-17.267,-11.644,-12.688,-9.319,-9.721,-4.517,-4.826,-1.968
-15.564,-5.974,-10.498,-2.737,-6.759,1.103,2.207,2.908
-14.494,-0.241,-8.297,2.506,-3.983,5.044,8.857,3.239
-15.604,0.139,-8.456,2.061,-4.757,5.093,5.256,-1.666
-16.946,-3.397,-11.077,-1.658,-9.207,3.495,-7.684,-6.836
-16.115,-5.261,-12.742,-3.895,-12.487,1.532,-15.29,-7.326
-13.271,-3.504,-10.294,-3.024,-10.159,-0.736,-10.964,-2.644
-10.897,-0.297,-4.826,0.466,-3.768,-0.322,-3.686,3.114
-12.149,1.037,-1.544,3.268,0.103,3.167,-1.116,6.341
-17.903,-3.231,-4.962,-0.556,-3.622,3.089,-3.764,5.983
-25.311,-14.535,-13.382,-11.033,-12.946,-3.154,-11.985,0.63
-30.179,-26.526,-19.798,-19.055,-20.384,-7.755,-20.916,-7.18
-30.156,-28.968,-20.143,-18.608,-21.732,-5.434,-21.435,-9.064
-25.374,-19.951,-17.204,-13.365,-20.111,-0.627,-15.055,-2.63
-17.446,-7.865,-14.165,-7.101,-18.418,3.53,-9.843,4.119
-9.986,-1.676,-10.495,-0.068,-15.044,9.256,-5.922,4.997
-7.01,-2.106,-6.292,4.761,-9.829,15.003,-0.923,2.697
-7.955,-3.178,-3.994,4.261,-6.119,15.652,2.195,2.136
-8.694,-2.429,-3.993,1.912,-5.167,12.341,2.346,4.498
-7.195,-1.29,-3.402,3.638,-4.283,12.218,2.467,8.555
-4.017,1.823,-0.426,9.827,-1.254,18.38,3.497,13.058
-0.77,5.966,2.807,14.594,2.112,24.513,4.862,16.049
-0.095,5.285,2.245,12.219,1.585,22.093,4.835,14.579
-2.377,1.038,-2.603,5.377,-3.291,13.566,0.579,9.512
-3.753,1.668,-6.292,2.589,-7.008,9.551,-5.335,5.811
-1.84,8.108,-4.773,5.825,-5.943,12.745,-6.394,5.554
1.083,12.2,-0.915,9.711,-2.954,17.686,-2.163,7.49
3.225,10.422,1.929,11.544,-0.754,21.03,2.421,9.327
5.107,7.941,4.775,12.334,1.963,21.03,5.792,7.845
5.301,7.321,7.582,11.827,5.246,16.244,8.09,3.564
1.618,4.794,6.565,9.217,5.303,10.049,4.104,1.395
-2.449,0.883,1.9,6.236,1.432,8.18,-7.333,2.884
-0.834,1.967,-0.19,5.374,-0.929,10.79,-15.538,4.871
5.428,8.714,2.027,5.542,0.529,12.628,-15.295,5.435
10.854,15.547,4.2,4.739,2.402,11.719,-12.568,5.208
14.909,21.418,5.781,5.524,4.515,11.933,-7.936,5.725
19.279,27.482,8.81,9.659,8.498,14.791,0.502,8.058
21.154,27.677,10.629,12.717,10.52,16.956,6.042,11.379
17.761,18.322,8.085,12.024,7.113,17.056,4.275,13.373
12.122,9.068,3.324,10.803,1.825,15.96,1.347,11.5
9.06,8.716,0.564,10.883,-0.188,13.079,3.682,7.029
9.234,12.067,1.371,10.552,1.763,9.018,9.446,4.961
9.81,11.153,3.914,9.901,5.208,7.293,12.441,5.916
9.777,7.864,6.046,12.197,8.817,10.833,11.52,7.305
10.666,7.643,7.735,18.243,12.451,17.986,11.279,9.014
11.829,9.49,8.161,22.769,13.306,22.961,12.722,9.118
10.969,9.884,5.212,20.466,8.285,21.987,11.552,4.306
8.645,9.397,0.401,12.248,0.178,16.066,6.429,-2.668
7.159,9.886,-2.276,2.503,-5.225,7.656,1.547,-5.51
6.983,10.689,-1.931,-5.019,-6.031,-0.28,1.154,-2.809
7.256,9.373,0.313,-7.529,-3.539,-4.65,5.331,1.903
8.313,4.929,4.917,-4.168,1.966,-4.879,10.553,5.393
11.156,0.397,12.15,2.458,10.465,-2.464,13.341,7.166
14.76,-1.075,19.171,7.682,18.916,0.643,13.867,8.835
17.305,-0.719,22.6,9.469,23.342,2.732,15.58,11.415
19.138,0.08,22.656,11.248,23.666,4.597,21.168,14.639
20.999,2.954,21.18,16.652,22.046,8.305,28.762,18.795
21.198,7.939,17.269,22.375,17.833,12.234,32.352,21.793
18.396,11.388,9.896,22.311,9.743,12.8,28.753,19.087
15.572,10.342,2.825,17.519,1.512,11.227,22.527,12.911
15.36,5.673,-0.202,13.82,-2.112,11.013,18.989,11.023
14.816,1.306,-1.374,12.246,-2.313,10.562,16.824,13.875
11.927,0.912,-2.581,10.96,-1.582,7.769,13.583,15.692
10.435,3.845,-0.48,11.331,2.025,6.773,12.915,16.157
12.686,6.325,6.411,14.059,9.432,10.453,18.05,19.232
15.115,5.957,13.377,15.46,16.098,13.201,23.584,22.569
14.428,3.135,16.591,13.728,18.685,10.417,25.5,20.189
12.566,0.296,17.627,12.156,19.443,7.023,27.022,14.921
12.227,-0.578,18.077,12.775,19.927,8.477,24.901,14.16
12.459,0.517,16.974,13.617,18.502,12.02,14.754,15.657
12.088,3.33,14.428,12.673,15.169,12.294,5.921,12.413
12.847,7.3,12.15,10.504,11.825,9.807,4.34,6.521
15.65,10.534,11.542,9.788,9.907,9.678,3.399,5.424
17.083,11.038,12.322,11.79,9.765,12.824,3.126,9.804
13.807,7.859,12.102,13.752,9.389,14.204,7.336,13.3
8.581,2.663,10.05,13.256,6.95,12.098,10.281,12.369
6.698,-0.633,8.734,11.452,4.423,9.733,8.78,10.072
8.413,-0.928,9.317,9.238,4.14,7.135,8.202,7.536
10.559,-0.841,10.2,7.09,5.939,2.982,10.939,2.851
11.672,-1.884,11.285,7.392,9.63,0.571,16.431,0.49
11.156,-3.4,13.794,10.611,14.645,2.616,22.703,5.702
8.909,-4.294,16.978,13.842,18.57,6.604,22.721,13.572
7.114,-4.038,19.461,15.765,20.379,9.451,16.571,17.551
7.75,-3.573,21.426,17.356,21.467,11.109,15.316,18.605
9.937,-3.909,22.774,17.712,21.775,11.748,19.663,18.041
12.056,-3.629,22.743,15.108,20.16,10.455,19.246,14.563
13.902,-0.39,22.503,12.084,18.133,9.298,13.644,10.879
15.467,3.969,23.537,12.181,17.42,11.446,10.176,10.479
15.953,3.96,24.332,12.826,16.556,13.545,9.804,11.187
15.802,-0.654,23.626,10.163,15.025,9.921,8.868,10.648
17.091,-2.72,23.685,7.492,15.901,3.718,7.472,11.552
20.006,1.778,25.761,10.158,20.349,2.95,10.522,16.308
22.093,8.899,26.777,15.575,24.223,6.837,18.522,20.24
22.761,15.147,25.018,17.775,24.136,8.168,24.181,16.599
24.966,21.369,24.178,19.196,23.074,8.27,23.833,9.135
29.79,26.434,26.42,24.956,24.099,13.686,19.588,7.768
33.269,26.004,27.442,30.153,23.713,20.843,12.503,11.856
32.012,19.71,24.087,28.288,18.887,22.112,7.194,13.365
27.242,12.887,19.475,22.768,12.84,19.01,9.502,11.713
20.771,8.416,15.735,17.63,7.719,14.854,12.454,10.576
13.123,4.145,10.308,10.498,1.538,7.189,5.461,8.376
6.462,0.354,2.966,1.187,-4.84,-4.116,-5.644,2.403
3.239,-0.317,-2.688,-6.145,-8.366,-13.992,-10.997,-5.437
3.191,1.301,-5.047,-9.755,-9.358,-19.022,-13.685,-10.719
4.18,2.403,-4.801,-10.186,-8.529,-18.819,-15.794,-10.651
2.994,0.172,-3.13,-8.053,-5.484,-14.806,-11.506,-7.219
-2.027,-6.595,-1.776,-4.955,-2.199,-9.917,-1.752,-4.719
-7.291,-13.245,-1.121,-1.589,-0.774,-5.387,5.198,-3.63
-8.442,-13.92,-0.615,2.382,-0.905,-1.692,4.776,-2.473
-6.728,-10.077,-1.127,5.385,-2.336,-1.114,-1.608,-1.961
-5.379,-6.341,-3.271,5.058,-5.299,-4.506,-8.856,-2.503
-4.796,-3.721,-5.93,0.721,-9.156,-10.067,-12.524,-3.346
-4.64,-2.731,-7.473,-5.567,-12.349,-14.651,-12.971,-4.135
-4.477,-4.304,-6.506,-9.633,-12.754,-14.942,-12.269,-4.403
-3.38,-6.286,-3.828,-10.237,-10.138,-12.003,-9.905,-4.09
-2.546,-6.283,-3.342,-11.259,-8.473,-11.411,-5.507,-4.714
-3.243,-5.009,-6.606,-14.611,-10.836,-14.945,-2.289,-6.899
-3.651,-4.234,-9.363,-16.24,-13.481,-18.046,-3.057,-7.044
-2.974,-4.43,-8.213,-12.895,-11.731,-17.26,-5.727,-2.747
-3.56,-4.572,-5.756,-7.283,-8.065,-14.26,-7.351,0.27
-6.028,-3.921,-4.55,-3.597,-6.786,-12.286,-7.844,-3.135
-8.087,-2.719,-2.705,-1.281,-6.301,-11.691,-7.267,-7.759
-9.103,-1.302,0.383,2.91,-4.031,-9.994,-5.317,-6.499
-10.055,-0.07,1.895,8.186,-2.206,-6.274,-2.821,-0.331
-9.383,1.747,1.514,10.419,-2.846,-3.2,-0.94,4.907
-4.816,5.077,2.626,8.587,-3.1,-3.173,-0.256,6.538
1.546,7.061,6.473,5.947,-0.365,-4.168,0.471,7.531
5.607,5.502,9.727,5.24,2.698,-2.444,2.787,10.842
7.851,4.767,10.128,5.819,3.268,1.832,5.475,14.913
11.823,8.429,10.259,5.842,3.469,5.494,7.071,16.986
17.373,12.903,12.439,5.233,5.772,7.157,8.028,16.452
21.42,14.644,15.22,5.558,9.189,7.781,8.486,13.946
23.091,15.395,16.744,7.474,11.879,7.744,7.643,10.386
23.111,16.802,16.769,9.63,12.89,6.861,5.483,7.388
21.145,17.245,16.061,11.04,12.458,6.68,4.393,7.04
17.434,16.214,15.83,12.875,12.024,8.824,7.173,9.939
14.587,16.3,16.282,16.394,12.197,12.187,12.336,13.874
14.12,18.214,15.68,19.591,11.245,13.459,14.269,15.362
13.678,18.226,12.667,18.811,7.882,10.366,10.737,13.054
10.858,14.326,8.993,14.552,4.334,5.416,7.14,10.209
6.571,9.461,7.596,11.01,3.274,2.76,8.472,11.052
3.414,6.26,9.286,10.559,4.383,2.301,11.781,14.143
3.245,5.348,12.794,12.162,6.232,2.227,12.046,14.916
6.113,7.548,16.55,13.352,8.284,2.777,10.707,13.581
10.233,11.563,19.507,12.615,10.295,4.045,12.419,13.166
13.4,13.949,20.29,9.583,10.981,4.027,15.583,12.455
15.664,15.327,18.681,5.018,9.745,1.623,14.047,9.37
19.359,19.758,18.306,2.784,9.968,0.365,8.344,7.296
24.667,25.896,21.907,6.64,14.671,3.852,5.839,9.449
28.318,27.206,26.253,14.1,20.394,9.377,8.62,13.152
28.707,22.82,27.592,19.439,22.338,13.184,11.308,15.957
28.342,19.425,26.836,21.137,21.191,16.599,11.788,18.829
29.369,20.382,25.706,21.629,19.557,21.189,12.835,20.716
30.184,21.345,23.878,22.158,17.292,24.793,14.405,19.922
28.43,18.515,21.373,21.232,13.661,24.603,14.526,18.609
25.048,14.586,19.49,18.175,9.985,20.813,13.382,18.368
23.039,13.692,19.369,16.105,8.58,18.039,12.049,18.345
22.652,14.521,20.914,17.287,10.137,19.655,12.431,18.928
21.792,14.96,23.341,19.098,13.453,21.941,16.694,20.224
21.549,18.901,27.157,20.43,18.457,22.167,22.221,20.883
25.137,28.183,33.946,24.434,26.684,24.707,23.873,21.07
32.189,35.883,43.768,31.524,38.061,31.782,24.934,23.117
39.177,35.89,53.678,37.852,49.318,39.016,32.014,28.596
42.645,30.067,59.66,40.841,56.089,42.945,39.746,34.867
40.942,24.327,60.467,42.051,56.963,45.183,39.315,37.653
35.644,23.39,57.368,44.034,53.867,47.857,34.297,37.232
29.611,25.831,50.856,45,47.894,48.378,32,36.098
24.061,24.827,41.925,41.177,39.234,43.445,31.108,33.313
20.362,19.701,34.856,34.675,31.246,36.32,28.38,28.503
20.438,18.097,32.856,31.583,27.821,33.349,26.94,26.446
22.936,21.203,33.223,32.437,27.316,34.814,29.513,29.534
24.945,22.344,32.692,31.87,26.207,34.257,32.183,32.047
27.107,21.795,32.836,28.206,25.483,28.559,32.55,30.329
31.141,25.526,35.292,26.241,27.15,23.401,33.893,28.647
35.156,31.524,37.994,28.845,29.706,23.374,37.142,29.088
35.372,31.601,38.999,33.131,31.077,25.757,39.212,29.023
30.497,24.471,39.165,36.199,31.69,28.479,39.099,29.227
23.431,17.625,39.726,37.991,32.922,32.579,38.96,32.123
18.589,17.174,40.342,38.75,35.144,36.678,40.649,35.197
17.79,21.072,41.166,38.969,38.343,39.264,43.975,35.415
19.642,22.804,43.196,39.684,42.047,41.998,47.059,34.73
21.26,20.551,44.626,39.68,43.667,44.491,47.325,34.418
20.311,18.867,42.181,36.582,40.587,43.894,44.01,32.263
17.648,19.574,36.884,31.693,34.234,42.01,39.744,29.229
17.145,19.753,33.324,28.776,28.854,43.5,37.942,29.075
20.856,19.678,33.631,28.468,27.024,46.84,39.739,31.28
25.427,21.645,34.867,27.944,27.419,45.354,42.566,31.775
26.375,23.522,33.078,25.21,26.758,36.866,41.608,28.947
24.961,22.66,29.21,21.204,24.663,26.27,36.049,25.376
25.78,21.501,27.342,18.425,23.972,18.959,30.069,23.92
29.614,23.601,28.518,19.245,26.087,17.052,26.948,24.882
33.741,27.296,30.973,24.487,29.931,21.342,28.057,27.439
35.587,27.416,33.01,30.815,33.431,29.306,32.607,29.274
34.061,23.061,33.692,32.888,34.656,33.7,36.144,28.472
30.358,18.217,33.479,31.09,33.74,31.749,35.409,28.495
26.008,13.928,32.775,29.883,31.792,28.634,32.094,31.867
20.841,8.523,31.147,29.008,28.982,26.813,29.111,33.033
15.859,4.836,30.162,26.006,26.65,23.518,27.844,28.942
13.834,6.557,32.072,23.281,26.935,19.575,29.092,26.174
13.932,9.753,34.516,24.197,28.36,19.509,31.879,28.406
11.867,7.783,32.877,27.102,27.279,23.688,33.333,30.371
7.567,2.289,28.387,28.656,24.452,27.439,33.208,29.416
5.468,0.886,27.143,28.854,24.392,27.773,34.277,29.149
7.078,5.41,31.043,28.797,28.292,25.914,36.816,29.594
10.262,10.57,35.785,26.913,32.493,22.561,37.756,25.939
13.945,12.625,37.372,22.196,33.477,17.543,36.193,18.507
18.003,12.546,36.063,18.378,31.388,14.395,34.819,15.027
20.712,13.063,33.553,19.62,28.278,17.734,34.91,20.022
20.114,15.246,30.069,24.664,25.071,26.082,34.897,27.711
16.57,15.231,26.048,29.39,22.032,33.143,34.219,30.369
12.427,8.768,23.287,32.501,20.139,36.605,33.979,28.856
10.377,0.523,22.263,34.535,19.614,38.938,34.123,28.364
11.382,-1.029,21.097,34.34,18.845,40.466,33.49,29.279
13.397,4.127,18.766,30.943,16.887,39.671,31.873,28.83
14.519,11.601,17.109,26.346,15.65,37.352,30.127,26.655
16.408,21.594,18.427,23.587,17.643,35.204,29.396,24.642
19.866,31.744,21.702,22.322,21.584,32.729,29.451,23.338
20.277,32.454,22.918,19.413,22.986,28.512,28.084,20.581
14.414,21.73,20.89,15.658,20.78,23.973,24.645,15.734
6.518,11.078,18.8,14.443,18.312,20.981,20.839,11.704
1.2,9.163,17.476,13.413,16.287,17.166,17.282,9.557
-2.121,13.834,14.817,10.295,13.073,12.316,14.687,8.152
-4.299,20.047,12.269,11.025,10.944,12.988,15.642,9.195
-4.846,23.39,11.89,17.237,11.745,19.79,19.456,13.607
-5.541,20.976,10.147,18.738,10.709,22.45,19.925,16.159
-8.13,16.206,4.32,10.965,4.397,16.764,13.549,12.446
-10.651,15.678,-1.301,3.474,-2.321,11.058,5.729,6.318
-11.359,18.391,-3.408,2.473,-5.193,10.253,3.106,2.614
-11.442,16.707,-5.082,1.918,-7.039,8.987,4.57,0.617
-11.493,8.739,-8.053,-2.395,-9.955,4.582,6.347,0.327
-11.123,0.521,-9.19,-5.714,-11.17,2.908,8.089,2.746
-11.04,-2.963,-6.844,-4.499,-8.846,7.466,9.384,4.212
-11.965,-2.328,-3.29,-1.496,-4.721,13.912,9.397,2.943
-13.672,-1.221,-1.126,0.332,-1.405,17.806,10.001,3.222
-15.804,-1.695,-1.395,1.004,-0.812,19.465,12.894,6.291
-18.009,-2.335,-3.713,1.388,-3.373,20.978,16.423,8.577
-19.482,-1.17,-6.108,2.404,-6.975,22.534,17.462,8.809
-19.519,1.474,-6.297,4.588,-8.427,21.31,14.422,8.521
-18.507,3.64,-3.782,7.007,-6.239,15.464,9.836,8.836
-18.187,3.144,-0.332,8.212,-1.691,8.446,8.843,9.24
-21.133,-1.628,0.885,7.054,1.508,3.777,11.098,7.789
-27.928,-9.699,-2.248,2.896,-0.05,-0.463,9.96,3.963
-34.737,-16.857,-7.887,-2.382,-5.286,-5.493,3.902,-0.021
-37.387,-19.513,-11.8,-5.135,-9.544,-7.933,-1.066,-2.318
-36.633,-18.984,-13.045,-4.843,-10.937,-7.383,-2.384,-3.43
-35.82,-19.337,-14.339,-4.263,-11.777,-8.369,-3.31,-4.457
-35.666,-21.247,-15.61,-4.474,-12.643,-11.617,-4.518,-4.505
-35.295,-23.643,-14.631,-4.659,-12.147,-13.165,-4.047,-2.21
-35.697,-27.597,-13.252,-5.014,-11.961,-12.311,-3.313,-0.026
-37.553,-31.008,-13.727,-5.865,-13.644,-11.981,-4.644,-1.612
-38.43,-28.467,-14.042,-6.145,-14.888,-12.237,-7.078,-4.175
-36.075,-20.602,-13.242,-4.855,-14.705,-9.902,-8.367,-1.963
-32.464,-14.969,-14.323,-3.972,-16.211,-5.826,-8.57,1.133
-30.931,-16.388,-19.056,-6.691,-21.325,-5.386,-10.322,-3.24
-31.07,-20.664,-24.775,-11.417,-27.261,-9.131,-14.168,-11.151
-30.84,-20.915,-27.808,-13.801,-30.299,-12.086,-17.086,-13.363
-29.558,-15.926,-26.504,-13.555,-28.889,-12.306,-16.459,-10.887
-25.847,-8.097,-20.732,-12.915,-22.853,-12.014,-11.778,-9.296
-19.39,-1.223,-12.624,-12.239,-14.404,-12.511,-6.317,-9.679
-13.614,-0.706,-5.604,-10.286,-7.176,-12.576,-5.479,-10.589
-10.697,-6.637,-0.261,-6.221,-1.747,-10.714,-7.888,-10.491
-8.251,-11.481,4.782,-0.741,3.386,-6.656,-7.541,-8.955
-4.699,-10.973,8.506,4.192,7.349,-1.249,-6.541,-7.609
-2.383,-8.648,8.685,6.588,8.022,3.175,-10.213,-7.226
-2.165,-5.944,6.299,5.955,6.246,3.838,-14.555,-7.027
-1.106,-0.147,4.514,3.324,4.918,0.507,-13.903,-7.675
1.647,5.32,3.96,-0.506,4.364,-3.665,-10.345,-9.091
3.114,3.559,2.281,-4.872,2.155,-4.98,-7.806,-8.922
2.168,-2.67,-2.032,-8.047,-2.583,-2.827,-7.287,-6.983
0.966,-5.415,-7.77,-9.173,-8.097,-0.012,-7.959,-5.829
0.267,-5.212,-12.856,-10.272,-12.682,0.055,-8.764,-7.121
-1.677,-7.291,-16.27,-13.442,-15.716,-3.878,-10.004,-10.351
-5.436,-10.713,-18.02,-17.444,-17.238,-9.385,-11.501,-13.192
-8.701,-10.78,-18.357,-19.46,-17.705,-12.169,-11.499,-13.261
-9.324,-7.073,-17.858,-19.39,-17.881,-11.495,-10.225,-11.334
-9.011,-4.726,-17.896,-19.987,-18.696,-11.53,-10.934,-11.025
-10.754,-8.631,-19.728,-22.848,-20.501,-15.609,-15.788,-13.763
-13.114,-15.964,-22.406,-26.304,-22.216,-21.799,-21.528,-16.238
-12.671,-18.608,-23.283,-27.692,-22.078,-25.655,-22.57,-15.685
-10.224,-15.013,-21.719,-26.702,-20.142,-26.024,-19.541,-14.965
-7.678,-10.897,-18.808,-24.41,-17.712,-25.002,-16.974,-16.515
-3.917,-8.278,-14.323,-20.546,-14.415,-23.644,-15.008,-16.933
0.641,-4.434,-8.999,-15.316,-10.196,-21.809,-12.585,-14.093
2.751,0.242,-5.548,-10.528,-7.075,-19.054,-11.132,-10.604
2.201,2.368,-4.23,-6.77,-5.547,-14.622,-10.441,-7.796
2.524,2.383,-3.486,-3.947,-4.418,-10.604,-9.355,-5.235
4.872,3.937,-3.819,-3.565,-4.313,-11.241,-8.848,-4.595
5.423,6.34,-6.396,-6.754,-6.893,-16.168,-9.764,-7.416
1.537,6.045,-9.995,-11.322,-11.017,-19.23,-11.156,-10.147
-2.957,4.454,-11.6,-13.216,-12.732,-16.351,-11.62,-8.387
-3.591,4.099,-10.758,-11.961,-11.069,-12.005,-10.654,-5.426
-1.628,3.18,-10.631,-11.243,-9.866,-13.078,-9.83,-7.467
0.57,1.814,-11.857,-11.644,-10.459,-17.759,-10.545,-12.472
4.712,4.173,-10.193,-8.703,-8.493,-17.911,-10.088,-12.685
11.425,10.2,-4.556,-2.166,-2.663,-12.076,-5.669,-7.534
15.085,12.505,-1.439,0.577,0.278,-8.106,-0.273,-4.995
12.059,6.178,-4.679,-3.582,-3.667,-10.694,1.15,-7.464
8.309,-3.084,-8.545,-8.288,-8.574,-15.756,-1.987,-8.97
9.841,-7.446,-7.97,-9.389,-9.085,-19.289,-5.652,-8.036
14.015,-6.707,-5.567,-9.467,-7.395,-20.998,-6.189,-8.325
16.76,-3.505,-3.87,-9.414,-5.785,-19.76,-3.792,-9.231
19.066,1.089,-0.986,-6.903,-2.65,-14.802,-0.18,-7.612
22.14,4.061,2.85,-3.363,1.271,-9.899,2.818,-4.488
24.661,3.246,3.977,-2.903,1.948,-9.218,3.124,-3.114
26.916,2.661,2.17,-4.943,-0.695,-10.975,1.402,-3.457
30.107,6.248,0.79,-5.537,-2.354,-10.657,0.833,-2.798
32.631,10.07,1.646,-3.106,-0.668,-6.679,1.863,-0.325
32.499,7.858,3.532,0.754,2.399,-1.064,1.735,1.26
30.974,1.68,3.639,3.517,3.261,2.57,0.238,-0.901
31.089,-0.553,1.762,4.686,1.641,2.8,-0.704,-5.925
33.396,2.576,1.248,5.536,0.942,1.307,-2.108,-9.776
34.718,5.55,2.049,5.201,1.601,-0.578,-4.135,-9.284
32.471,5.946,0.107,1.095,0.02,-3.565,-3.917,-6.296
28.377,4.677,-4.029,-5.425,-3.819,-7.259,-2.233,-5.718
24.476,0.082,-5.792,-8.74,-5.824,-7.719,-2.085,-7.762
19.059,-8.376,-5.07,-6.693,-5.156,-2.811,-2.329,-7.374
12.369,-14.875,-4.668,-3.709,-3.982,2.448,-0.706,-2.916
9.075,-14.769,-4.619,-4.24,-2.984,1.516,0.604,-0.614
9.422,-11.429,-4.994,-7.464,-2.779,-5.064,-2.775,-5.388
8.312,-9.043,-6.84,-9.966,-3.755,-11.46,-10.005,-11.498
4.467,-8.485,-8.547,-10.431,-3.811,-14.558,-14.496,-11.784
0.985,-11.336,-8.522,-9.505,-1.785,-15.002,-12.664,-8.607
-0.734,-17.303,-8.218,-7.861,0.331,-14.014,-7.694,-6.975
-2.169,-21.963,-9.011,-6.537,0.822,-13.803,-3.927,-6.454
-5.138,-22.982,-10.976,-6.486,-0.501,-16.176,-2.835,-4.741
-9.87,-23.018,-14.843,-7.273,-4.396,-19.077,-4.105,-2.514
-14.839,-24.988,-20.594,-7.446,-10.941,-18.674,-6.131,-1.515
-18.163,-28.288,-25.151,-6.261,-16.725,-14.925,-6.372,-1.335
-19.326,-31.391,-25.898,-5.476,-18.33,-12.497,-4.595,-0.847
-19.09,-34.28,-24.247,-7.478,-17.073,-14.494,-3.447,-0.637
-17.488,-34.74,-22.076,-10.775,-15.705,-17.178,-4.865,-2.313
-13.603,-28.835,-18.885,-11.036,-13.721,-14.826,-8.087,-5.354
-7.635,-18.032,-14.743,-7.281,-9.785,-8.266,-10.013,-6.415
-1.517,-8.443,-11.236,-3.239,-5.454,-3.644,-8.639,-4.964
2.51,-4.08,-8.718,-2.339,-3.203,-4.272,-6.86,-5.119
3.398,-5.56,-6.684,-4.829,-3.159,-7.931,-8.354,-7.921
2.764,-9.477,-4.957,-8.243,-3.344,-9.464,-11.558,-9.162
2.985,-10.604,-2.892,-9.51,-2.279,-5.708,-13.786,-8.651
2.076,-11.032,-1.571,-9.43,-1.449,-1.306,-15.851,-11.295
-2.88,-15.873,-3.362,-11.182,-2.685,-3.577,-17.767,-15.668
-8.249,-20.196,-7.147,-14.269,-4.692,-11.498,-18.514,-16.216
-9.155,-17.082,-10.004,-16.316,-6.115,-18.887,-19.505,-14.762
-7.195,-10.551,-11.143,-16.357,-7.355,-22.223,-20.462,-14.499
-5.947,-7.516,-10.583,-14.023,-8.137,-20.297,-19.369,-13.412
-5.664,-8.738,-9.443,-11.577,-8.715,-15.864,-18.803,-11.768
-5.428,-12.496,-11.052,-12.606,-11.112,-15.357,-21.291,-12.531
-4.971,-16.27,-15.848,-15.903,-15.031,-20.597,-23.161,-15.127
-3.745,-16.041,-18.99,-17.371,-16.65,-27.16,-21.489,-16.935
-0.958,-10.858,-16.686,-15.572,-13.326,-30.28,-17.252,-15.76
3.084,-5.279,-10.501,-11.15,-6.739,-27.383,-11.465,-10.399
6.232,-3.385,-5.108,-6.694,-1.609,-20.97,-8.383,-4.202
5.954,-3.831,-3.564,-6.402,-0.929,-18.713,-12.075,-4.403
1.078,-4.646,-5.282,-10.878,-3.507,-23.996,-17.236,-13.162
-7.496,-6.745,-8.964,-16.377,-7.472,-31.468,-17.864,-22.964
-15.99,-9.446,-13.574,-19.922,-11.774,-34.534,-17.506,-25.798
-19.789,-10.988,-16.477,-20.987,-14.523,-31.648,-21.053,-22.119
-17.777,-12.719,-15.067,-19.602,-13.936,-25.623,-24.782,-16.334
-12.947,-15.175,-10.357,-15.9,-10.417,-19.654,-22.866,-11.284
-9.732,-15.903,-7.196,-12.619,-7.245,-15.977,-19.662,-8.987
-9.937,-14.183,-8.332,-14.017,-7.252,-17.265,-20.912,-10.112
-10.151,-10.708,-9.799,-18.614,-8.172,-23.113,-21.343,-12.795
-7.157,-5.721,-7.675,-20.312,-6.744,-28.065,-17.82,-14.475
-3.715,-1.322,-5.47,-18.994,-5.636,-28.882,-17.725,-15.053
-2.918,0.721,-7.726,-19.273,-8.517,-26.818,-24.009,-16.141
-1.919,3.451,-11.423,-20.124,-12.283,-22.184,-28.435,-17.472
2.292,10.319,-11.231,-17.391,-11.977,-15.855,-23.955,-18.08
5.964,16.506,-9.146,-13.28,-9.569,-12.894,-15.689,-18.58
4.389,13.064,-11.102,-13.231,-10.86,-16.503,-15.32,-19.074
0.611,1.272,-16.018,-16.087,-15.42,-22.047,-23.838,-18.695
0.293,-7.729,-17.241,-16.633,-17.041,-24.018,-29.29,-17.674
1.776,-7.846,-14.989,-15.345,-14.864,-23.717,-27.503,-17.377
-0.138,-2.588,-16.164,-16.632,-14.725,-24.141,-26.969,-18.76
-4.424,3.198,-20.909,-20.769,-17.676,-25.131,-28.466,-20.729
-5.847,7.625,-21.874,-23.679,-17.995,-26.015,-24.018,-21.14
-3.394,9.047,-17.311,-22.495,-14.247,-26.314,-16.674,-19.709
-0.478,6.827,-13.727,-19.398,-12.122,-25.629,-18.494,-17.562
0.591,4.187,-14.42,-18.547,-14.01,-24.605,-28.59,-15.667
0.099,4.15,-14.666,-19.413,-14.629,-23.459,-32.648,-14.553
-1.21,5.422,-10.951,-17.848,-10.303,-21.564,-25.786,-13.327
-2.963,5.551,-6.295,-13.161,-4.297,-19.197,-17.041,-10.959
-4.115,4.717,-3.867,-8.245,-0.476,-16.472,-12.601,-8.117
-2.934,4.825,-2.797,-4.332,1.21,-12.33,-10.786,-5.127
0.437,6.227,-1.388,-1.247,2.3,-8.554,-9.458,-1.338
3.461,6.959,0.386,0.037,3.516,-9.75,-8.876,1.501
4.56,4.491,1.357,-1.314,4.261,-16.151,-9.365,-0.525
4.238,-1.491,0.475,-4.676,3.16,-22.498,-9.346,-6.585
3.143,-6.049,-1.423,-8.059,0.438,-24.041,-6.924,-9.654
0.72,-4.384,-3.065,-9.622,-2.479,-20,-4.704,-6.55
-3.927,-0.852,-5.73,-10.551,-6.163,-13.968,-8.045,-2.266
-9.029,-1.545,-10.157,-13.495,-11,-11.393,-14.748,-1.942
-10.574,-2.504,-13.033,-17.383,-13.66,-13.201,-16.75,-5.709
-7.624,1.612,-11.422,-18.476,-11.41,-14.639,-14.34,-10.257
-3.89,6.493,-7.333,-16.393,-6.741,-12.355,-15.006,-11.893
-2.883,6.553,-4.843,-14.202,-3.743,-7.558,-19.994,-10.458
-4.381,4.088,-4.963,-13.1,-2.864,-2.845,-23.508,-9.025
-6.585,3.071,-5.322,-11.184,-1.86,-0.485,-22.033,-8.946
-8.951,1.956,-4.566,-8.003,-0.408,-1.979,-18.975,-9.483
-10.633,-1.018,-4.127,-6.489,-0.505,-6.618,-19.731,-11.085
-9.451,-1.561,-4.945,-8.79,-2.497,-12.058,-23.878,-14.15
-5.628,3.713,-5.808,-13.142,-4.376,-16.208,-26.062,-16.153
-3.072,9.741,-5.617,-16.42,-4.802,-17.985,-23.989,-15.258
-4.026,9.485,-4.675,-18.324,-4.077,-18.793,-21.222,-14.775
-5.806,3.291,-3.473,-20.353,-2.873,-21.213,-20.643,-17.957
-5.245,-1.916,-2.64,-21.954,-2.271,-24.112,-20.69,-22.614
-3.062,-1.3,-3,-21.747,-3.371,-23.784,-19.839,-25.466
-2.21,1.514,-3.928,-19.941,-5.297,-19.546,-18.715,-25.989
-4.487,-0.766,-4.406,-16.562,-6.261,-13.354,-17.995,-24.058
-8.756,-7.519,-5.204,-11.492,-6.257,-7.055,-16.988,-19.433
-11.506,-9.195,-7.019,-6.415,-6.315,-2.457,-14.893,-14.183
-10.939,-1.532,-8.93,-2.932,-7.027,-0.155,-13.359,-11.436
-9.78,7.231,-10.569,-1.404,-8.74,0.831,-13.974,-12.249
-11.247,8.182,-12.703,-2.588,-11.083,0.866,-14.877,-15.017
-14.211,2.939,-14.567,-6.194,-12.512,0.026,-14.609,-16.512
-15.438,-0.79,-13.899,-9.66,-11.773,-1.335,-14.57,-14.758
-14.227,0.551,-10.577,-11.333,-9.259,-4.034,-15.779,-11.229
-12.325,4.63,-7.421,-11.662,-6.666,-8.297,-17.369,-9.337
-11.3,7.829,-6.849,-11.505,-5.862,-11.93,-16.397,-10.589
-11.049,7.33,-8.388,-12,-7.352,-13.775,-11.276,-11.459
-10.241,2.595,-9.776,-13.506,-9.631,-15.125,-7.239,-8.739
-9.52,-3.29,-9.759,-14.601,-10.79,-16.388,-9.461,-8.035
-11.416,-7.282,-8.755,-14.508,-9.985,-16.856,-12.627,-15.462
-14.412,-8.969,-7.094,-13.734,-7.648,-16.651,-10.149,-23.096
-13.713,-7.443,-5.204,-11.901,-5.936,-15.102,-7.735,-19.982
-9.357,-2.075,-4.75,-8.712,-6.984,-10.714,-12.819,-11.928
-6.576,2.544,-6.616,-6.594,-9.919,-5.633,-21.142,-10.69
-7.927,0.891,-9.093,-8.005,-12.215,-4.168,-25.801,-13.823
-9.793,-3.249,-9.902,-10.465,-12.707,-5.218,-26.725,-13.271
-8.503,-0.904,-9.371,-9.997,-12.126,-4.113,-26.202,-11.351
-5.437,7.204,-9.263,-7.316,-11.625,-0.664,-23.917,-12.608
-2.721,12.428,-9.013,-4.979,-10.921,1.836,-19.57,-12.939
-0.373,13.185,-7.635,-3.293,-9.57,1.459,-16.492,-9.384
0.344,13.921,-6.937,-2.15,-8.771,-1.877,-17.354,-7.431
-2.709,13.563,-8.387,-2.011,-9.398,-6.512,-19.499,-11.119
-8.539,8.393,-10.181,-1.833,-10.278,-9.015,-19.041,-15.749
-13.683,0.398,-10.369,0.087,-10.244,-7.141,-16.943,-14.701
-16.204,-5.417,-9.637,2.357,-9.893,-3.156,-17.481,-8.808
-16.398,-6.901,-8.816,1.522,-9.769,-1.818,-20.586,-4.577
-15.964,-5.835,-8.075,-3.082,-9.792,-4.843,-21.421,-5.715
-17.255,-4.976,-9.291,-9.018,-11.326,-9.218,-19.363,-10.438
-20.545,-5.955,-13.706,-14.238,-15.864,-11.341,-20.046,-15.536
-23.491,-9.661,-18.658,-17.679,-21.465,-10.807,-25.268,-19.3
-24.306,-14.079,-20.84,-18.487,-24.407,-9.695,-29.46,-21.257
-23.778,-15.119,-20.389,-18.226,-24.425,-11.024,-29.729,-22.419
-23.598,-12.851,-19.121,-20.124,-23.842,-16.762,-28.696,-23.731
-24.006,-12.397,-18.201,-24.023,-23.462,-24.455,-27.894,-24.919
-23.944,-16.813,-18.165,-26.079,-22.927,-27.659,-27.025,-26.047
-21.793,-21.018,-17.469,-23.626,-21.185,-22.814,-25.508,-26.163
-17.571,-18.56,-14.583,-18.719,-17.354,-15.18,-23.551,-24.718
-14.495,-12.138,-12.138,-15.47,-13.509,-12.56,-23.311,-24.029
-14.506,-8.122,-13.058,-14.524,-12.544,-14.616,-25.029,-23.721
-15.416,-6.412,-15.6,-13.539,-13.823,-15.245,-24.957,-19.487
-15.122,-3.838,-16.294,-10.89,-14.334,-11.355,-19.984,-10.5
-15.278,-2.527,-15.367,-7.674,-13.679,-5.56,-12.765,-3.541
-18.735,-7.091,-16.126,-7.164,-14.425,-3.104,-11.03,-6.188
-23.762,-13.997,-18.202,-8.985,-16.019,-4.809,-16.758,-14.661
-25.078,-14.539,-17.396,-8.13,-14.971,-6.76,-21.515,-17.977
-21.859,-8.843,-14.372,-4.822,-12.421,-9.593,-21.062,-14.918
-18.697,-4.667,-14.155,-5.338,-12.266,-16.813,-20.723,-13.302
-17.792,-4.695,-15.799,-9.923,-12.64,-24.461,-20.993,-14.342
-16.636,-5.069,-13.771,-12.267,-9.191,-26.023,-16.272,-12.48
-14.05,-3.769,-8.842,-10.965,-4.106,-22.583,-8.796,-8.216
-12.154,-3.594,-6.659,-10.722,-2.822,-19.496,-6.818,-7.259
-12.731,-6.935,-8.202,-13.487,-5.339,-19.073,-9.664,-10.003
-16.063,-12.12,-10.044,-16.044,-7.521,-19.24,-9.658,-11.666
-20.809,-16.06,-10.582,-16.412,-7.744,-17.652,-6.961,-10.516
-23.425,-17.239,-10.474,-16.831,-7.434,-15.634,-8.312,-10.311
-21.398,-15.882,-9.555,-18.147,-6.969,-14.389,-13.752,-13.228
-16.585,-13.298,-7.279,-16.574,-5.112,-11.119,-16.077,-15.042
-12.786,-10.422,-4.88,-10.235,-2.214,-5.259,-12.067,-11.727
-12.514,-8.075,-5.118,-4.583,-1.175,-2.216,-6.523,-5.64
-16.198,-8.984,-9.001,-4.781,-3.717,-3.582,-4.198,-1.239
-20.752,-14.278,-13.271,-6.613,-7.05,-2.201,-3.886,0.542
-21.822,-19.469,-14.587,-4.091,-8.113,5.009,-3.158,0.73
-19.31,-20.36,-14.095,0.196,-8.304,10.673,-1.838,-0.571
-16.498,-18.847,-13.802,0.978,-9.212,9.966,0.11,-2.529
-15.479,-17.899,-12.94,-1.692,-9.11,6.912,0.802,-3.983
-15.557,-15.489,-10.426,-4.336,-6.618,5.613,-2.226,-5.357
-13.755,-8.288,-6.692,-3.456,-2.395,7.124,-5.576,-5.954
-8.436,1.238,-2.214,1.876,2.838,12.453,-4.454,-4.022
-2.404,7.364,2.158,7.382,7.826,19.189,-1.13,-0.697
0.904,9.181,3.996,7.287,9.865,20.344,-0.731,0.633
1.888,9.74,2.817,2.25,8.223,14.163,-3.611,-1.393
2.864,9.969,2.105,-1.544,5.94,8.063,-6.867,-4.158
4.618,8.428,3.751,-1.173,5.193,7.294,-8.959,-4.447
5.778,3.618,5.227,1.075,4.823,8.663,-9.593,-2.528
4.687,-3.572,4.151,2.445,3.526,7.893,-9.092,-1.137
2.642,-8.227,1.6,1.657,1.934,4.249,-8.985,-1.661
3.32,-6.509,0.407,-0.653,1.753,-0.869,-9.065,-2.417
7.577,-0.371,1.54,-1.712,3.574,-4.213,-7.232,-1.346
12.104,6.158,3.219,0.374,5.837,-3.216,-4.631,0.391
13.495,10.6,3.71,3.411,6.865,-0.244,-3.902,-0.419
10.745,11.071,2.842,3.182,6.313,0.028,-3.917,-4.194
5.11,7.612,0.975,-0.718,4.242,-2.211,-3.44,-7.17
-0.019,4.386,-0.795,-3.573,1.62,-1.947,-4.394,-6.019
-1.568,3.055,-0.95,-1.866,0.467,3.076,-6.739,-1.724
-1.025,-1.155,-0.165,1.888,0.719,8.671,-7.15,2.044
-2.336,-8.07,-0.001,3.909,0.424,10.341,-4.491,3.155
-5.576,-10.865,-0.36,4.146,-0.904,9.221,-2.553,1.324
-7.366,-9.619,-1.609,2.812,-2.811,7.463,-4.982,-3.822
-5.877,-8.669,-4.147,-0.191,-4.578,4.951,-7.744,-9.554
-2.557,-5.884,-5.99,-2.261,-4.831,3.203,-4.272,-10.847
-0.225,0.057,-5.675,-2.543,-3.503,3.235,2.975,-7.969
-0.104,2.933,-4.247,-3.231,-1.806,3.586,6.508,-4.458
-0.476,0.261,-2.208,-3.334,0.284,5.358,5.1,-1.124
0.551,-1.866,0.889,-0.807,3.142,10.151,3.397,1.376
1.283,-1.581,3.353,1.896,5.054,15.169,4.583,1.757
-0.82,-4.433,2.589,2.368,3.99,17.864,6.657,1.317
-4.304,-11.326,-1.015,2.067,0.503,18.755,5.541,1.839
-5.999,-15.816,-4.689,2.16,-3.305,17.811,1.69,2.882
-4.641,-14.001,-6.267,2.217,-5.835,15.005,-0.602,4.238
-1.46,-9.107,-6.427,2.207,-7.181,11.353,-0.789,5.384
0.217,-5.328,-7.856,2.49,-8.531,7.456,-1.368,3.443
-1.443,-3.974,-9.773,4.17,-8.773,5.505,-1.227,-0.116
-5.236,-5.968,-8.419,7.316,-5.764,6.716,2.018,0.329
-9.844,-9.396,-4.761,8.653,-1.565,6.13,6.834,3.21
-13.694,-8.874,-3.262,6.289,0.08,0.658,10.25,4.132
-14.463,-5.61,-3.845,3.603,-0.146,-3.755,11.125,5.316
-12.376,-7.42,-2.768,3.705,1.154,-2.774,9.866,7.404
-10.415,-14.036,0.953,5.265,4.861,-0.49,8.681,6.253
-9.917,-17.064,4.588,6.319,8.488,-0.226,9.541,2.163
-9.418,-15.001,5.455,6.697,9.228,0.148,10.32,-1.127
-8.314,-13.545,3.47,6.228,6.776,2.563,7.421,-2.72
-8.06,-13.496,0.038,4.994,2.901,6.684,1.337,-2.492
-8.788,-10.763,-3.279,5.035,-0.234,12.835,-3.164,0.802
-9.24,-5.878,-5.186,7.774,-1.511,20.171,-1.814,6.022
-10.24,-4.033,-6.059,10.835,-2.048,24.378,3.532,9.489
-12.6,-6.069,-6.938,11.385,-2.961,23.397,6.663,9.73
-13.166,-6.301,-6.792,9.782,-2.914,20.093,6.329,8.454
-8.815,-2.413,-4.363,7.082,-0.875,16.491,7.902,7.308
-2.518,-1.055,-1.459,3.238,1.279,12.486,13.05,6.032
-0.05,-6.653,-1.345,-0.296,1.185,9.944,14.805,3.036
-1.978,-13.166,-4.952,-0.82,-1.249,10.559,9.147,-1.106
-4.139,-13.669,-9.695,1.241,-4.023,10.906,3.968,-2.817
-4.758,-8.703,-11.824,3.07,-4.857,7.75,4.98,-1.707
-5.45,-2.68,-10.319,4.529,-3.49,4.747,4.663,-0.853
-6.501,1.339,-7.248,7.814,-1.485,6.779,-0.633,0.562
-6.421,2.647,-4.364,13.03,0.395,13.34,-1.411,5.864
-5.856,0.74,-2.236,16.882,1.876,20.108,5.998,12.56
-7.285,-4.446,-1.643,16.105,1.835,22.84,12.294,13.727
-10.198,-9.052,-2.379,11.933,0.576,20.835,11.786,9.213
-10.959,-7.664,-1.884,9.313,0.975,17.516,9.461,6.919
-7.664,-0.711,2.025,10.908,5.107,16.083,11.173,9.758
-2.082,5.652,7.935,14.484,11.496,16.383,16.953,12.711
2.705,7.043,12.548,16.503,16.746,16.943,23.01,13.837
5.269,3.901,14.124,15.201,18.497,16.612,25.139,14.649
6.329,-0.842,13.464,11.435,17.215,14.297,23.29,13.576
6.416,-4.418,11.96,7.889,15.058,9.446,21.441,9.342
4.16,-7.368,7.75,4.763,11.183,2.033,19.247,4.327
-1.16,-12.469,-1.056,-0.019,3.52,-6.232,13.856,1.157
-5.6,-17.584,-8.722,-3.789,-3.347,-10.37,9.292,0.601
-3.306,-16.117,-7.839,-1.448,-2.652,-7.312,10.465,2.587
5.112,-8.066,-0.718,4.835,3.369,-1.204,14.479,6.233
11.539,-2.122,4.352,8.081,6.903,1.968,16.342,8.556
9.98,-4.031,3.391,5.98,4.876,1.412,15.307,6.739
3.828,-9.677,-0.639,2.446,0.719,0.628,13.863,3.149
0.536,-12.19,-2.123,2.548,-0.337,3.05,14.557,3.291
1.7,-10.925,0.477,6.562,2.866,8.109,17.223,7.599
3.869,-8.797,3.993,9.693,6.886,11.264,20.451,11.446
6.094,-6.088,7.118,9.414,10.004,10.729,24.615,13.308
9.729,-2.783,11.528,8.995,13.898,10.97,29.019,15.305
13.794,-1.268,16.686,11.449,18.567,15.449,30.639,17.333
15.77,-2.387,19.775,15.066,21.706,21.255,29.986,18.338
14.866,-3.17,19.213,16.707,21.688,24.472,29.955,19.182
13.53,0.274,15.796,16.515,18.807,26.091,28.585,19.818
14.651,8.567,12.168,17.043,15.662,28.416,23.08,19.148
15.372,15.608,9.96,18.158,14.314,28.934,17.804,17.596
10.384,12.502,8.393,17.584,13.927,24.799,18.261,16.215
2.63,-0.5,7.099,16.287,13.87,19.714,21.148,15.521
0.023,-11.631,6.948,17.367,15.042,18.326,21.231,15.548
2.462,-12.49,7.637,20.654,16.903,19.102,21.607,15.888
3.314,-8.221,7.768,23.724,17.701,19.511,25.676,16.731
1.071,-6.878,7.498,26.312,17.733,21.079,29.429,18.892
-0.757,-7.397,7.963,29.141,18.354,24.046,30.011,22.321
-1.239,-5.139,8.339,31.187,18.698,24.703,30.159,25.089
-1.797,-1.72,7.184,30.984,17.223,21.536,31.121,24.399
-2.319,-1.952,5.975,28.775,15.15,18.734,31.116,21.75
-1.52,-4.975,7.703,27.001,15.165,20.859,30.496,22.326
-0.304,-6.204,11.611,27.221,16.714,25.869,31.405,24.94
-1.909,-5.258,13.29,27.484,16.108,28.318,33.362,23.852
-6.249,-4.166,11.607,26.043,12.631,28.103,33.844,20.526
-8.267,-2.163,9.903,23.14,9.524,28.143,32.416,19.902
-4.64,1.765,10.11,18.722,8.795,28.151,30.995,20.591
1.859,5.237,11.473,14.448,9.886,28.201,30.518,19.906
6.335,6.118,13.152,13.897,11.957,30.789,30.334,20.131
6.966,6.421,14.908,16.731,14.629,34.532,30.789,22.926
4.014,6.938,15.777,18.143,16.501,33.174,32.063,25.444
-2.008,4.486,13.975,16.063,15.45,25.23,31.456,24.827
-8.086,-1.029,10.43,13.536,12.791,17.181,28.173,22.405
-10.375,-6.217,8.612,12.592,12.454,12.863,26.655,21.348
-9.304,-10.305,8.827,11.574,14.218,9.745,28.655,21.435
-7.006,-12.656,8.987,9.726,14.84,7.075,29.672,20.585
-2.273,-8.96,10.195,9.262,15.004,7.365,26.922,19.123
4.936,1.197,13.809,11.546,17.048,10.865,22.749,17.807
9.04,8.798,16.846,14.912,19.385,15.28,20.743,16.414
6.264,6.973,16.932,18.017,20.178,19.664,22.354,16.102
0.151,1.18,15.674,20.945,20.586,23.625,24.99,17.44
-4.97,-0.477,14.102,21.919,20.592,24.594,25.2,17.748
-8.763,1.462,12.027,19.406,18.887,21.778,23.763,15.785
-11.512,2.078,11.211,16.385,16.976,18.907,23.394,14.403
-12.553,-0.757,12.657,16.373,16.78,18.879,24.037,15.188
-12.671,-6.62,13.033,17.988,16.207,20.471,24.05,16.486
-13.166,-12.734,9.366,17.685,12.467,21.623,23.21,16.847
-13.067,-14.528,4.684,15.216,7.522,22.146,22.482,16.393
-11.106,-11.274,3.27,12.585,5.278,21.662,22.25,16.311
-8.562,-7.101,3.434,9.473,4.949,18.029,21.199,16.135
-7.216,-4.153,1.135,4.42,2.525,11.468,17.638,12.675
-6.529,-0.26,-2.485,-0.21,-1.89,7.356,13.201,7.121
-5.388,4.778,-3.37,-0.383,-4.236,9.673,11.779,6.424
-4.587,5.992,-1.617,2.433,-3.781,14.671,13.173,11.334
-4.604,1.038,-0.596,2.978,-3.657,16.341,13.304,13.791
-3.797,-4.116,-1.092,0.623,-4.561,14.112,11.203,10.139
-1.6,-3.01,-0.868,-0.775,-4.199,11.039,9.745,5.55
0.535,3.696,1.277,-0.01,-2.022,8.97,9.824,3.717
2.495,10.618,4.491,1.222,0.598,8.567,9.236,2.829
4.697,11.958,7.404,2.339,2.949,9.629,6.598,1.583
5.45,6.636,8.695,3.322,4.782,10.268,3.968,1.724
4.153,1.771,8.409,4.248,6.082,9.857,4.708,4.836
3.081,3.815,7.961,5.381,6.787,9.535,6.676,7.772
2.978,8.336,7.099,5.199,5.544,8.26,4,5.313
2.002,8.126,4.461,2.819,1.663,5.691,-2.652,-0.048
-0.236,5.487,1.408,0.728,-2.41,5.203,-7.337,-1.103
-1.365,6.703,0.752,0.522,-3.642,6.867,-6.976,1.792
0.9,11.238,2.541,0.267,-2.017,5.587,-3.365,3.139
5.268,13.268,4.289,-1.822,-0.027,-0.032,-1.071,1.991
7.398,10.649,3.897,-4.955,-0.161,-6.055,-2.059,0.645
5.089,7.341,1.294,-8.124,-3.124,-10.797,-4.456,-1.74
1.156,5.665,-1.277,-11.524,-6.707,-15.345,-7.034,-6.236
0.144,3.873,-1.576,-14.277,-7.768,-18.021,-8.574,-7.708
2.867,3.098,-1.122,-14.826,-7.225,-16.377,-7.192,-2.5
6.017,7.092,-3.127,-14.034,-8.772,-12.544,-4.704,2.545
7.358,13.479,-6.515,-13.325,-11.593,-9.605,-4.683,0.603
7.399,13.45,-7.435,-11.121,-11.335,-5.8,-6.079,-4.003
6.035,4.984,-5.196,-5.729,-7.68,0.782,-5.325,-4.489
2.376,-2.403,-1.832,0.8,-3.982,7.118,-2.631,-2.506
-1.864,-2.714,1.975,5.988,-0.903,11.461,-0.063,-1.931
-2.983,-0.711,7.44,10.437,3.976,16.216,3.236,-0.353
-0.297,-0.816,14.419,14.218,10.598,20.479,7.758,4.758
2.84,-1.849,19.634,15.274,15.365,20.677,10.931,9.971
4.156,-1.828,20.407,14.009,16.263,18.567,11.096,11.627
5.17,-0.29,17.798,12.794,14.545,18.14,9.662,10.736
7.316,2.509,14.311,11.112,11.789,18.302,9.335,10.29
9.373,6.523,11.762,7.696,8.959,16.047,10.416,10.686
10.245,10.298,10.433,4.499,6.249,12.547,9.89,8.966
10.591,10.505,9.035,3.379,3.041,10.767,7.296,4.873
11.811,7.733,8.281,3.411,0.71,10.49,6.896,4.271
14.155,5.912,9.575,2.408,0.747,8.558,9.725,8.472
14.697,3.762,8.952,-2.64,-0.655,1.288,10.142,7.743
11.474,-1.119,3.154,-11.253,-6.222,-10.236,5.882,-2.134
8.552,-4.09,-2.217,-16.592,-10.187,-17.883,2.899,-9.596
9.748,-2.011,-1.847,-15.224,-8.079,-17.427,4.317,-6.659
12.323,0.786,0.891,-12.344,-4.457,-14.865,5.873,-1.265
13.042,2.287,1.727,-11.779,-3.781,-15.218,5.265,-1.014
12.866,5.103,1.137,-11.602,-4.588,-16.379,4.036,-3.204
12.967,8.842,0.232,-10.061,-4.876,-15.826,2.56,-4.143
13.154,11.436,-0.827,-7.505,-4.814,-13.766,1.343,-4.193
13.312,13.209,-1.976,-5.008,-5.328,-10.866,1.234,-4.525
12.626,13.849,-3.625,-3.709,-6.937,-7.674,1.321,-4.456
10.712,12.367,-4.594,-3.488,-7.79,-5.121,1.407,-1.839
9.759,11.025,-2.237,-3.224,-5.163,-3.761,3.173,2.979
11.964,12.329,3.247,-2.479,0.111,-3.109,7.281,6.135
16.495,14.107,8.815,-1.796,4.603,-2.775,10.491,5.854
20.345,13.146,11.855,-1.886,6.206,-2.923,8.27,4.584
20.816,10.498,11.459,-2.502,5.052,-2.943,2.776,4.2
18.621,10.239,9.447,-2.282,3.348,-2.098,0.705,4.012
17.63,15.136,8.991,-0.887,3.527,-1.656,2.459,3.982
19.467,22.261,10.467,0.061,4.978,-2.631,3.737,5.369
21.967,23.735,11.706,-0.474,5.135,-3.085,3.502,7.324
23.421,16.934,11.515,-1.798,3.105,-2.149,2.445,6.96
23.971,9.743,9.753,-3.45,-0.132,-2.61,-0.105,3.048
24.16,9.663,7.17,-5.452,-2.641,-6.019,-3.553,-2.013
25.038,15.062,6.705,-5.947,-1.915,-8.845,-4.687,-3.34
27.663,21.151,10.327,-1.539,2.569,-5.588,-1.41,0.832
30.352,24.994,14.964,6.838,7.399,3.416,3.443,5.52
28.685,24.003,15.906,11.684,8.372,9.687,4.556,5.24
21.906,19.28,12.933,8.751,5.364,7.371,1.217,1.346
15.589,17.215,9.569,4.629,2.163,2.182,-2.042,-0.865
13.643,19.889,7.548,7.061,1.278,2.72,-2.276,0.637
13.299,21.364,5.147,12.972,0.821,7.702,-0.788,3.719
11.351,18.383,1.457,14.465,-1.774,10.076,0.148,6.281
9.224,13.822,-0.928,11.032,-4.984,8.361,-0.696,7.024
9.113,9.34,-0.182,6.911,-5.903,5.014,-4.434,2.413
9.519,5.605,1.253,3.49,-5.062,1.142,-10.26,-7.86
7.683,4.348,0.834,0.466,-4.526,-2.667,-13.122,-14.764
4.629,3.697,-0.069,-2.691,-4.501,-6.881,-10.826,-12.597
3.788,0.438,0.341,-7.079,-4.821,-11.991,-8.418,-8.422
5.21,-2.724,0.373,-12.596,-6.677,-16.645,-9.315,-8.805
6.4,-0.246,-1.706,-17.853,-10.211,-20.17,-11.183,-11.208
7.191,7.126,-4.034,-21.991,-12.999,-23.016,-11.498,-12.11
8.022,10.373,-4.73,-25.332,-13.83,-25.373,-10.623,-12.156
7.547,3.253,-4.468,-27.221,-14.043,-26.243,-9.908,-12.032
5.769,-7.303,-3.99,-25.219,-13.766,-23.328,-8.689,-10.286
4.32,-11.057,-4.143,-19.949,-12.814,-17.809,-6.398,-7.563
3.662,-8.254,-6.413,-16.34,-13.422,-14.96,-6.13,-7.457
4.21,-3.982,-9.445,-16.416,-15.933,-15.601,-9.52,-10.526
6.674,0.692,-9.285,-16.849,-16.44,-14.987,-11.879,-12.529
8.795,4.818,-5.778,-15.848,-13.369,-12.009,-9.59,-10.614
8.064,6.152,-2.25,-14.935,-9.23,-9.522,-5.25,-6.314
7.609,6.221,1.946,-12.932,-3.883,-6.457,-0.517,-1.014
11.54,7.513,9.297,-6.701,4.46,0.398,5.217,4.876
17.17,9.083,16.268,1.907,12.378,8.733,8.877,7.31
18.616,9.638,17.333,7.164,14.503,12.88,8.357,3.04
15.349,8.709,13.805,6.951,11.526,11.85,6.654,-2.665
12.156,6.025,10.883,2.982,8.102,7.878,3.863,-4.223
12.113,4.736,9.663,-2.701,5.966,1.397,-2.438,-4.496
14.174,8.555,8.334,-6.843,4.295,-5.157,-8.478,-6.449
16.873,13.951,7.28,-7.708,2.983,-7.303,-9.62,-7.414
20.485,14.499,7.984,-8.861,2.243,-6.925,-9.287,-5.895
25.176,11.399,10.086,-12.717,1.965,-9.423,-12.151,-5.079
28.706,10.977,11.424,-15.179,2.167,-12.625,-15.535,-7.303
28.151,14.44,9.793,-13.03,2.441,-11.233,-15.12,-9.784
23.802,16.689,6.216,-9.511,2.166,-7.846,-12.59,-9.488
18.93,14.097,4.546,-8.374,1.629,-8.095,-11.728,-7.761
15.8,9.275,5.752,-9.035,1.5,-11.766,-11.84,-6.575
13.461,6.866,6.55,-9.688,1.1,-15.641,-10.494,-6.36
9.779,6.65,4.166,-10.523,-1.492,-18.64,-9.757,-7.637
4.873,4.196,-0.625,-12.272,-6.249,-21.186,-12.402,-9.947
1.584,-0.957,-4.743,-13.534,-9.853,-22.65,-15.139,-11.56
2.603,-1.96,-5.358,-11.566,-9.327,-21.253,-13.668,-11.538
7.604,5.734,-1.741,-5.974,-4.936,-16.495,-8.97,-9.818
12.838,14.849,3.436,-0.791,0.06,-11.715,-5.074,-7.078
13.926,14.8,6.005,-1.007,1.762,-12.136,-5.312,-5.506
10.776,7.219,5.391,-5.053,0.265,-16.094,-7.989,-5.936
7.78,2.168,4.429,-6.384,-0.873,-15.398,-7.758,-6.432
7.509,2.882,4.478,-4.725,-0.737,-9.715,-5.141,-6.49
8.4,5.34,4.67,-5.615,-1.176,-7.529,-5.338,-7.286
8.971,7.132,4.335,-9.295,-2.303,-11.409,-7.575,-7.877
9.969,9.083,4.034,-11.049,-2.351,-15.414,-7.097,-6.934
11.814,11.137,4.005,-10.631,-1.34,-15.906,-4.781,-6.293
13.386,11.162,3.098,-11.65,-1.561,-15.745,-5.325,-8.002
14.394,8.917,1.139,-13.504,-3.264,-17.487,-8.317,-9.9
15.768,7.443,-0.126,-12.255,-3.592,-18.908,-8.6,-8.321
17.576,8.91,0.344,-8.084,-1.338,-18.133,-5.448,-4.848
18.057,10.625,1.355,-5.782,0.821,-17.692,-4.513,-5.124
15.646,7.814,1.783,-7.264,1.133,-18.893,-8.076,-9.189
13.239,3.032,3.67,-7.602,2.828,-17.464,-10.085,-10.612
15.782,5.099,9.228,-2.288,8.939,-10.373,-5.947,-7.204
21.797,13.964,15.322,5.283,15.853,-2.085,-0.344,-3.781
24.824,19.403,16.79,9.666,17.841,1.629,1.273,-3.476
23.574,17.24,14.13,11.96,15.455,1.85,1.023,-3.673
22.049,13.276,11.959,15.071,13.561,2.007,1.807,-1.425
20.855,12.512,11.638,16.07,13.562,0.454,1.239,1.487
17.846,14.661,11.736,12.244,13.978,-3.454,-0.765,2.425
14.39,16.954,12.87,8.298,15.091,-4.483,1.33,3.495
12.399,16.552,15.137,8.486,16.597,-1.284,7.501,6.881
10.136,12.546,15.221,8.84,15.67,-0.083,10.583,9.155
5.977,6.244,11.362,4.694,11.419,-4.355,9.361,7.413
1.123,-0.444,5.502,-1.574,5.791,-10.849,7.654,4.453
-2.901,-6.252,-0.754,-6.317,-0.227,-17.289,3.671,1.875
-5.862,-10.94,-6.401,-10.209,-5.983,-24.74,-3.688,-2.454
-7.866,-14.312,-9.583,-13.845,-9.267,-30.865,-7.381,-7.129
-9.172,-16.175,-9.92,-15.567,-9.234,-31.257,-4.291,-8.437
-10.86,-17.343,-9.391,-15.432,-8.145,-28.422,-2.228,-7.907
-13.298,-17.774,-9.675,-15.199,-7.951,-28.465,-5.839,-8.622
-14.82,-16.389,-10.106,-14.424,-7.535,-29.686,-8.618,-7.669
-14.562,-15.233,-9.536,-11.841,-5.88,-26.033,-5.563,-2.821
-13.832,-16.662,-8.989,-9.151,-5.154,-19.069,-1.57,-0.436
-12.75,-16.292,-8.905,-7.984,-5.904,-14.497,-1.294,-4.3
-10.941,-11.558,-7.432,-7.359,-4.7,-12.735,-1.892,-7.862
-11.111,-11.886,-4.824,-7.066,-1.097,-11.27,-0.486,-6.147
-15.096,-22.553,-3.774,-7.009,0.814,-8.846,0.795,-1.531
-19.033,-31.882,-4.761,-5.541,-0.619,-5.714,-0.16,1.674
-18.037,-30.345,-5.741,-3.196,-2.594,-3.359,-1.832,0.713
-13.137,-23.27,-5.732,-2.766,-2.986,-2.102,-3.423,-2.923
-9.271,-17.434,-5.677,-4.456,-2.907,-0.67,-6.954,-5.42
-7.81,-13,-5.872,-5.465,-3.117,0.955,-10.574,-5.952
-7.106,-10.495,-6.129,-5.007,-3,0.623,-11.299,-6.685
-8.606,-13.457,-7.531,-5.342,-3.235,-3.059,-12.619,-8.58
-13.51,-21.012,-9.402,-6.119,-3.624,-7.326,-15.05,-9.41
-17.091,-26.331,-8.36,-4.467,-1.48,-8.771,-12.894,-7.803
-15.72,-26.754,-4.478,-1.778,3.122,-9.237,-7.092,-6.402
-13.668,-26.588,-2.818,-2.311,5.347,-11.693,-4.865,-7.705
-15.333,-27.897,-6.136,-5.616,1.99,-14.04,-8.308,-10.177
-18.055,-27.689,-11.544,-7.693,-4.119,-13.355,-13.08,-11.901
-17.895,-23.604,-16.01,-7.863,-8.811,-11.172,-16.148,-14.452
-15.83,-16.41,-19.276,-8.02,-11.234,-10.061,-17.986,-17.743
-15.189,-9.333,-20.251,-7.01,-10.976,-8.93,-17.196,-16.309
-16.669,-5.674,-17.381,-1.956,-7.07,-5.017,-12.122,-8.159
-17.812,-4.674,-13.181,5.172,-2.305,0.592,-6.765,-0.515
-17.713,-3.677,-12.131,8.121,-1.39,2.92,-6.246,-0.303
-19.073,-3.471,-14.627,4.705,-4.48,0.1,-10.294,-6.65
-21.899,-5.295,-17.134,-0.67,-7.75,-3.781,-14.993,-14.324
-21.671,-7.526,-16.775,-3.842,-8.346,-4.905,-15.753,-17.114
-18.452,-9.385,-14.437,-5.762,-6.951,-4.156,-11.232,-12.809
-17.389,-10.812,-13.336,-8.543,-6.457,-3.164,-6.39,-7.251
-17.681,-8.905,-13.477,-10.267,-6.838,-0.855,-5.979,-5.622
-14.167,-2.629,-11.632,-8.237,-4.842,3.444,-8.323,-5.664
-8.816,1.923,-8.17,-4.526,-0.558,7.598,-8.923,-4.659
-7.845,-0.003,-6.995,-3.336,2.028,8.884,-5.848,-3.717
-10.326,-2.765,-8.291,-4.883,1.804,6.954,-1.259,-3.358
-10.295,0.651,-8.675,-5.836,1.431,4.16,0.682,-2.177
-7.131,6.254,-8.154,-4.543,1.645,2.401,-1.211,-0.488
-4.193,6.424,-8.65,-1.651,1.759,1.723,-2.237,0.361
-1.283,3.58,-7.809,2.418,3.838,2.129,1.709,1.005
2.698,5.129,-2.687,6.967,9.362,3.727,7.018,2.099
5.469,11.232,4.806,11.03,15.859,6.299,8.851,2.692
5.233,15.859,11.051,14.152,20.664,8.842,8.834,2.381
3.419,14.647,15.009,16.071,24.022,9.76,10.472,2.944
1.456,9.224,17.179,17.238,27.158,9.101,13.341,6.431
-1.433,5.141,16.821,18.2,29.334,8.308,14.716,11.33
-5.185,4.858,13.798,19.277,29.307,9.396,14.751,14.882
-7.12,6.456,11.18,21.773,28.591,14.595,17.177,18.459
-5.968,9.424,11.435,25.77,29.104,21.97,22.03,22.93
-3.709,14.442,13.092,28.302,29.412,25.503,23.559,23.741
-2.23,18.302,14.204,27.529,27.574,23.783,19.629,19.165
-2.075,17.052,14.909,25.523,24.593,22.561,14.871,15.608
-4.009,11.702,14.361,23.951,21.035,25.509,12.343,17.554
-8.234,5.584,9.888,20.808,14.904,28.264,10.001,19.233
-12.44,0.78,2.194,14.991,6.883,26.246,6.215,14.338
-13.822,-1.175,-3.47,9.521,1.823,22.081,2.955,7.657
-12.069,0.532,-3.859,6.986,2.149,19.675,2.074,6.183
-8.191,5.21,-0.747,6.875,5.193,18.687,1.996,7.66
-2.985,11.821,3.231,7.999,7.94,18.275,1.263,8.112
1.455,18.826,6.516,9.448,9.459,18.668,1.765,8.769
1.986,22.986,7.339,11.061,9.399,19.155,4.781,10.918
-1.015,21.966,6.25,13.555,8.873,18.296,8.916,13.72
-3.369,17.167,6.596,15.718,10.059,14.71,12.384,15.521
-3.809,12.867,8.792,15.604,12.397,9.595,13.678,14.919
-5.273,11.803,9.778,14.767,13.302,7.261,12.742,14.138
-8.161,11.35,8.719,15.658,12.488,9.133,11.757,16.669
-8.143,9.382,8.673,18.796,13.006,13.106,14.033,21.228
-3.079,9.829,12.022,23.747,16.999,18.465,20.579,24.137
2.34,14.712,15.204,26.435,20.053,22.367,25.275,23.829
3.66,19.157,13.052,22.167,16.51,19.688,22.103,21.258
3.648,19.43,7.995,15.018,10.174,13.184,16.219,19.679
5.871,18.158,5.069,12.281,7.56,10.497,14.194,21.076
8.497,19.823,3.292,13.087,6.879,11.803,13.128,22.84
9.618,25.005,1.686,13.5,5.496,12.641,10.626,21.679
10.369,30.72,3.11,14.431,6.244,13.058,10.362,18.377
10.751,34.14,6.939,17.443,9.579,15.509,13.579,16.368
8.716,33.018,7.977,19.515,10.656,17.972,17.105,16.377
4.371,27.182,4.643,17.511,7.425,16.693,18.438,15.999
2.083,22.061,1.783,14.666,4.463,14.29,17.211,15.253
5.247,23.403,3.394,15.82,5.743,15.673,14.46,16.255
10.67,28.528,7.466,19.316,9.307,18.873,12.476,18.501
13.348,31.32,10.594,20.807,12.353,19.545,13.12,19.913
13.508,32.684,12.984,20.555,15.547,18.656,15.109,19.926
14.128,35.581,16.056,21.596,19.587,19.399,15.728,19.732
16.122,36.876,18.651,24.618,22.641,22.033,15.462,20.671
18.707,35.562,18.851,27.769,23.205,24.592,16.255,22.037
20.468,36.821,17.09,29.408,21.702,26.03,16.62,21.487
20.008,40.351,14.808,29.576,18.604,27.382,14.156,19.075
18.361,39.675,12.93,29.571,14.834,29.69,10.507,18.242
18.598,34.986,12.686,30.232,13.143,31.687,9.134,20.466
21.078,33.081,14.581,31.128,15.112,31.301,10.314,22.364
22.009,35.031,16.6,31.373,18.162,28.401,11.096,20.474
19.066,35.357,16.596,30.452,18.972,24.863,9.813,16.477
15.161,32.103,15.65,29.045,18.405,22.832,9.327,15.162
13.538,28.008,16.236,29.109,19.584,23.083,12.748,17.602
12.844,24.465,17.393,31.272,21.563,24.468,16.408,19.453
10.303,20.96,15.11,32.435,19.692,23.814,14.529,17.486
6.815,17.962,9.159,30.354,13.912,19.3,9.968,15.187
5.234,16.72,4.105,28.915,9.616,15.65,9.422,17.427
5.523,16.701,2.008,31.618,8.696,18.736,11.894,21.826
6.253,16.651,1.697,34.817,8.747,25.87,13.261,22.917
8.51,18.507,3.714,34.509,9.748,30.358,14.221,20.647
13.54,24.753,8.933,33.175,13.126,31.573,15.389,18.125
19.541,32.409,15.543,34.689,17.726,32.867,15.282,17.167
23.836,35.518,20.822,37.235,21.041,33.604,14.765,18.223
26.326,33.137,23.808,36.372,21.804,30.544,14.623,19.543
28.736,30.58,25.406,32.308,20.93,24.865,13.881,18.26
30.492,31.286,26.393,28.229,20.28,20.562,13.202,14.59
28.903,32.468,26.383,24.731,19.866,18.381,13.327,11.452
24.421,31.796,24.391,21.107,17.472,16.609,11.507,9.207
20.707,29.708,20.17,18.231,12.434,14.883,5.695,6.013
19.065,24.892,15.819,17.211,7.973,14.679,1.325,3.783
17.75,18.297,13.099,16.94,6.288,15.551,4.151,5.484
16.255,16.162,10.127,14.641,4.692,13.552,8.59,7.622
16.008,20.915,6.669,10.873,2.063,8.993,7.612,5.753
16.666,25.558,6.559,9.781,2.013,8.282,5.528,3.22
15.997,22.647,9.68,11.706,5.076,12.127,7.432,5.138
14.63,16.24,11.8,14.029,7.777,15.426,10.405,9.498
15.013,16.206,12.158,16.947,9.229,18.069,11.661,10.89
15.343,21.472,11.77,20.069,9.921,21.762,11.879,8.969
11.985,21.892,9.293,20.86,8.357,24.094,10.586,7.481
6.638,14.902,4.455,19.504,4.181,23.148,6.829,7.436
3.742,7.543,0.374,18.066,0.44,19.596,2.493,6.918
2.955,3.835,-0.176,16.588,0.061,14.727,0.956,5.381
1.663,2.532,2.889,14.488,2.953,10.612,3.892,4.661
1.826,6.213,8.611,12.984,7.606,9.192,9.648,6.983
5.406,17.013,14.502,12.632,11.684,9.743,13.248,11.267
7.86,25.729,16.19,11.398,11.985,9.161,10.836,12.138
5.765,22.708,13.371,9.225,8.908,6.777,5.604,6.873
4.147,13.714,11.671,9.481,7.413,5.835,4.022,0.818
8.117,10.144,13.697,12.097,9.374,6.699,6.221,-0.071
14.334,12.296,15.103,12.918,10.78,5.648,7.235,2.641
17.004,13.448,12.584,11.211,9.009,2.666,5.427,5.184
16.576,12.52,8.61,9.327,6.487,0.48,3.257,6.582
16.755,13.145,6.039,6.953,5.417,-2.069,3.126,5.636
17.994,15.231,4.552,3.005,4.882,-6.659,4.911,2.098
19.549,16.523,4.533,-0.073,4.763,-10.147,6.125,-1.114
21.88,17.309,7.744,1.135,6.827,-8.519,5.354,-0.956
23.408,17.112,12.937,6.507,10.932,-2.44,4.537,2.787
21.326,14.93,16.396,12.863,14.607,3.87,6.68,7.641
16.079,11.885,15.772,16.884,15.606,6.863,10.645,11.198
11.295,7.718,11.868,17.49,13.776,6.633,11.721,12.671
9.686,2.244,7.834,16.328,11.199,5.933,9.871,11.936
10.441,-0.668,5.522,15.242,9.42,6.061,8.956,9.983
11.298,1.811,4.583,15.287,8.584,6.909,8.305,9.577
11.396,6.427,5.035,17.286,9.179,9.372,5.234,11.015
12.054,9.123,8.074,20.78,12.015,14.104,2.87,11.352
15.258,11.024,14.259,23.566,16.839,18.971,6.469,11.282
20.005,14.442,20.785,22.329,20.824,19.22,12.817,12.218
23.597,18.456,23.598,15.725,20.85,12.823,12.816,9.576
26.22,21.28,22.528,7.537,18.004,4.577,5.785,2.11
28.666,21.835,20.343,2.861,15.688,0.281,0.327,-2.629
29.643,19.71,19.192,2.5,15.39,-0.132,1.301,-0.954
29.123,15.988,19.688,4.185,16.773,0.135,5.663,2.568
28.71,12.236,21.087,6.743,18.839,0.503,8.799,5.16
28.615,9.791,23.068,10.178,20.94,2.07,9.533,7.415
28.801,10.323,25.854,13.431,23.089,3.261,10.296,8.08
30.532,13.658,27.741,15.544,24.827,2.54,13.073,7.019
33.36,16.231,26.598,17.04,25.081,2.483,15.64,7.372
34.179,15.163,22.898,18.071,23.048,4.769,14.489,9.632
31.741,11.793,18.129,18.013,18.76,6.383,11.069,10.755
28.191,9.197,13.154,17.195,13.596,5.374,10.498,9.513
25.483,8.674,10.178,16.969,10.527,4.239,13.625,7.413
24.155,9.564,12.288,17.898,12.378,4.501,16.695,7.06
24.028,11.439,18.608,18.775,18.06,4.508,18.254,10.28
23.28,14.509,23.742,17.58,22.394,2.99,18.747,14.131
19.958,16.737,24.134,13.914,21.928,-0.029,16.607,12.557
14.939,14.482,21.123,9.993,18.11,-3.02,11.072,5.121
10.634,7.964,17.055,7.31,13.601,-3.638,5.661,-0.912
8.769,2.221,13.031,4.707,9.702,-2.38,5.09,0.051
10.682,2.206,10.798,1.379,7.581,-2.18,8.791,4.35
16.055,8.037,11.754,-1.841,7.658,-4.052,11.071,4.648
20.966,13.469,13.084,-4.395,7.595,-6.101,9.275,0.636
21.453,11.649,10.223,-6.358,4.242,-6.326,5.663,-2.48
18.153,3.229,4.032,-7.218,-1.734,-4.879,2.192,-3.375
14.197,-5.198,0.048,-6.163,-5.721,-2.829,0.57,-3.045
11.905,-7.824,0.457,-4.098,-5.351,-1.04,1.653,-0.545
13.194,-2.266,2.341,-3.457,-3.328,-1.375,2.11,2.471
18.544,8.694,3.518,-4.533,-2.067,-3.964,-0.588,2.147
24.928,17.1,4.626,-4.948,-0.776,-4.632,-3.765,-1.388
28.251,17.563,5.821,-3.835,0.94,-1.072,-4.943,-4.186
27.287,13.949,5.955,-2.958,1.523,3.051,-4.989,-2.551
23.556,12.66,4.985,-3.871,-0.076,3.569,-5,2.735
19.303,12.408,4.273,-6.458,-2.795,-0.28,-4.908,5.244
16.45,8.024,4.91,-8.831,-4.404,-5.974,-4.381,0.962
15.569,1.029,6.85,-8.578,-3.61,-8.548,-4.027,-5.39
15.582,-1.943,8.59,-5.494,-1.237,-5.432,-5.518,-7.194
15.431,1.208,8.825,-1.868,1.125,-0.419,-8.467,-4.108
14.591,5.033,7.988,-0.893,2.482,-0.319,-9.524,-1.192
12.592,3.203,5.983,-4.524,1.823,-7.503,-7.548,-1.973
10.766,-2.577,2.445,-10.58,-0.906,-16.627,-5.51,-3.995
11.45,-4.853,-0.819,-14.865,-3.95,-21.872,-5.719,-4.457
13.6,-1.867,-2.867,-16.872,-6.652,-24.443,-8.074,-5.523
13.795,1.318,-5.61,-19.108,-10.348,-27.468,-11.988,-8.782
11.443,2.102,-9.247,-21.616,-14.668,-28.803,-15.201,-10.959
8.728,1.166,-10.876,-22.211,-16.82,-25.863,-14.083,-9.351
6.638,-2.158,-9.246,-21.322,-15.668,-21.925,-8.664,-6.614
5.32,-5.88,-5.716,-20.258,-12.291,-19.922,-2.5,-5.932
5.98,-4.93,-1.255,-17.234,-7.467,-16.716,2.044,-5.908
7.623,-0.692,2.264,-12.698,-3.602,-11.183,2.751,-5.461
6.412,0.266,1.531,-11.34,-4.54,-8.163,-2.159,-6.287
1.858,-3.387,-2.853,-12.897,-9.244,-8.114,-8.622,-7.345
-2.312,-7.9,-6.43,-12.052,-12.7,-5.575,-10.54,-5.684
-4.228,-10.307,-8.068,-8.869,-13.843,-0.758,-9.119,-2.206
-5.201,-10.087,-10.226,-7.941,-15.273,0.023,-9.716,-1.403
-6.131,-8.664,-13.05,-9.583,-17.345,-4.398,-12.631,-5.405
-7.113,-7.893,-14.271,-10.818,-18.421,-8.614,-15.083,-10.229
-8.927,-8.621,-13.277,-11.422,-18.109,-9.348,-17.028,-11.052
-11.697,-9.893,-11.91,-12.824,-17.164,-7.763,-18.582,-7.861
-13.739,-9.18,-12.02,-14.838,-16.522,-6.038,-18.479,-3.889
-13.968,-7.064,-13.751,-17.337,-17.512,-7.044,-18.034,-3.318
-13.825,-9.332,-16.397,-21.118,-20.825,-12.069,-19.471,-7.557
-14.376,-17.391,-18.971,-25.335,-24.669,-17.427,-21.983,-12.604
-13.407,-22.322,-19.441,-27.155,-25.822,-18.53,-23.807,-14.444
-8.322,-16.586,-16.216,-24.368,-22.748,-14.637,-23.197,-12.886
-0.032,-4.417,-10.821,-17.972,-16.934,-7.83,-18.978,-9.034
7.522,5.047,-6.628,-12.062,-11.624,-1.795,-14.135,-4.844
9.834,6.376,-5.702,-10.625,-9.79,-0.75,-13.143,-3.887
5.041,-0.766,-7.876,-13.547,-12.133,-4.404,-15.261,-6.723
-3.452,-9.626,-10.874,-15.768,-15.742,-6.534,-16.176,-7.716
-9.857,-11.37,-12.137,-13.279,-16.792,-3.554,-13.56,-3.514
-12.57,-7.474,-12.292,-9.47,-15.883,0.219,-8.6,-0.102
-14.661,-6.792,-13.955,-10.242,-17.065,-0.075,-6.583,-3.613
-17.222,-11.392,-17.038,-14.989,-21.166,-3.34,-12.217,-10.708
-17.959,-17.461,-19.629,-19.804,-25.413,-7.325,-21.505,-15.444
-16.62,-23.093,-21.307,-24.179,-28.078,-12.179,-26.546,-18.108
-15.444,-26.394,-21.771,-27.372,-28.411,-15.635,-25.971,-19.867
-15.014,-25.523,-20.529,-26.807,-26.181,-14.034,-22.992,-18.21
-14.391,-22.76,-19.522,-23.986,-24.229,-9.547,-19.88,-14
-14.715,-22.209,-21.856,-24.186,-26.484,-8.25,-18.972,-12.406
-18.095,-24.565,-27.484,-29.348,-32.614,-11.62,-21.818,-14.555
-22.396,-26.648,-32.744,-35.408,-38.271,-15.617,-25.955,-16.977
-23.375,-26.941,-34.782,-38.085,-40.647,-17.726,-27.713,-17.641
-21.171,-28.47,-34.054,-38.03,-40.462,-19.279,-26.822,-16.975
-18.804,-32.825,-32.35,-37.48,-39.098,-20.75,-25.684,-16.624
-17.817,-36.144,-31.273,-36.125,-37.681,-20.229,-25.776,-18.104
-18.151,-35.012,-31.586,-32.912,-37.373,-16.294,-26.127,-19.14
-19.549,-31.714,-32.79,-29.26,-38.291,-10.856,-25.206,-16.633
-22.459,-29.836,-34.317,-27.917,-39.757,-8.717,-22.996,-13.069
-27.175,-29.718,-36.16,-29.352,-41.51,-12.569,-21.416,-12.997
-32.065,-30.455,-37.89,-31.661,-43.342,-19.625,-22.103,-16.452
-33.866,-30.858,-37.529,-32.366,-43.224,-23.831,-22.233,-18.627
-30.95,-29.737,-33.362,-30.063,-38.801,-21.975,-17.977,-15.941
-25.463,-27.986,-27.42,-26,-32.16,-17.05,-12.993,-11.227
-21.072,-27.806,-23.283,-22.76,-27.951,-13.231,-13.187,-8.21
-20.057,-31.043,-21.35,-22.017,-26.919,-11.353,-15.77,-6.335
-22.107,-37.573,-20.206,-24.605,-26.879,-11.453,-16.032,-5.727
-25.184,-43.904,-20.635,-31.085,-28.272,-14.909,-17.529,-9.144
-28.039,-46.242,-24.477,-40.005,-32.987,-21.541,-23.161,-15.817
-30.294,-43.799,-30.144,-46.426,-38.974,-27.476,-26.12,-19.914
-31.565,-39.511,-33.86,-46.496,-42.248,-29.212,-22.007,-18.404
-32.921,-39.559,-35.926,-43.044,-43.487,-28.116,-18.489,-15.287
-35.312,-46.151,-39.883,-41.895,-46.278,-28.156,-21.367,-15.508
-36.104,-51.737,-44.58,-43.262,-49.481,-29.919,-24.848,-18.549
-33.674,-50.208,-44.8,-42.246,-48.318,-29.805,-23.458,-19.683
-32.012,-46.739,-40.267,-37.337,-42.728,-26.249,-19.42,-16.196
-33.512,-46.545,-35.438,-32.059,-37.348,-22.297,-15.517,-10.309
-34.767,-46.243,-31.995,-29.179,-34.196,-20.522,-11.716,-5.647
-33.217,-42.726,-28.206,-27.765,-31.371,-19.506,-8.155,-3.039
-30.304,-38.721,-23.624,-26.076,-27.844,-17.31,-5.564,-1.823
-28.903,-38.493,-21.109,-25.884,-25.842,-16.787,-4.867,-2.918
-30.921,-43.78,-23.012,-29.862,-27.31,-22.045,-6.777,-6.338
-35.605,-51.532,-27.148,-35.372,-30.439,-29.854,-10.025,-9.315
-39.859,-55.805,-29.576,-37.015,-32.053,-32.048,-12.07,-9.817
-40.528,-54.749,-28.964,-33.876,-31.045,-26.38,-11.929,-8.006
-37.408,-52.386,-26.729,-30.232,-28.666,-19.69,-11.643,-6.332
-33.463,-51.021,-24.802,-29.745,-26.838,-19.126,-13.819,-8.552
-30.499,-47.546,-23.721,-30.639,-25.962,-23.285,-17.005,-13.894
-28.189,-40.835,-23.205,-29.707,-25.515,-26.015,-17.984,-17.115
-28.012,-36.636,-24.325,-29.911,-26.786,-26.641,-18.582,-17.22
-31.286,-39.631,-28.651,-35.962,-31.459,-29.168,-22.612,-17.621
-34.75,-45.714,-34.318,-44.003,-37.139,-33.102,-27.449,-18.087
-35.22,-48.267,-36.83,-46.037,-38.858,-33.799,-26.774,-16.321
-34.016,-47.022,-34.745,-41.401,-35.206,-30.051,-19.659,-13.536
-32.753,-45.248,-30.214,-34.935,-28.914,-24.235,-11.434,-11.312
-31.236,-44.062,-25.319,-28.58,-22.879,-17.532,-7.194,-9.017
-30.237,-43.094,-21.527,-21.997,-18.831,-10.19,-7.238,-6.826
-31.18,-41.52,-19.503,-16.859,-17.088,-4.137,-8.213,-6.005
-33.563,-38.601,-17.797,-14.144,-15.56,-0.483,-7.466,-6.075
-35.06,-35.494,-14.775,-11.458,-12.152,2.233,-5.906,-5.048
-33.931,-33.338,-11.456,-7.859,-8.274,3.599,-5.781,-2.557
-30.752,-31.669,-10.036,-6.411,-6.814,1.053,-6.788,-0.517
-27.961,-31.895,-11.064,-9.199,-8.29,-4.517,-6.991,-0.463
-27.287,-36.253,-13.346,-14.392,-11.247,-9.477,-6.221,-1.776
-27.943,-41.561,-15.584,-19.723,-14.546,-13.084,-5.922,-3.232
-28.843,-42.584,-17.429,-24.455,-17.734,-16.82,-6.647,-4.571
-30.87,-41.323,-18.676,-27.102,-19.896,-19.527,-7.173,-5.245
-34.723,-43.491,-19.31,-26.798,-20.544,-19.288,-6.803,-4.752
-38.641,-48.364,-20.754,-26.353,-21.347,-18.466,-7.401,-4.518
-40.28,-50.383,-23.959,-28.404,-23.91,-20.678,-9.744,-6.053
-39.187,-46.724,-27.24,-30.918,-27.008,-24.928,-11.197,-8.268
-36.634,-39.557,-29.19,-30.377,-28.877,-27.208,-10.914,-8.58
-35.096,-35.187,-31.78,-26.949,-30.988,-25.926,-11.31,-6.624
-36.781,-38.374,-36.814,-24.137,-35.43,-23.354,-12.946,-5.465
-40.826,-46.023,-41.928,-24.573,-40.17,-22.678,-14.236,-7.127
-44.374,-52.264,-43.822,-26.981,-41.692,-23.863,-15.041,-9.229
-46.186,-55.078,-41.838,-27.153,-39.165,-23.169,-15.136,-8.653
-46.793,-54.697,-37.287,-23.133,-33.918,-19.002,-11.909,-5.988
-46.21,-53.015,-32.306,-18.372,-28.3,-15.496,-5.589,-4.17
-43.546,-52.572,-28.635,-17.015,-24.498,-16.419,-2.5,-4.529
-38.675,-51.582,-26.002,-17.731,-22.253,-18.482,-5.984,-5.43
-32.946,-46.771,-22.103,-16.356,-18.77,-16.035,-10.43,-4.536
-28.72,-41.39,-16.779,-13.705,-13.479,-11.055,-11.369,-2.624
-27.445,-40.358,-13.732,-13.884,-10.087,-9.871,-11.669,-2.529
-27.913,-41.266,-14.51,-16.298,-10.664,-11.862,-12.861,-4.209
-28.532,-40.109,-16.588,-18.051,-13.051,-12.6,-12.503,-5.622
-28.253,-37.836,-17.502,-19.289,-14.573,-12.249,-10.423,-6.159
-25.641,-36.092,-16.217,-19.842,-14.155,-11.992,-9.182,-5.827
-22.291,-36.115,-13.715,-18.291,-12.906,-10.545,-10.881,-4.561
-22.46,-39.99,-12.156,-15.3,-12.37,-7.155,-14.298,-2.958
-26.133,-45.756,-12.313,-12.793,-12.215,-3.386,-15.745,-2.691
-28.508,-47.695,-13.441,-12.161,-11.601,-2.566,-14.845,-4.784
-26.48,-44.17,-13.335,-12.546,-9.844,-5.025,-13.98,-6.207
-22.001,-38.874,-10.777,-10.913,-6.958,-5.627,-13.426,-3.744
-19.461,-35.966,-8.864,-7.28,-5.409,-2.019,-12.734,-0.801
-20.165,-36.846,-9.688,-5.172,-6.473,1.347,-11.731,-2.185
-21.042,-39.225,-9.944,-5.515,-7.24,1.421,-9.409,-5.339
-19.429,-39.074,-7.548,-5.91,-5.978,0.73,-6.682,-4.808
-15.56,-34.023,-5.404,-4.985,-4.969,2.1,-6.457,-1.113
-11.05,-25.854,-5.968,-4.01,-5.864,4.772,-9.215,1.205
-8.584,-20.485,-8.188,-4.624,-7.533,6.51,-11.556,0.242
-10.61,-22.465,-10.474,-6.81,-8.808,6.074,-10.417,-2.96
-16.041,-29.325,-12.855,-9.719,-9.947,3.056,-9.299,-7.591
-21.064,-34.96,-15.104,-12.044,-10.794,-1.224,-13.129,-12.093
-23.244,-36.459,-15.214,-11.337,-9.6,-2.866,-16.902,-12.637
-23.002,-35.316,-12.602,-6.582,-6.154,0.901,-13.959,-8.316
-22.455,-34.137,-10.859,-0.966,-4.086,7.526,-9.385,-4.023
-23.645,-33.537,-13.285,1.632,-6.041,11.648,-9.947,-3.579
-26.631,-33.388,-17.468,1.689,-8.912,11.904,-12.298,-5.022
-29.862,-34.734,-19.056,2.099,-8.694,11.565,-11.517,-5.404
-32.47,-37.038,-18.764,2.715,-7.142,11.739,-10.306,-5.675
-33.712,-36.425,-20.081,0.994,-8.173,9.079,-12.944,-7.768
-31.892,-29.932,-22.838,-2.891,-11.126,1.879,-17.38,-10.65
-27.394,-21.542,-23.855,-5.824,-12.455,-6.073,-19.02,-12.804
-24.35,-19.702,-21.899,-6.157,-11.296,-10.153,-17.838,-14.557
-25.823,-25.815,-19.502,-5.735,-10.249,-10.515,-17.426,-16.904
-29.39,-31.543,-19.488,-7.17,-11.563,-9.784,-19.808,-20.65
-30.487,-30.511,-20.795,-9.924,-14.261,-8.189,-22.951,-24.266
-28.407,-26.442,-20.49,-11.243,-15.785,-5.469,-22.961,-24.464
-25.813,-25.859,-18.46,-10.301,-15.36,-3.569,-18.718,-20.779
-23.622,-27.206,-16.683,-8.416,-14.273,-3.297,-13.502,-16.227
-19.951,-24.445,-15.681,-6.871,-13.688,-3.194,-11.767,-15.193
-15.031,-17.765,-14.855,-6.902,-13.649,-3.6,-14.422,-18.725
-13.197,-12.292,-14.405,-9.203,-13.7,-5.853,-17.355,-21.23
-16.265,-10.582,-14.04,-11.88,-13.194,-7.765,-15.74,-18.247
-19.644,-11.983,-12.454,-11.809,-11.461,-6.214,-10.108,-13.076
-18.933,-14.476,-9.463,-7.899,-8.187,-1.194,-4.942,-10.042
-15.544,-16.148,-6.14,-1.505,-3.843,6.227,-1.488,-7.576
-13.007,-16.425,-3.598,4.404,0.083,14.394,2.579,-3.154
-11.802,-14.37,-2.432,7.008,2.317,20.006,7.333,0.696
-11.251,-10.892,-2.794,5.986,2.396,21.708,10.155,2.101
-12.772,-12.314,-4.582,3.356,0.266,21.991,10.966,5.226
-17.579,-22.342,-6.916,0.505,-3.082,21.776,11.843,10.366
-23.725,-33.881,-8.667,-3.265,-6.146,18.006,11.224,8.02
-26.486,-36.445,-8.734,-6.881,-7.273,11.415,6.896,-2.975
-22.795,-28.952,-6.299,-6.457,-5.027,8.536,2.331,-7.873
-17.587,-21.385,-3.925,-2.16,-1.809,10.855,1.096,-0.918
-19.362,-21.625,-5.791,0.755,-2.398,12.495,1.032,5.057
-26.943,-25.532,-10.708,-0.249,-6.577,10.046,-0.808,0.723
-31.497,-26.666,-13.936,-3.242,-10.129,5.013,-4.215,-8.106
-31.047,-25.936,-14.248,-6.297,-11.352,-0.277,-7.13,-11.826
-31.378,-26.685,-13.583,-9.167,-11.315,-4.138,-7.498,-10.108
-35.005,-29.82,-13.075,-12.161,-10.744,-6.114,-5.297,-9.609
-37.27,-32.096,-11.491,-13.868,-8.581,-6.035,-2.116,-10.591
-33.852,-28.158,-8.066,-12.36,-4.73,-3.975,0.051,-8.071
-28.186,-20.214,-6.141,-9.488,-3.051,-2.041,-1.033,-4.415
-26.005,-17.376,-8.553,-8.425,-6.068,-1.508,-4.728,-4.057
-26.341,-21.889,-12.628,-9.275,-10.612,-1.393,-7.876,-4.643
-26.001,-27.613,-15.248,-11.603,-13.626,-2.639,-10.381,-5.879
-26.289,-30.256,-16.299,-14.99,-15.267,-5.892,-13.066,-9.506
-28.135,-29.902,-15.028,-16.116,-14.827,-6.636,-13.471,-9.575
-28.851,-27.467,-11.084,-13.177,-11.6,-2.486,-11.773,-5.385
-28.243,-24.633,-8.919,-10.662,-9.278,0.747,-12.314,-8.398
-29.373,-23.826,-12.147,-11.725,-11.18,-0.245,-14.507,-17.302
-31.962,-24.857,-16.969,-12.822,-14.246,-1.4,-14.578,-18.642
-33.217,-25.369,-19.081,-11.898,-14.953,-2.081,-14.097,-15.711
-33.185,-25.064,-19.267,-11.152,-14.293,-4.694,-14.485,-18.619
-33.537,-25.358,-19.04,-10.472,-13.865,-6.111,-13.013,-20.665
-34.248,-26.58,-18.614,-7.657,-13.67,-2.906,-9.867,-13.86
-34.735,-27.783,-18.797,-3.746,-13.681,1.33,-8.426,-6.391
-35.7,-27.55,-19.933,-2,-14.037,1.737,-9.738,-8.109
-36.898,-25.789,-19.735,-2.169,-13.587,0.37,-11.328,-14.87
-36.222,-24.603,-16.844,-1.6,-11.604,2.032,-10.517,-16.579
-33.931,-25.388,-15.082,-1.643,-11.048,4.629,-8.832,-12.852
-33.388,-27.436,-18.458,-5.787,-15.138,2.421,-10.352,-12.354
-35.143,-28.575,-24.428,-12.876,-21.539,-3.888,-15.041,-18.039
-34.857,-24.848,-26.871,-17.852,-24.694,-8.777,-17.954,-23.051
-30.395,-16.305,-23.937,-17.957,-23.023,-9.9,-16.396,-22.038
-26.989,-11.944,-20.565,-16.065,-20.864,-9.59,-14.195,-17.515
-29.792,-17.801,-22.393,-17.464,-22.691,-11.694,-15.899,-16.014
-35.002,-26.557,-27.635,-22.46,-26.819,-16.688,-19.768,-20.324
-35.684,-28.542,-29.437,-24.74,-27.661,-19.286,-20.598,-24.137
-32.542,-23.507,-26.231,-20.455,-23.935,-15.452,-17.695,-21.664
-31.2,-16.743,-22.589,-14.18,-19.804,-9.078,-15.043,-17.873
-32.661,-12.049,-21.379,-11.707,-18.288,-6.967,-14.51,-17.108
-33.48,-10.455,-22.334,-13.167,-19.18,-10.956,-15.112,-16.078
-32.096,-10.453,-24.591,-15.903,-21.355,-17.279,-16.472,-15.149
-29.781,-9.436,-25.899,-18.757,-22.698,-22.398,-18.26,-17.977
-27.276,-7.865,-23.951,-21.332,-21.214,-25.976,-19.837,-21.825
-24.031,-8.879,-19.882,-22.529,-18.008,-27.472,-20.658,-22.644
-20.645,-12.029,-16.404,-21.843,-15.339,-25.806,-18.853,-21.74
-19.373,-13.731,-14.265,-19.59,-13.395,-21.895,-14.757,-19.938
-21.186,-14.512,-13.855,-16.931,-12.686,-18.508,-14.553,-17.147
-23.501,-16.499,-15.913,-15.995,-14.427,-18.125,-20.105,-17.488
-23.15,-16.229,-19.086,-16.49,-17.165,-19.18,-22.86,-21.759
-21.503,-10.469,-21.358,-15.476,-18.868,-17.121,-18.486,-23.121
-21.783,-3.339,-22.243,-12.65,-19.689,-11.622,-13.563,-18.681
-23.164,-0.579,-21.933,-11.472,-20.199,-7.914,-13.046,-13.545
-23.722,-3.045,-21.164,-14.23,-20.668,-9.797,-14.717,-12.282
-24.393,-7.7,-20.676,-18.301,-21.21,-14.852,-16.268,-15.467
-26.503,-11.61,-20.646,-19.425,-21.667,-17.718,-18.925,-20.956
-29.937,-14.072,-21.707,-18.122,-22.321,-16.873,-22.544,-24.276
-33.08,-14.741,-23.838,-18.227,-23.45,-15.274,-23.921,-22.914
-33,-12.731,-24.92,-20.027,-24.27,-14.405,-22.441,-19.884
-28.991,-9.244,-23.819,-21.51,-24.012,-13.428,-20.815,-18.717
-24.975,-7.322,-22.984,-23.853,-23.887,-13.869,-20.909,-19.854
-23.59,-6.079,-24.118,-27.995,-24.947,-17.114,-22.162,-22.815
-21.997,-0.669,-25.235,-30.052,-25.691,-19.131,-21.522,-25.194
-19.044,7.037,-25.035,-27.013,-25.297,-16.132,-17.48,-23.113
-19.107,7.286,-24.726,-22.095,-25.173,-11.781,-13.51,-16.943
-24.288,-2.515,-25.515,-20.418,-26.228,-12.467,-13.355,-12.966
-30.205,-12.611,-27.36,-22.475,-27.948,-18.854,-16.979,-16.543
-32.075,-14.381,-28.581,-23.957,-28.712,-25.329,-21.256,-23.727
-29.61,-8.639,-26.853,-21.585,-26.401,-26.432,-22.492,-25.615
-25.233,0.479,-21.971,-17.168,-20.989,-22.745,-21.015,-21.959
-21.403,9.025,-17.316,-15.143,-16.229,-20.161,-20.325,-20.377
-19.859,11.313,-17.392,-17.404,-16.589,-22.307,-21.067,-23.343
-21.011,5.431,-22.646,-21.402,-22.037,-25.696,-20.966,-26.232
-22.734,0.235,-27.839,-22.717,-27.124,-25.101,-18.581,-25.206
-21.838,5.295,-28.228,-19.452,-27.129,-20.34,-14.388,-20.702
-18.748,14.631,-25.155,-14.683,-23.628,-15.403,-10.59,-16.31
-17.017,15.148,-22.162,-12.965,-20.687,-13.742,-9.639,-15.683
-17.702,7.452,-20.016,-14.231,-19.072,-14.668,-10.886,-17.537
-19.114,2.52,-18.451,-14.464,-17.621,-13.807,-10.75,-17.041
-19.859,4.461,-17.444,-12.25,-15.953,-9.002,-8.003,-14.498
-18.373,9.245,-15.382,-10.183,-13.625,-3.689,-4.952,-14.065
-13.581,13.846,-10.777,-10.234,-10.172,-2.279,-2.807,-14.312
-7.939,17.156,-6.143,-12.656,-7.222,-6.44,-1.385,-12.308
-4.861,16.748,-5.656,-17.192,-7.338,-15.267,-1.863,-11.81
-3.006,12.596,-8.841,-20.863,-9.801,-23.658,-4.128,-15.126
0.409,9.951,-11.14,-19.68,-11.173,-25.562,-4.802,-16.064
3.039,12.67,-10.873,-15.191,-10.628,-22.868,-2.514,-11.221
1.66,18.411,-11,-13.261,-10.71,-23.475,-1.077,-8.512
-1.366,23.256,-12.609,-15.75,-12.017,-29.324,-3.067,-14.333
-1.764,25.204,-11.768,-17.497,-11.163,-32.952,-4.423,-20.454
0.375,22.991,-6.906,-13.85,-6.564,-28.999,-1.551,-16.955
2.286,18.154,-2.713,-8.876,-1.785,-23.497,1.634,-9.519
4.069,16.309,-1.615,-9.064,0.501,-23.622,1.128,-8.407
7.279,19.816,-0.419,-12.889,1.795,-26.641,-0.684,-11.312
10.107,23.952,2.171,-15.355,3.193,-27.96,-0.66,-11.171
10.356,24.853,4.493,-15.812,4.358,-28.38,1.425,-9.39
9.517,23.576,6.331,-15.479,5.636,-28.659,4.206,-10.253
8.99,21.752,7.537,-14.106,6.722,-27.204,5.462,-12.134
7.96,20.673,7.381,-10.741,7.027,-22.989,5.055,-11.132
6.676,22.554,7.212,-5.304,7.584,-16.477,5.397,-6.926
6.742,28.223,8.799,0.528,9.263,-9.781,7.279,-2.461
8.75,34.886,11.71,5.114,11.587,-5.145,9.381,0.292
11.9,38.404,14.85,7.753,13.993,-3.29,10.558,0.978
15.301,37.69,17.762,7.643,15.883,-3.799,10.653,-1.256
18.547,34.832,18.589,4.859,15.796,-5.512,10.061,-4.587
20.946,32.908,15.044,1.228,12.694,-7.657,8.659,-5.065
22.213,34.555,10.691,0.116,9.529,-9.145,7.497,-2.601
23.085,38.369,12.172,3.856,10.958,-7.563,8.519,-0.002
23.591,39.682,18.137,9.367,15.728,-3.565,9.097,0.011
23.766,38.475,21.992,11.698,19.127,-1.32,5.911,-3.504
24.414,38.33,22.595,11.247,21.047,-1.846,3.765,-6.573
24.231,36.969,22.788,10.972,23.287,-2.877,7.695,-5.112
21.649,30.799,23.397,11.494,24.732,-3.304,13.113,-1.696
19.05,25.354,23.722,12.738,24.594,-2.733,14.709,0.141
18.932,27.094,23.28,13.997,23.884,-1.298,14.024,0.723
19.726,32.498,21.599,12.911,22.405,-1.057,13.008,-0.023
19.69,35.861,19.08,9.326,19.621,-2.998,11.179,-2.106
19.715,37.545,17.377,6.732,17.222,-4.796,8.809,-2.716
19.86,38.391,17.244,7.113,17.043,-4.977,6.826,-1.072
18.44,36.424,17.764,8.297,18.293,-5.029,6.064,-1.979
15.878,32.283,18.232,8.398,19.174,-4.171,6.286,-6.444
15.392,30.618,18.874,9.277,19.936,1.247,6.055,-5.556
18.281,34.723,19.702,11.981,22.006,8.584,5.972,2.736
21.41,41.523,20.629,13.049,24.968,9.278,7.776,5.164
21.691,43.562,22.177,10.344,27.05,2.756,10.233,-3.051
19.888,38.438,23.817,6.635,27.038,-2.953,10.576,-9.155
18.392,32.261,23.672,4.553,24.684,-5.025,8.312,-7.512
18.767,31.33,21.848,4.369,21.406,-6.844,5.914,-5.763
21.859,36.655,20.745,5.925,19.559,-9.279,5.822,-5.907
26.968,45.271,21.093,8.211,19.502,-11.058,6.2,-4.261
30.114,50.005,20.473,9.201,18.906,-12.468,3.244,-3.34
27.703,44.673,17.375,8.802,16.687,-13.515,-1.024,-5.813
22.442,33.661,14.464,9.459,15.352,-12.643,-0.455,-6.541
18.94,26.04,14.086,11.32,16.324,-10.418,5.048,-1.956
17.212,23.824,14.682,10.789,17.457,-10.893,9.237,2.235
17.008,25.388,15.229,6.581,17.678,-16.004,8.721,-0.221
20.417,29.908,16.971,2.207,18.261,-21.924,6.499,-6.647
26.284,33.561,19.331,0.323,19.279,-24.309,6.376,-10.175
29.764,32.414,20.325,-0.04,19.568,-23.637,7.78,-9.076
28.792,29.306,20.532,0.363,19.116,-22.604,7.798,-6.346
25.977,30.122,21.176,1.542,18.342,-22.884,5.281,-4.85
24.264,35.104,21.067,1.932,17.065,-25.027,2.279,-5.709
23.745,38.113,19.443,1.113,15.655,-26.638,1.88,-7.315
22.673,34.291,17.465,1.709,14.657,-23.895,4.158,-5.772
20.973,27.134,15.708,4.698,13.793,-18.012,6.418,0.501
20.935,24.593,13.788,7.366,12.786,-13.758,7.04,7.143
23.222,27.982,12.122,8.525,12.043,-10.912,7.391,8.87
25.889,31.439,11.929,10.638,12.324,-4.916,9.495,7.163
27.491,32.374,13.503,14.337,13.859,3.977,12.73,7.203
28.119,34.528,16.064,16.224,16.102,9.292,15.012,9.365
29.448,40.156,19.677,14.707,18.909,7.574,15.455,9.639
32.847,44.445,24.662,12.74,22.261,3.564,14.389,6.044
35.769,41.292,28.793,12.71,24.593,3.546,12.693,0.904
34.575,33.043,28.77,13.419,24.108,7.689,10.875,-1.504
29.929,27.4,25.09,13.711,21.613,12.147,8.77,0.807
25.123,26.216,22.292,14.847,20.016,15.087,6.987,4.812
22.13,25.839,23.075,17.32,20.812,17.108,6.879,6.866
21.715,25.472,24.936,19.174,22.437,18.44,8.142,7.595
23.848,26.588,24.324,18.817,22.394,18.133,8.116,8.007
26.194,26.785,20.746,16.195,19.301,15.384,5.121,6.454
25.877,22.447,15.932,12.041,14.069,10.98,1.27,2.793
23.707,15.959,12.514,8.465,10.635,7.256,0.268,0.222
23.193,13.534,12.991,7.852,12.364,6.397,3.19,0.747
25.986,16.73,17.939,10.227,18.21,8.135,7.736,2.828
30.819,21.469,26.1,14.568,25.74,10.596,12.947,5.821
35.469,25.467,34.866,20.055,33.331,12.762,20.234,10.232
37.639,30.344,39.279,22.79,36.817,12.692,25.472,12.042
35.625,35.143,35.715,18.562,32.578,8.249,20.909,7.371
30.195,35.069,28.04,11.474,25.02,3.131,10.427,1.296
24.563,29.049,23.27,10.208,21.621,4.474,7.549,1.559
21.646,23.058,22.628,15.905,23.146,12.777,14.7,7.555
21.836,23.504,23.699,22.347,26.193,20.822,21.004,12.441
23.305,29.595,26.073,25.617,29.264,23.059,21.081,13.287
24.393,34.661,29.107,26.809,31.508,21.217,19.755,12.571
24.65,34.209,30.184,27.555,31.356,20.118,19.462,11.552
23.781,29.61,28.346,27.867,28.771,21.776,17.617,10.382
22.149,25.362,25.249,27.269,25.339,24.198,14.366,10.236
21.244,25.295,22.364,25.671,21.93,24.436,12.041,10.303
22.06,29.491,20.635,24.147,19.385,22.639,10.821,9.034
24.408,34.826,21.467,24.012,19.97,21.159,10.474,7.463
27.225,38.707,24.928,24.312,24.192,20.013,11.088,7.206
29.206,40.119,29.111,23.607,29.335,17.606,11.371,8.173
30.243,39.816,32.489,22.967,33.269,14.378,10.549,8.418
31.379,40.42,34.218,23.713,35.362,12.357,10.208,6.129
32.636,41.383,33.176,25.259,34.566,13.206,11.248,2.997
32.366,38.379,29.145,26.661,30.648,16.727,11.604,2.473
30.307,32.683,24.057,27.742,25.763,20.455,9.963,4.867
28.711,30.347,20.401,28.369,22.29,22.087,7.857,7.615
28.676,30.952,19.2,28.546,20.975,21.823,7.31,10.197
28.898,29.612,20.47,29.598,22.161,21.68,10.096,14.245
27.732,25.502,23.091,32.252,25.495,22.146,15.244,17.918
24.453,20.867,24.805,34.72,28.964,21.494,18.238,17.921
20.741,17.982,25.237,35.889,31.33,19.87,18.309,16.316
19.828,18.784,26.121,36.98,33.221,19.882,19.89,17.726
22.36,22.916,27.775,38.567,34.758,21.872,23.895,22.267
25.645,26.429,29.079,39.338,35.198,22.97,25.954,25.438
27.48,26.224,30.59,38.645,35.335,22.018,25.112,25.09
27.925,24.873,33.708,37.714,36.786,20.988,25.768,24.517
27.535,26.242,36.954,37.069,38.373,20.618,28.15,25.599
26.294,28.719,37.419,36.002,37.407,20.081,27.187,25.951
23.769,27.521,34.659,34.608,33.678,20.125,23.01,24.625
20.496,22.31,30.62,33.893,29.28,22.264,22.16,24.247
19.314,19.328,27.83,34.642,26.408,26.357,26.499,27.015
22.054,23.105,27.105,35.714,25.329,29.682,28.361,30.022
26.667,29.765,27.144,35.066,24.478,29.664,22.465,29.029
30.719,33.792,27.188,33.921,23.244,28.335,16.456,27.313
34.104,35.625,27.766,35.731,22.881,29.686,18.575,30.179
36.378,37.395,28.985,40.361,24.308,32.573,23.171,33.08
35.613,36.588,29.67,43.049,26.085,31.788,21.805,29.866
32.438,30.324,29.107,40.719,26.566,26.58,17.889,25.231
30.561,22.563,28.563,36.861,27.079,22.485,17.917,24.574
30.789,19.122,28.705,36.312,28.963,23.039,20.129,25.341
30.861,19.498,28.546,38.053,30.662,25.317,20.644,25.76
31.029,20.606,28.41,38.084,31.174,25.398,20.553,26.46
33.121,22.205,29.539,35.79,31.769,23.515,21.932,25.988
36.753,24.374,31.643,33.144,33.046,22.274,23.671,24.198
39.95,25.853,34.001,30.879,34.259,22.294,24.628,23.265
40.591,25.05,35.823,28.58,34.539,22.044,25.514,23.68
37.415,20.938,34.479,26.407,32.06,21.07,25.337,23.736
32.093,17.279,28.432,24.711,25.464,20.21,21.988,22.098
28.776,20.919,21.065,23.208,17.557,19.211,17.036,19.725
29.36,29.896,16.941,21.553,13.101,17.073,15.157,19.788
30.604,32.5,16.478,19.648,12.754,14.546,17.583,23.254
28.524,23.116,16.637,17.07,12.846,12.915,19.225,24.503
24.247,10.308,15.258,13.939,11.088,11.512,16.054,18.847
22.47,5.439,14.001,12.214,9.807,10.464,11.469,12.379
24.844,9.36,15.197,13.36,11.222,12.025,10.477,13.6
27.54,14.047,16.523,15.721,12.172,16.234,11.824,19.793
26.543,14.187,14.634,16.897,9.27,19.628,11.052,21.603
22.937,11.967,11.785,16.402,5.396,18.947,8.805,16.719
20.41,10.818,11.239,14.403,3.998,14.314,8.742,11.109
19.859,10.211,10.799,10.856,2.924,8.771,8.83,7.927
18.994,7.872,7.274,6.68,-0.6,5.027,4.993,4.896
17.129,4.914,2.311,3.641,-4.817,3.753,0.073,2.95
17.193,6.189,0.077,2.669,-6.157,4.168,-0.994,4.901
20.535,12.156,1.9,2.951,-3.994,4.792,0.247,7.863
24.018,15.667,4.926,2.58,-1.531,4.158,-0.506,7.228
25.002,13.292,5.91,0.497,-1.621,2.142,-1.648,4.504
25.289,11.625,5.431,-1.327,-2.246,1.151,2.608,5.467
27.61,16.626,6.103,0.451,0.219,3.854,11.49,11.003
30.141,24.721,7.195,4.985,3.654,8.504,15.405,14.613
29.163,28.577,6.287,8.412,3.55,11.279,9.258,12.177
26.747,27.225,5.46,11.307,2.526,13.324,2.42,8.695
27.737,25.432,8.018,15.874,5.637,16.989,4.657,10.192
30.363,24.707,11.154,18.649,9.583,18.58,9.731,13.818
29.834,22.12,10.403,16.552,8.458,15.259,7.886,13.082
27.04,17.679,7.193,13.14,4.185,10.796,1.155,8.201
25.73,16.733,5.556,11.941,1.913,7.705,-4.338,3.989
26.674,21.998,6.412,12.082,2.08,4.913,-7.078,2.648
27.007,25.714,7.616,11.632,2.011,2.792,-7.852,3.612
23.588,19.391,6.697,9.845,0.605,1.711,-6.074,6.396
18.427,8.877,3.864,7.069,-0.881,-0.676,-2.071,8.908
16.816,6.283,1.516,3.764,-1.624,-6.442,-0.515,7.269
19.674,13.059,0.898,0.972,-2.281,-12.569,-3.421,3.141
22.85,20.838,1.554,0.781,-2.85,-12.83,-5.264,3.252
22.935,23.005,2.88,3.924,-2.239,-6.269,-2.363,8.385
21.408,21.582,4.96,9.348,0.393,2.149,1.94,13.444
21.717,21.26,7.628,15.096,4.237,8.655,4.003,16.359
23.892,20.206,9.771,18.091,6.815,12.344,4.461,18.295
26.102,15.941,11.107,17.081,6.912,12.804,5.008,19.116
27.615,12.941,12.461,14.48,5.982,10.44,5.405,17.148
27.401,14.463,13.99,13.392,6.226,8.425,6.656,13.161
24.6,15.996,14.712,14.843,8.152,10.267,10.648,11.873
20.712,13.322,13.818,17.215,9.968,14.203,14.526,14.791
19.31,9.846,13.048,18.317,11.049,15.521,14.517,16.852
22.397,11.294,15.104,18.016,13.274,13.686,12.887,15.484
26.984,16.761,18.912,17.52,16.716,12.009,13.654,15.176
29.272,20.177,21.761,17.602,19.575,12.664,16.964,19.276
29.998,19.048,23.867,18.022,21.951,14.271,20.235,22.897
30.804,16.3,25.641,18.338,24.471,14.646,21.188,20.393
31.115,15.639,25.722,19.809,26.162,15.504,20.803,17.32
30.654,17.88,23.773,23.543,25.725,19.26,22.106,20.938
28.992,19.778,20.596,27.097,22.818,22.967,24.614,24.712
25.135,18.312,17.318,28.039,19.452,23.349,25.486,21.886
20.544,14.799,15.75,28.062,18.735,23.403,25.48,20.224
17.767,11.522,15.807,28.611,19.828,26.597,26.412,25.388
16.654,9.09,14.496,27.526,18.429,29.997,25.495,29.396
15.628,7.878,10.871,24.124,13.95,29.463,19.822,26.721
14.556,7.243,8.214,21.645,10.724,26.5,13.987,22.963
14.264,5.424,8.726,21.715,11.278,24.53,14.725,23.227
15.264,4.097,10.781,22.764,13.877,24.134,20.455,26.168
18.067,7.884,13.086,24.153,16.813,25.111,25.233,29.852
21.809,14.226,15.575,25.145,19.419,26.565,26.718,32.84
22.993,13.901,16.082,23.457,19.648,25.705,24.02,30.962
19.818,6.639,13.255,19.974,16.654,22.011,17.999,22.669
15.246,1.336,9.983,17.744,13.225,17.602,13.465,13.492
12.772,0.807,8.655,16.183,11.605,12.868,12.409,8.372
13.488,2.689,8.915,14.902,11.752,9.315,12.325,7.578
17.178,8.544,10.599,17.025,13.704,10.712,13.192,9.603
21.853,16.779,12.596,21.508,16.344,15.106,15.697,10.548
24.611,18.705,12.728,22.318,17.015,16.001,15.647,8.022
25.457,13.018,11.872,18.395,15.426,12.734,9.72,5.819
26.651,9.062,12.533,14.404,13.801,9.956,3.228,6.873
27.895,10.866,13.746,12.966,12.972,10.414,2.18,8.763
26.745,13.394,12.952,13.522,12.276,14.013,3.194,9.76
23.466,13.304,11.144,15.514,12.305,18.941,2.563,10.706
20.725,11.183,11.441,18.369,14.207,22.334,4.147,11.914
19.264,7.353,14.129,20.716,17.232,23.076,9.384,13.215
17.895,2.892,16.555,21.275,19.336,22.099,12.791,14.179
16.216,0.273,16.554,19.842,19.479,19.777,11.454,14.011
14.693,-0.361,14.06,17.407,18.109,16.247,8.865,12.777
14.026,-0.604,10.795,15.37,16.241,12.879,8.091,10.404
15.43,0.392,9.276,14.638,15.207,11.313,7.771,6.578
19.793,4.24,11.449,15.942,16.737,12.52,6.88,4.259
25.755,9.545,16.981,19.383,21.161,16.298,7.835,6.823
28.946,12.735,21.915,22.337,25.282,19.944,11.152,10.251
25.8,10.913,22.228,21.468,25.601,20.085,13.299,8.927
18.877,4.643,19.047,17.447,23.063,17.047,11.929,6.137
14.161,-0.422,15.605,13.696,20.303,14.245,8.497,6.573
13.981,2.112,12.863,12.54,18.01,14.046,6.929,8.55
16.882,10.735,11.642,14.037,16.78,16.025,9.081,10.174
21.207,17.61,12.732,15.677,17.283,17.579,11.191,10.516
25.047,19.494,14.596,15.202,18.679,16.67,10.366,8.591
25.915,18.308,15.385,13.777,19.709,14.459,9.872,7.171
23.537,15.081,15.692,13.597,20.203,13.518,11.931,8.597
20.742,11.098,16.967,15.202,20.755,14.594,12.868,10.657
19.943,8.891,18.328,18.019,21.29,16.896,10.077,11.584
20.743,9.313,17.51,20.634,21.025,19.371,7.16,11.669
21.962,11.636,15.214,21.824,20.347,20.727,7.457,11.441
24.182,15.596,15.121,22.457,20.973,20.539,8.648,12.334
28.013,19.853,18.048,23.876,23.245,20.003,8.689,14.505
31.004,20.174,20.661,25.194,25.44,20.084,9.936,15.07
29.866,14.679,21.244,24.495,26.307,19.876,13.429,13.283
24.891,8.733,21.206,21.086,25.877,17.282,15.081,11.86
20.055,8.629,21.81,16.849,25.048,12.78,11.805,11.68
19.351,13.403,23.389,15.378,25.465,10.747,7.398,12.395
22.942,17.37,25.475,17.462,27.369,13.282,6.807,14.42
27.639,18.364,27.383,20.484,29.44,17.378,9.318,16.494
31.24,18.307,29.605,23.063,31.717,20.37,12.188,16.814
33.611,16.714,32.532,25.756,35.042,22.292,14.519,16.049
34.918,12.522,35.001,27.943,38.516,23.095,15.724,15.534
35.96,10.535,36.126,28.318,40.48,23.027,15.854,15.108
38.389,15.667,36.914,28.577,41.025,25.152,16.221,15.269
42.689,24.465,38.506,31.562,41.463,31.394,16.961,17.472
46.184,29.117,39.443,34.072,41.161,36.059,16.54,19.531
44.924,26.43,37.038,29.521,37.764,32.006,14.859,17.466
39.291,19.72,31.591,19.642,31.891,22.774,13.979,14.199
34.328,13.325,26.134,12.878,27.258,17.175,14.029,15.581
32.997,8.834,22.771,11.669,25.542,15.907,12.722,18.987
33.513,6.532,21.776,12.259,25.478,14.691,10.178,18.151
34.152,6.879,22.801,13.307,26.331,12.945,9.069,12.953
35.811,10.324,25.934,16.226,29.303,12.522,11.148,7.811
37.518,15.077,30.339,20.197,34.167,13.646,15.675,6.866
35.287,16.548,32.622,21.919,36.809,14.15,19.569,9.31
28.986,13.054,30.805,20.264,34.632,12.631,21.216,10.41
23.395,7.22,27.381,17.119,30.547,10.268,21.799,9.689
20.855,0.474,25.523,13.98,28.1,7.927,21.253,10.312
19.915,-6.067,25.949,11.798,27.732,5.655,18.862,11.916
20.035,-9.289,27.811,11.288,28.654,4.086,16.51,12.158
21.675,-8.013,30.307,12.194,30.954,4.043,17.299,12.161
23.836,-3.705,32.593,14.338,34.462,6.217,21.638,14.359
25.491,1.723,33.642,17.405,37.252,10.139,26.296,17.405
27.023,5.092,33.32,19.911,37.362,13.646,28.487,17.928
28.464,4.037,31.783,20.831,34.741,15.703,28.156,15.849
28.974,0.683,28.922,21.121,30.973,17.828,26.239,14.767
27.915,-0.953,25.64,21.58,27.772,20.25,24.321,16.881
25.491,0.824,23.574,21.365,25.749,20.928,24.386,20.131
22.961,4.316,22.897,19.869,24.35,19.637,26.17,21.276
21.817,5.904,22.038,17.564,23.079,17.726,27.322,19.082
21.836,3.31,20.46,15.461,22.78,15.481,27.855,15.609
19.947,-3.452,19.64,14.984,24.405,13.669,30.047,14.794
13.162,-13.337,20.567,16.667,27.187,13.981,33.806,17.137
2.944,-23.807,22.316,19.141,29.562,16.104,37.07,19.559
-5.555,-29.938,23.315,21.061,30.751,18.09,38.678,20.629
-8.453,-27.916,23.025,22.712,30.552,19.795,37.881,21.401
-6.201,-19.956,22.038,24.833,28.74,23.206,34.064,22.683
-2.435,-12.34,20.182,26.893,24.96,28.316,28.111,22.798
-0.26,-9.083,16.101,26.649,19.043,30.526,22.494,19.905
0.167,-9.233,10.856,22.804,12.449,26.564,19.104,15.856
0.032,-9.677,7.871,17.53,7.432,20.282,16.982,13.01
0.01,-9.137,7.025,13.111,3.617,16.432,13.639,10.373
0.486,-7.758,5.56,9.675,-0.205,14.923,9.122,7.192
0.457,-5.82,4.086,7.842,-2.213,14.952,6.23,5.472
-2.474,-5.251,3.909,6.743,-1.512,15.211,5.654,5.176
-7.58,-7.374,3.188,2.963,-1.11,11.945,5.355,3.98
-9.849,-9.14,2.15,-1.957,-1.394,5.979,5.389,3.267
-6.923,-7.873,4.343,-2.157,1.456,3.733,7.41,5.313
-2.744,-6.595,8.845,1.229,6.911,5.645,10.273,7.538
-1.35,-8.077,10.196,1.917,9.599,5.947,11.382,7.296
-2.098,-9.507,6.947,0.25,7.892,4.528,10.052,6.227
-2.638,-8.755,2.982,0.582,4.86,4.93,7.234,5.717
-2.014,-8.123,2.162,2.257,3.332,5.181,4.455,4.871
-0.869,-8.254,4.701,1.994,3.809,1.608,2.485,3.26
-0.823,-7.008,7.352,-0.407,4.664,-4.356,1.22,1.785
-2.676,-5.53,7.362,-2.586,3.919,-8.002,0.959,1.38
-5.639,-7.397,4.773,-3.371,0.906,-7.458,0.877,0.433
-8.63,-11.595,0.975,-4.078,-3.365,-6.001,-0.404,-2.664
-10.028,-12.838,-1.819,-5.638,-6.459,-6.764,-1.235,-5.084
-7.907,-9.622,-1.573,-6.85,-6.595,-8.449,0.189,-5.183
-4.186,-6.909,0.759,-6.904,-4.811,-9.148,2.039,-5.868
-4.245,-9.149,1.896,-7.288,-3.747,-9.801,2.261,-7.926
-8.436,-13.649,0.69,-9.17,-4.343,-11.295,0.778,-9.717
-10.702,-14.102,-0.703,-10.631,-5.126,-11.819,-1.926,-11.543
-8.196,-9.728,-0.344,-9.258,-4.894,-8.937,-4.406,-12.542
-4.668,-5.519,1.06,-6.393,-4.413,-3.716,-4.644,-9.952
-4.124,-5.162,0.939,-6.005,-5.638,-1.026,-2.746,-5.434
-6.641,-8.132,-2.273,-9.209,-9.485,-3.161,-1.571,-3.776
-9.695,-10.836,-6.961,-12.278,-13.861,-6.098,-2.543,-5.198
-11.339,-10.078,-9.793,-10.903,-15.332,-4.639,-2.433,-5.544
-11.879,-6.819,-8.922,-5.441,-12.977,1.206,1.169,-2.752
-12.831,-4.954,-5.814,-1.131,-9.248,5.851,4.946,0.624
-15.189,-7.32,-4.107,-1.944,-7.362,4.991,5.435,1.401
-18.83,-14.249,-5.856,-6.066,-8.747,1.063,3.675,-0.38
-22.076,-23.364,-8.972,-9.075,-11.94,-0.788,1.946,-2.752
-22.465,-28.834,-10.01,-8.832,-13.973,1.02,0.68,-4.417
-19.704,-25.492,-8.972,-6.647,-14.032,3.797,-1.465,-5.216
-16.03,-15.698,-8.3,-5.155,-13.803,3.678,-5.172,-5.856
-13.445,-7.123,-8.799,-5.679,-14.477,-0.536,-8.694,-6.967
-13.063,-5.155,-9.883,-7.968,-16.142,-6.172,-10.709,-8.141
-15.374,-9.935,-11.328,-11.065,-18.255,-9.786,-11.363,-9.026
-18.628,-16.255,-12.364,-12.949,-19.077,-9.338,-9.794,-9.088
-19.692,-17.81,-11.653,-11.598,-17.279,-4.81,-6.53,-7.298
-18.726,-14.38,-9.986,-8.077,-14.58,0.345,-4.896,-5.059
-19.331,-10.858,-10.327,-5.939,-14.337,2.17,-5.598,-4.651
-22.966,-10.726,-14.266,-7.066,-17.726,0.868,-7.044,-6
-27.192,-14.462,-20.465,-10.177,-23.067,-0.954,-9.92,-8.699
-29.269,-19.987,-25.998,-13.151,-27.949,-2.756,-13.806,-11.382
-28.671,-22.712,-28.716,-15.167,-30.911,-5.629,-15.611,-10.719
-26.743,-20.093,-28.814,-16.032,-31.72,-8.126,-15.249,-6.001
-25.298,-14.815,-27.106,-15.253,-30.524,-7.27,-15.258,-0.93
-25.241,-10.611,-24.102,-13.467,-27.987,-4.34,-16.277,-0.702
-26.152,-8.4,-21.651,-12.189,-25.85,-2.609,-17.601,-7.029
-27.452,-7.363,-21.465,-11.469,-25.145,-1.172,-18.03,-13.861
-29.512,-7.734,-22.62,-11.629,-25.102,0.165,-16.344,-14.673
-31.987,-10.326,-22.715,-13.867,-24.392,-2.074,-13.246,-12.202
-32.781,-13.012,-20.518,-15.565,-22.239,-5.914,-9.866,-11.201
-31.538,-12.929,-17.677,-12.82,-19.821,-4.952,-6.427,-9.903
-30.51,-11.767,-17.283,-8.447,-19.861,-0.147,-4.516,-6.87
-29.815,-11.937,-19.504,-8.244,-22.694,2.094,-6.336,-5.58
-28.029,-12.246,-21.424,-11.728,-25.877,0.244,-11.04,-7.461
-27.188,-12.884,-22.356,-14.044,-28.728,-1.863,-14.405,-8.779
-29.75,-15.881,-24.426,-13.619,-32.184,-1.173,-13.89,-6.971
-33.344,-19.319,-27.778,-12.936,-35.357,0.97,-12.548,-5.297
-34.973,-19.843,-30.712,-13.462,-37.111,1.43,-13.887,-8.024
-35.904,-18.23,-33.151,-14.053,-38.146,-0.01,-16.448,-13.438
-37.627,-16.462,-35.475,-15.012,-38.93,-2.19,-17.542,-16.709
-38.31,-14.543,-36.716,-17.884,-39.041,-5.169,-17.194,-16.923
-36.454,-14.011,-36.705,-20.612,-39.044,-7.98,-16.419,-15.776
-33.696,-17.297,-36.906,-20.754,-40.067,-9.969,-16.41,-14.49
-32.09,-21.235,-38.039,-21.365,-41.805,-13.763,-18.695,-14.965
-31.435,-19.977,-39.039,-25.645,-42.672,-20.443,-22.877,-17.624
-30.723,-14.961,-38.158,-30.482,-41.269,-25.907,-26.011,-19.259
-30.309,-13.226,-34.995,-31.862,-37.711,-26.895,-25.606,-18.098
-30.77,-16.588,-31.645,-30.924,-33.953,-25.55,-23.101,-17.045
-30.74,-19.716,-29.793,-29.66,-31.279,-24.52,-21.3,-17.568
-28.976,-19.319,-28.447,-27.577,-29.199,-23.206,-19.008,-17.003
-27.118,-18.758,-26.623,-26.022,-27.931,-22.01,-15.428,-15.799
-26.694,-20.752,-24.717,-27.548,-27.913,-23.094,-14.288,-17.489
-26.112,-22.061,-22.825,-30.173,-27.638,-25.063,-16.431,-20.828
-22.969,-18.873,-20.514,-29.651,-25.568,-24.118,-17.688,-21.612
-17.685,-13.322,-17.828,-25.762,-22.143,-19.855,-16,-18.962
-14.457,-11.356,-15.827,-21.521,-18.784,-14.964,-13.312,-15.067
-17.053,-14.696,-16.114,-19.19,-17.152,-11.462,-12.717,-12.853
-22.752,-18.67,-18.493,-19.271,-17.914,-9.647,-14.779,-14.189
-24.909,-19.216,-20.119,-20.852,-19.213,-9.054,-16.07,-17.593
-22.025,-17.467,-19.344,-23.259,-19.342,-10.298,-15.445,-19.591
-18.046,-14.975,-18.027,-27.633,-19.54,-15.323,-16.544,-19.939
-15.12,-10.59,-18.507,-34.129,-21.474,-23.384,-20.164,-20.952
-13.127,-6.439,-21.433,-40.022,-25.176,-30.042,-23.511,-22.829
-13.06,-8.015,-25.99,-43.362,-29.833,-33.089,-26.1,-25.501
-14.699,-13.465,-29.061,-43.266,-32.672,-33.33,-27.835,-28.139
-15.756,-15.477,-27.439,-38.055,-30.354,-29.942,-27.033,-26.358
-16.297,-14.807,-22.438,-29.452,-24.18,-23.007,-23.906,-19.646
-18.132,-16.736,-17.389,-22.714,-18.125,-16.28,-19.867,-13.699
-20.529,-19.557,-13.308,-20.084,-13.63,-12.556,-15.702,-11.144
-21.224,-19.298,-11.02,-20.34,-11.664,-11.618,-13.459,-10.963
-19.823,-17.636,-11.62,-22.279,-13.59,-12.527,-15.138,-13.468
-18.559,-18.215,-13.603,-24.412,-17.296,-13.599,-18.272,-17.119
-19.743,-21.239,-14.494,-24.681,-18.897,-12.83,-17.995,-17.54
-22.589,-24.431,-14.423,-23.477,-18.381,-11.419,-15.21,-15.557
-24.456,-25.712,-15.342,-23.753,-18.65,-12.738,-15.609,-17.386
-24.113,-23.869,-17.236,-26.031,-19.829,-16.404,-19.236,-23.249
-22.253,-19.092,-17.545,-27.44,-19.251,-18.558,-20.627,-26.488
-20.837,-14.006,-15.366,-26.38,-16.364,-17.329,-17.903,-24.521
-22.026,-13.083,-13.53,-25.186,-14.138,-15.127,-14.725,-21.235
-25.841,-18.475,-13.905,-26.659,-14.717,-15.211,-14.635,-19.478
-28.642,-25.622,-13.419,-28.295,-15.181,-15.967,-15.315,-17.415
-27.569,-27.821,-10.954,-26.741,-13.559,-14.678,-13.668,-14.749
-26.148,-25.635,-12.819,-25.845,-15.578,-14.422,-13.775,-15.78
-28.955,-24.852,-22.054,-29.019,-24.746,-16.873,-18.556,-20.149
-34.526,-27.105,-31.938,-31.785,-34.632,-17.575,-22.572,-21.461
-39.391,-28.913,-36.647,-30.798,-39.212,-15.333,-22.217,-19.148
-42.517,-26.85,-37.187,-28.88,-39.346,-14.104,-21.126,-18.789
-43.624,-21.035,-35.59,-28.224,-37.265,-15.359,-22.464,-21.002
-42.565,-15.687,-31.909,-27.228,-33.52,-16.793,-24.82,-20.968
-40.396,-14.893,-26.681,-24.299,-28.448,-16.341,-25.768,-17.864
-38.62,-17.688,-22.047,-21.179,-23.252,-14.554,-24.534,-16.656
-37.335,-20.465,-19.525,-20.657,-19.706,-13.139,-21.812,-19.659
-35.214,-21.667,-18.158,-21.661,-18.22,-12.15,-19.323,-22.472
-32.516,-21.646,-16.885,-21.254,-17.711,-11.127,-18.893,-21.248
-31.467,-21.018,-16.693,-20.709,-18.089,-11.621,-21.236,-18.661
-31.897,-19.13,-18.41,-22.621,-19.945,-14.327,-25.07,-18.128
-30.84,-14.493,-21.118,-24.246,-22.227,-15.382,-27.612,-17.504
-27.313,-8.609,-22.898,-21.81,-22.941,-11.367,-27.147,-14.379
-24.018,-5.073,-22.76,-17.875,-22.142,-5.965,-24.753,-12.073
-23.428,-3.798,-21.929,-16.271,-21.413,-4.421,-22.433,-13.143
-24.904,-3.372,-21.819,-16.208,-21.055,-6.615,-20.773,-14.432
-27.14,-5.652,-22.838,-17.482,-21.564,-11.374,-20.536,-14.622
-28.787,-9.44,-24.376,-20.748,-23.318,-17.637,-22.688,-15.785
-27.248,-9.083,-24.774,-22.322,-23.648,-21.365,-24.805,-16.65
-22.703,-5.197,-24.238,-19.822,-21.284,-21.24,-23.76,-15.214
-19.96,-4.69,-24.793,-17.186,-19.513,-21.398,-21.526,-13.724
-22.143,-8.815,-25.401,-16.703,-19.427,-22.974,-21.122,-13.473
-26.725,-12.029,-22.85,-14.427,-17.373,-21.344,-19.652,-11.18
-29.489,-11.832,-17.913,-8.287,-12.354,-14.597,-13.605,-5.782
-29.099,-10.863,-14.807,-2.568,-8.599,-6.947,-6.7,-0.864
-27.764,-10.408,-15.403,-1.008,-9.054,-2.544,-4.947,1.357
-27.854,-8.424,-17.446,-1.623,-11.212,-1.076,-8.335,1.165
-27.635,-3.757,-16.672,-0.284,-10.187,0.437,-11.438,-0.091
-23.758,1.212,-10.921,3.259,-4.59,2.772,-10.316,-0.326
-17.298,3.912,-3.415,5.621,1.655,4.281,-7.197,0.621
-12.16,4.554,0.43,6.013,4.146,6.222,-5.756,1.695
-9.554,3.399,-0.806,6.843,2.51,10.859,-5.371,3.323
-7.558,1.059,-3.82,8.175,-0.666,15.28,-4.852,5.296
-3.86,1.791,-5.133,7.805,-2.955,15.42,-5.079,5.478
1.064,7.76,-5.233,4.645,-4.544,11.83,-7.017,2.513
3.881,13.791,-6.905,-1.15,-7.578,6.828,-11.937,-2.589
3.816,16.037,-9.566,-7.762,-11.607,1.195,-19.09,-7.333
4.027,17.399,-10.037,-11.771,-13.259,-4.183,-24.152,-9.496
5.611,19.231,-8.734,-11.606,-11.829,-7.171,-25.009,-8.73
5.665,18.487,-9.194,-9.687,-10.651,-7.855,-24.378,-7.354
2.571,14.5,-11.752,-8.674,-11.687,-8.687,-23.718,-8.113
-2.054,8.785,-13.103,-7.764,-12.896,-9.147,-21.057,-10.027
-7.474,1.14,-12.257,-6.341,-12.801,-7.678,-17.008,-9.871
-14.056,-6.339,-11.592,-6.405,-12.972,-6.211,-15.233,-7.984
-19.043,-8.161,-11.55,-7.168,-13.747,-5.111,-15.604,-6.78
-18.479,-4.177,-10.074,-4.652,-13.172,-1.279,-14.96,-4.913
-14.043,-2.27,-8.34,-0.075,-12.382,4.029,-14.357,-1.331
-11.474,-7.289,-9.357,0.596,-13.986,5.616,-17.066,-0.313
-11.741,-13.649,-10.376,-2.63,-14.723,3.744,-20.57,-3.032
-10.937,-14.465,-6.957,-4.039,-10.362,3.432,-19.351,-3.193
-7.974,-11.043,-1.719,-2.663,-4.271,5.527,-13.959,1.627
-5.526,-8.268,0.196,-2.682,-1.919,6.004,-9.759,5.356
-4.946,-7.296,-1.214,-5.144,-3.102,3.758,-8.727,4.538
-5.673,-6.428,-3.049,-6.535,-4.857,2.81,-8.399,1.938
-7.228,-4.833,-3.59,-4.226,-5.606,6.084,-7.184,-0.857
-8.228,-3.224,-2.376,0.824,-4.572,11.932,-6.362,-2.749
-7.756,-2.538,-1.517,5.277,-3.253,16.336,-7.675,-1.031
-7.921,-2.794,-4.897,6.155,-5.679,16.439,-10.831,2.498
-10.348,-4.129,-12.347,3.042,-12.469,12.867,-13.763,2.212
-12.729,-6.554,-18.513,-1.477,-18.582,9.323,-14.623,-0.971
-11.382,-6.065,-18.424,-3.796,-19.009,8.129,-12.758,-1.176
-5.484,1.231,-11.769,-3.635,-13.674,5.929,-8.988,0.718
1.471,9.073,-2.287,-3.142,-6.142,0.4,-5.129,0.673
5.115,7.283,5.854,-1.804,0.163,-2.89,-3.149,0.563
4.401,-3.133,10.164,1.198,3.275,-0.559,-3.995,2.584
0.638,-12.383,10.446,3.702,3.181,2.498,-5.412,4.262
-4.021,-14.245,9.319,4.396,2.334,3.449,-3.62,3.791
-6.389,-9.285,8.695,4.127,2.49,3.813,0.424,2.338
-5.147,-1.918,6.742,3.234,2.087,2.485,1.236,0.945
-2.471,2.689,2.402,1.431,-0.413,-2.483,-2.275,-0.271
-0.9,1.763,-1.971,-1.201,-3.854,-9.089,-4.619,-1.02
-1.595,-3.357,-4.678,-3.119,-6.353,-12.677,-1.847,-0.565
-4.251,-8.115,-5.669,-1.709,-6.723,-10.514,4.648,1.848
-6.781,-8.63,-4.201,3.186,-4.427,-4.897,11.088,5.891
-7.574,-5.255,-0.573,8.359,-0.597,0.301,14.429,10.243
-7.156,-0.875,2.158,11.036,2.166,4.426,15.21,13.837
-5.558,3.079,2.27,11.334,2.857,7.591,15.92,14.956
-2.071,6.757,2.038,10.863,3.182,8.565,16.135,12.433
0.718,8.62,3.418,10.117,4.295,7.591,14.566,9.146
-1.161,5.183,4.768,7.768,4.963,5.931,12.705,7.506
-5.699,-2.791,4.849,4.019,4.883,4.164,12.03,5.604
-6.386,-7.916,6.06,2.571,6.511,3.794,12.149,4.256
-2.04,-6.184,9.442,4.725,10.272,5.288,12.286,6.958
0.823,-3.054,10.869,5.781,11.824,5.236,11.724,10.61
-2.322,-3.057,7.612,3.288,8.529,2.148,10.396,9.572
-6.631,-2.381,4.377,2.284,5.037,0.694,10.2,6.412
-5.821,1.766,6.03,6.054,6.526,3.79,13.022,6.763
-1.768,5.17,9.686,9.8,10.519,7.292,16.91,9.261
1.203,5.944,10.771,8.893,11.827,6.84,17.745,9.237
