EEG 1,EEG 2,EEG 3,EEG 4,EEG 5,EEG 6,EEG 7,EEG 8
-651.238,-649.707,-650.052,-650.155,-2052.874,-2087.847,-647.301,-648.266
-645.725,-644.287,-644.187,-644.316,-2015.383,-2040.104,-641.535,-642.571
-647.893,-646.426,-647.956,-648.305,-1998.109,-2054.63,-645.506,-646.596
-671.088,-669.635,-672.491,-672.847,-2018.152,-2100.801,-670.103,-671.276
-705.022,-703.623,-705.754,-705.892,-2049.285,-2131.981,-703.214,-704.503
-740.995,-739.742,-740.837,-740.979,-2086.852,-2165.88,-738.171,-739.469
-774.679,-773.717,-775.292,-775.685,-2124.708,-2201.194,-772.752,-773.865
-798.724,-797.931,-800.493,-800.974,-2131.344,-2193.637,-798.226,-799.16
-810.893,-809.864,-812.504,-812.837,-2102.178,-2149.937,-810.346,-811.287
-819.21,-817.853,-820.058,-820.234,-2064.298,-2119.728,-817.809,-818.823
-832.866,-831.594,-833.683,-833.774,-2037.822,-2114.23,-831.433,-832.438
-849.884,-848.948,-851.257,-851.24,-2014.516,-2094.617,-849.166,-850.111
-859.861,-859.001,-861.436,-861.271,-1973.251,-2033.976,-859.433,-860.339
-859.355,-858.306,-860.579,-860.328,-1916.49,-1960.583,-858.488,-859.389
-856.551,-855.445,-857.584,-857.29,-1860.295,-1908.713,-855.357,-856.254
-860.055,-859.103,-861.457,-861.102,-1812.329,-1872.923,-859.211,-860.071
-867.261,-866.442,-869.063,-868.759,-1764.72,-1823.322,-866.947,-867.831
-868.634,-867.952,-870.324,-870.214,-1701.679,-1744.046,-868.463,-869.467
-861.125,-860.681,-862.334,-862.356,-1623.245,-1653.177,-860.936,-861.885
-850.584,-850.271,-851.392,-851.45,-1539.102,-1569.754,-850.603,-851.197
-843.071,-842.662,-843.835,-843.937,-1456.747,-1491.253,-843.351,-843.703
-836.892,-836.37,-837.917,-837.93,-1373.497,-1401.396,-837.22,-837.678
-825.375,-824.834,-826.52,-826.285,-1276.931,-1289.151,-825.599,-826.134
-805.334,-804.784,-805.98,-805.69,-1162.614,-1160.665,-805.256,-805.628
-775.126,-774.574,-774.628,-774.544,-1020.955,-1003.344,-774.27,-774.506
-728.26,-727.733,-726.376,-726.387,-835.416,-789.574,-726.237,-726.429
-663.997,-663.452,-661.162,-661.038,-621.1,-550.06,-661.177,-661.224
-602.672,-602.141,-600.106,-599.886,-439.636,-376.875,-600.365,-600.24
-564.551,-564.308,-563.478,-563.27,-331.751,-295.964,-563.942,-563.833
-536.862,-537.12,-537.326,-537.055,-247.315,-210.498,-537.814,-537.789
-495.816,-496.393,-496.815,-496.426,-129.383,-64.898,-497.3,-497.187
-444.9,-445.428,-445.143,-444.769,-0.865,79.967,-445.753,-445.493
-397.357,-397.711,-395.948,-395.738,107.753,190.794,-396.704,-396.477
-349.294,-349.658,-346.983,-346.955,211.273,298.286,-347.856,-347.711
-298.568,-299.097,-297.454,-297.505,312.906,396.014,-298.53,-298.243
-258.758,-259.297,-259.483,-259.502,377.829,441.819,-260.855,-260.299
-232.466,-232.835,-233.416,-233.389,409.954,461.522,-234.951,-234.36
-201.371,-201.743,-201.302,-201.243,468.842,530.976,-202.668,-202.335
-155.952,-156.571,-155.447,-155.332,567.981,645.465,-156.472,-156.381
-109.365,-110.155,-109.383,-109.243,656.054,730.169,-110.233,-110.204
-76.208,-76.948,-76.709,-76.634,698.049,756.917,-77.689,-77.638
-53.307,-53.954,-53.772,-53.755,719.271,774.728,-55.078,-54.944
-26.597,-27.281,-26.96,-26.881,766.448,835.297,-28.523,-28.204
10.395,9.612,9.979,10.18,844.582,925.465,8.452,8.925
49.857,49.066,49.511,49.743,922.044,999.53,48.175,48.672
79.891,79.099,79.669,79.788,971.258,1037.477,78.304,78.856
100.319,99.448,99.894,99.857,997.875,1061.389,98.183,98.952
122.458,121.609,121.719,121.599,1032.969,1105.677,119.695,120.639
152.89,152.213,152.327,152.191,1089.378,1170.424,150.364,151.201
186.233,185.643,186.294,186.153,1154.428,1230.699,184.557,185.171
213.882,213.216,214.309,214.201,1208.222,1269.62,212.554,213.145
234.981,234.186,235.059,235.057,1244.663,1295.352,233.096,233.822
255.709,254.755,255.097,255.192,1277.235,1328.945,253.047,253.83
279.946,278.845,279.198,279.251,1315.297,1372.257,277.211,277.963
305.031,303.937,305.026,304.879,1357.823,1413.648,303.029,303.822
325.682,324.712,326.352,326.049,1393.059,1440.905,324.304,325.172
341.161,340.167,341.445,341.231,1410.814,1451.942,339.517,340.36
355.541,354.33,354.929,354.957,1419.087,1460.97,353.185,354.011
371.11,369.76,370.286,370.509,1428.087,1475.455,368.587,369.488
386.509,385.19,386.192,386.482,1441.56,1491.192,384.465,385.319
399.929,398.634,399.934,400.126,1453.745,1499.798,398.227,398.84
411.432,410.104,411.192,411.165,1456.816,1498.631,409.499,409.999
421.665,420.33,421.17,420.964,1452.777,1493.708,419.286,420.026
430.924,429.623,430.744,430.433,1444.511,1486.043,428.403,429.466
439.91,438.645,440.367,440,1436.316,1477.786,437.679,438.798
447.953,446.744,448.679,448.39,1426.434,1467.849,446.117,447.121
453.645,452.546,454.05,453.954,1408.997,1450.065,451.889,452.821
457.437,456.468,457.347,457.415,1388.074,1426.585,455.495,456.362
461.028,460.112,460.733,460.95,1366.837,1401.505,459.051,459.848
465.533,464.523,465.344,465.724,1348.096,1380.594,463.718,464.552
469.986,468.836,469.942,470.318,1331.915,1363.017,468.238,469.219
472.878,471.766,472.852,473.033,1311.649,1339.018,471.116,472.208
473.719,472.8,473.62,473.698,1282.978,1305.334,472.059,473.106
472.4,471.53,472.233,472.372,1244.499,1264.34,470.845,471.753
469.325,468.321,469.115,469.294,1201.428,1222.086,467.689,468.544
464.353,463.354,464.16,464.324,1152.044,1173.959,462.669,463.572
457.015,456.189,457.038,457.145,1089.287,1110.12,455.591,456.481
451.292,450.486,451.648,451.67,1035.135,1053.5,450.28,451.025
463.283,462.353,463.747,463.757,1058.598,1076.439,462.457,463.046
514.216,513.286,514.585,514.626,1239.551,1259.43,513.188,513.81
600.368,599.443,600.763,600.816,1554.802,1576.181,598.918,599.815
687.717,686.592,688.242,688.386,1867.834,1887.364,685.917,687.082
750.017,748.701,750.616,750.882,2086.648,2101.623,748.077,749.286
791.08,789.718,791.705,791.996,2230.094,2242.918,789.069,790.223
825.951,824.488,826.615,826.918,2347.835,2365.648,823.806,824.957
859.913,858.253,860.751,861.064,2455.412,2480.569,857.734,858.875
890.831,888.968,891.892,892.123,2551.733,2576.919,888.772,889.838
917.037,915.034,918.069,918.254,2639.284,2657.734,914.997,916.042
936.818,934.919,937.698,937.959,2706.832,2720.416,934.664,935.896
949.84,948.267,950.844,951.195,2746.528,2759.461,947.711,949.238
959.986,958.556,961.209,961.678,2770.539,2782.867,958.006,959.659
972.017,970.367,973.133,973.721,2796.911,2806.74,969.981,971.583
985.043,983.125,985.922,986.382,2829.09,2835.79,982.712,984.312
992.728,990.752,993.572,993.738,2844.087,2848.972,990.182,991.872
992.258,990.262,993.065,993.246,2828.782,2834.596,989.729,991.433
988.25,986.134,988.925,989.447,2800.07,2808.756,985.885,987.455
986.93,984.822,987.727,988.338,2779.864,2791.52,984.751,986.198
988.584,986.686,989.676,989.948,2771.695,2785.386,986.431,987.904
987.643,985.813,988.699,988.676,2755.218,2769,985.283,986.852
981.496,979.483,982.21,982.247,2719.597,2731.806,978.943,980.491
973.629,971.548,974.163,974.43,2677.555,2688.739,971.178,972.516
968.309,966.421,968.97,969.347,2645.394,2656.564,966.215,967.284
965.701,963.937,966.556,966.823,2625.728,2635.991,963.847,964.835
961.199,959.379,962.109,962.207,2598.716,2607.185,959.262,960.413
951.342,949.604,952.224,952.304,2551.957,2560.036,949.318,950.635
938.732,937.305,939.682,939.811,2496.567,2505.608,936.916,938.236
928.429,927.226,929.509,929.625,2447.851,2456.561,926.872,928.147
921.253,919.995,922.309,922.502,2409.716,2415.714,919.678,920.942
913.325,911.859,914.239,914.58,2369.549,2371.535,911.631,912.797
902.013,900.39,902.918,903.123,2320.176,2318.684,900.439,901.384
888.645,887.076,889.68,889.579,2265.828,2263.211,887.376,888.147
876.621,875.388,877.807,877.77,2213.076,2211.347,875.588,876.4
867.621,866.824,868.952,869.285,2168.307,2166.623,866.649,867.696
859.098,858.499,860.408,860.888,2124.61,2120.483,858.024,859.221
847.834,847.126,848.865,849.165,2073.286,2066.539,846.642,847.609
833.631,832.753,834.4,834.501,2014.335,2008.556,832.505,833.01
819.097,818.132,819.79,819.912,1954.637,1953.428,818.136,818.464
806.638,805.659,807.324,807.613,1903.582,1906.615,805.734,806.289
795.179,794.294,795.919,796.266,1852.873,1858.877,794.269,795.057
782.189,781.45,783.067,783.309,1791.502,1802.644,781.273,782.114
767.49,766.74,768.412,768.536,1726.028,1743.407,766.46,767.315
753.344,752.43,754.165,754.222,1669.23,1687.532,752.224,753.081
740.69,739.735,741.485,741.47,1623.646,1636.277,739.796,740.568
727.401,726.599,728.268,728.181,1575.029,1581.283,726.834,727.477
712.312,711.607,713.079,713.056,1515.121,1519.598,711.74,712.301
696.537,695.743,697.036,697.207,1447.777,1455.102,695.772,696.306
681.542,680.561,681.863,682.191,1380.151,1390.803,680.771,681.258
668.082,666.965,668.294,668.76,1321.953,1332.687,667.452,667.849
655.206,654.191,655.349,655.939,1271.43,1279.218,654.658,655.008
641.526,640.858,641.871,642.337,1221.771,1226.264,640.987,641.356
626.929,626.55,627.646,627.801,1168.816,1171.68,626.46,626.8
612.818,612.485,613.654,613.688,1112.258,1115.192,612.566,612.785
600.086,599.675,600.707,600.798,1059.932,1062.535,600.033,600.124
587.365,586.89,587.711,587.741,1012.399,1012.091,587.31,587.339
573.692,573.209,573.908,573.812,965.262,960.89,573.515,573.514
559.826,559.365,560.052,559.983,916.794,911.03,559.555,559.491
546.809,546.302,547.069,547.088,868.935,864.485,546.49,546.443
534.242,533.638,534.506,534.508,826.234,822.04,533.969,534.047
520.343,519.748,520.598,520.57,781.662,776.008,520.274,520.29
505.15,504.639,505.358,505.345,729.883,723.283,505.241,504.967
489.953,489.478,490.09,490.027,675.444,668.203,489.97,489.603
475.323,474.959,475.567,475.394,622.805,614.831,475.319,475.203
461.627,461.557,462.233,462.025,576.119,569.106,461.962,461.99
448.631,448.796,449.48,449.348,531.98,527.366,449.379,449.129
435.978,436.046,436.646,436.625,486.094,482.349,436.818,436.249
423.128,422.959,423.493,423.543,437.806,431.735,423.852,423.381
409.439,409.293,409.828,409.858,389.326,378.806,410.173,409.966
395.144,395.249,395.855,395.775,345.066,330.753,396.152,395.87
380.619,380.88,381.592,381.356,298.918,283.549,381.921,381.402
366.363,366.676,367.258,366.911,248.135,233.665,367.565,367.102
352.539,352.949,353.068,352.787,198.642,184.89,353.373,353.091
338.566,339.002,338.806,338.73,152.273,138.556,339.301,338.949
324.137,324.376,324.363,324.429,107.968,94.307,325.04,324.515
309.517,309.471,309.733,309.858,60.907,47.433,310.445,309.904
295.102,294.971,295.139,295.325,12.388,-0.122,295.923,295.423
280.642,280.768,280.649,280.781,-33.781,-43.888,281.517,281.001
266.783,267.304,267.076,266.961,-78.237,-86.784,267.836,267.307
254.812,255.489,255.277,254.976,-119.432,-129.732,255.84,255.357
243.384,243.956,243.634,243.463,-160.123,-173.675,244.113,243.781
230.522,231.01,230.498,230.65,-199.374,-215.088,231.032,230.901
216.419,216.873,216.345,216.668,-234.996,-252.508,217.112,216.976
202.656,202.953,202.645,202.855,-271.893,-291.509,203.774,203.341
190.31,190.422,190.364,190.377,-310.375,-330.666,191.75,191.006
178.402,178.622,178.604,178.507,-350.22,-368.485,180.049,179.135
165.562,166.178,165.971,165.833,-390.001,-404.798,167.361,166.329
151.893,152.769,152.34,152.178,-428.342,-441.592,153.599,152.566
139.027,139.771,139.255,139.066,-465.585,-481.634,140.365,139.55
127.888,128.387,127.827,127.707,-498.736,-519.345,128.948,128.361
116.874,117.423,116.734,116.804,-531.816,-553.871,118.045,117.458
105.182,106.056,105.271,105.41,-566.452,-587.377,106.729,105.989
93.791,94.843,94.042,94.103,-599.792,-621.614,95.639,94.762
82.913,83.813,82.888,83.051,-633.839,-658.627,84.774,83.84
71.968,72.7,71.604,71.995,-667.562,-693.124,73.647,72.736
60.827,61.596,60.552,60.884,-700.966,-723.566,62.366,61.527
50.294,51.105,50.232,50.288,-733.188,-751.059,51.789,51.05
40.17,40.899,40.01,39.971,-763.974,-778.222,41.623,40.99
29.463,30.15,29.175,29.17,-794.471,-808.565,30.855,30.33
18.718,19.524,18.657,18.566,-819.239,-836.369,20.154,19.722
8.83,9.727,8.993,8.862,-838.59,-859.441,10.441,9.982
-0.175,0.532,-0.245,-0.166,-857.62,-880.338,1.572,0.888
-9.448,-8.986,-9.891,-9.593,-881.609,-903.411,-7.696,-8.622
-20.364,-19.771,-20.834,-20.546,-911.637,-932.174,-18.708,-19.663
-32.105,-31.214,-32.446,-32.216,-938.606,-960.126,-30.647,-31.468
-42.585,-41.632,-43.003,-42.652,-961.548,-984.906,-41.273,-41.966
-51.364,-50.353,-51.845,-51.352,-984.927,-1009.295,-49.889,-50.482
-60.046,-58.692,-60.249,-59.899,-1010.424,-1035.98,-58.209,-58.751
-69.094,-67.458,-68.945,-68.995,-1037.397,-1064.526,-67.127,-67.795
-77.552,-76.04,-77.371,-77.736,-1059.85,-1087.58,-75.734,-76.656
-86.122,-84.852,-86.106,-86.506,-1080.217,-1107.69,-84.35,-85.306
-95.627,-94.345,-95.624,-95.896,-1102.967,-1130.211,-93.698,-94.361
-105.436,-104.032,-105.311,-105.451,-1127.078,-1153.41,-103.44,-103.848
-114.542,-113.208,-114.518,-114.549,-1149.747,-1174.293,-112.781,-113.238
-122.463,-121.307,-122.776,-122.756,-1165.588,-1190.256,-121.06,-121.715
-130.319,-129.2,-130.744,-130.812,-1180.244,-1208.574,-128.985,-129.71
-139.248,-138.053,-139.479,-139.686,-1201.116,-1232.723,-137.627,-138.245
-148.635,-147.387,-148.805,-148.959,-1225.769,-1255.626,-146.757,-147.284
-157.059,-155.713,-157.427,-157.306,-1247.977,-1272.54,-155.137,-155.763
-164.229,-162.718,-164.774,-164.428,-1262.699,-1283.322,-162.277,-163.123
-170.995,-169.463,-171.592,-171.252,-1275.709,-1295.314,-168.976,-169.903
-176.987,-175.654,-177.6,-177.365,-1288.679,-1308.484,-175.047,-175.77
-181.821,-180.647,-182.392,-182.204,-1296.919,-1316.271,-180.068,-180.493
-186.828,-185.587,-187.278,-187.074,-1304.332,-1320.974,-185.123,-185.467
-192.912,-191.586,-193.301,-193.102,-1315.555,-1326.721,-191.128,-191.586
-199.257,-198.057,-199.717,-199.637,-1331.23,-1336.292,-197.523,-198.004
-204.859,-203.833,-205.434,-205.507,-1342.996,-1345.637,-203.325,-203.733
-210.866,-209.752,-211.558,-211.563,-1346.453,-1352.608,-209.356,-209.88
-218.105,-216.719,-218.885,-218.623,-1351.312,-1362.502,-216.324,-217.101
-224.739,-223.23,-225.481,-225.115,-1362.376,-1374.322,-222.712,-223.562
-230.304,-228.883,-230.916,-230.653,-1376.426,-1387.34,-228.274,-229.09
-235.906,-234.668,-236.535,-236.187,-1383.356,-1398.1,-234.003,-234.918
-240.983,-239.982,-241.846,-241.19,-1380.623,-1403.11,-239.195,-240.175
-244.617,-243.773,-245.621,-244.87,-1381.082,-1407.282,-242.861,-243.67
-248.135,-247.201,-249.014,-248.494,-1389.015,-1410.876,-246.318,-246.999
-253.301,-252.164,-254.039,-253.796,-1398.312,-1412.401,-251.483,-252.317
-258.593,-257.404,-259.244,-259.195,-1400.437,-1409.823,-256.903,-257.949
-261.948,-260.84,-262.371,-262.478,-1395.148,-1404.204,-260.291,-261.449
-264.3,-263.199,-264.443,-264.622,-1390.167,-1401.27,-262.52,-263.729
-266.884,-265.665,-266.969,-266.998,-1382.839,-1397.85,-265.075,-266.163
-269.192,-267.853,-269.5,-269.155,-1370.4,-1390.742,-267.482,-268.324
-270.619,-269.274,-271.197,-270.59,-1357.626,-1381.154,-268.905,-269.749
-272.669,-271.364,-273.192,-272.786,-1352.404,-1374.848,-270.75,-271.947
-276.559,-275.263,-276.725,-276.807,-1355.606,-1376.418,-274.483,-275.976
-280.426,-279.151,-280.398,-280.717,-1355.898,-1376.899,-278.506,-279.962
-282.802,-281.528,-282.887,-283.024,-1352.738,-1372.61,-281.164,-282.477
-284.88,-283.574,-285.08,-285.03,-1351.556,-1368.068,-283.333,-284.596
-288.323,-287.057,-288.516,-288.572,-1350.966,-1365.185,-286.705,-287.875
-292.503,-291.355,-292.725,-292.958,-1348.315,-1363.108,-290.814,-291.829
-295.39,-294.415,-295.796,-295.98,-1340.285,-1358.248,-293.714,-294.712
-297.192,-296.412,-297.834,-297.777,-1331.63,-1354.18,-295.589,-296.682
-299.006,-298.134,-299.6,-299.403,-1325.539,-1351.418,-297.333,-298.431
-300.396,-299.059,-300.6,-300.497,-1319.561,-1345.982,-298.484,-299.505
-300.856,-299.174,-300.805,-300.841,-1313.364,-1339.515,-298.82,-299.856
-301.592,-299.942,-301.636,-301.737,-1303.53,-1331.14,-299.637,-300.785
-304.431,-302.967,-304.545,-304.722,-1293.493,-1322.882,-302.623,-303.748
-308.201,-307.021,-308.259,-308.51,-1288.591,-1315.679,-306.713,-307.514
-310.392,-309.595,-310.636,-310.848,-1287.12,-1307.989,-309.473,-309.848
-311.643,-311.064,-312.293,-312.361,-1286.242,-1302.364,-311.13,-311.342
-314.304,-313.605,-315.048,-315.026,-1283.739,-1297.903,-313.629,-313.992
-318.594,-317.647,-319.051,-319.077,-1283.855,-1295.928,-317.407,-317.983
-322.495,-321.487,-322.783,-322.911,-1284.867,-1295.474,-320.966,-321.654
-325.38,-324.496,-325.782,-325.974,-1280.706,-1292.955,-323.851,-324.559
-328.169,-327.337,-328.698,-328.892,-1274.278,-1289.422,-326.798,-327.426
-330.792,-329.866,-331.305,-331.499,-1267.484,-1283.726,-329.586,-330.047
-332.992,-331.901,-333.46,-333.674,-1262.988,-1280.058,-331.898,-332.282
-335.104,-333.895,-335.617,-335.843,-1259.988,-1281.601,-334.05,-334.537
-337.841,-336.764,-338.415,-338.673,-1254.891,-1284.14,-336.792,-337.357
-340.865,-340.112,-341.423,-341.728,-1250.741,-1283.805,-339.775,-340.307
-342.492,-341.821,-342.915,-343.272,-1248.635,-1277.371,-341.234,-341.767
-342.716,-341.751,-342.875,-343.357,-1248.763,-1270.206,-341.238,-341.8
-343.091,-341.91,-343.146,-343.692,-1247.414,-1264.904,-341.618,-342.128
-344.536,-343.542,-344.881,-345.252,-1241.419,-1257.245,-343.363,-343.742
-346.316,-345.652,-346.967,-347.148,-1235.123,-1248.601,-345.424,-345.647
-346.931,-346.333,-347.519,-347.732,-1228.084,-1239.64,-346.025,-346.19
-346.591,-345.816,-346.998,-347.29,-1218.516,-1230.94,-345.475,-345.745
-346.042,-345.241,-346.524,-346.787,-1203.903,-1219.558,-344.861,-345.215
-345.461,-344.822,-346.103,-346.328,-1185.367,-1204.533,-344.363,-344.65
-345.358,-344.654,-345.885,-346.112,-1171.219,-1193.018,-344.128,-344.354
-345.882,-344.922,-346.171,-346.406,-1161.429,-1184.122,-344.405,-344.665
-346.426,-345.496,-346.687,-347.001,-1152.115,-1173.352,-345.05,-345.31
-345.726,-345.107,-346.08,-346.501,-1139.804,-1157.773,-344.749,-344.903
-343.85,-343.368,-344.231,-344.546,-1127.328,-1140.185,-343.099,-343.149
-343.24,-342.628,-343.653,-343.64,-1123.877,-1129.898,-342.413,-342.425
-345.362,-344.697,-345.875,-345.723,-1125.055,-1125.326,-344.485,-344.41
-348.703,-348.193,-349.29,-349.416,-1121.792,-1120.234,-348.02,-347.787
-350.921,-350.459,-351.399,-351.883,-1112.068,-1111.586,-350.425,-350.128
-351.65,-350.934,-351.816,-352.401,-1101.138,-1101.052,-351.038,-350.785
-351.23,-350.326,-351.158,-351.667,-1093.827,-1092.527,-350.432,-350.181
-349.541,-348.957,-349.615,-349.982,-1083.951,-1083.315,-348.88,-348.581
-348.091,-348.019,-348.478,-348.672,-1071.788,-1075.834,-347.652,-347.39
-348.155,-348.125,-348.541,-348.725,-1062.712,-1072.335,-347.584,-347.548
-348.691,-348.312,-348.847,-349.198,-1055.947,-1067.888,-347.842,-348.113
-348.195,-347.645,-348.311,-348.723,-1048.42,-1059.167,-347.366,-347.729
-346.445,-346.014,-346.722,-347.01,-1035.376,-1044.515,-345.829,-346.058
-344.828,-344.512,-345.234,-345.424,-1022.073,-1030.906,-344.223,-344.41
-344.306,-344.04,-344.834,-345.031,-1015.579,-1023.937,-343.532,-343.841
-344.635,-344.469,-345.367,-345.58,-1013.103,-1020.827,-343.813,-344.23
-344.99,-344.897,-345.852,-346.059,-1008.064,-1017.841,-344.287,-344.773
-344.403,-344.186,-345.19,-345.338,-994.31,-1008.804,-343.791,-344.293
-343.256,-342.783,-343.88,-343.878,-977.387,-995.351,-342.606,-342.983
-342.209,-341.647,-342.763,-342.602,-963.421,-980.754,-341.473,-341.747
-340.795,-340.403,-341.432,-341.168,-949.893,-963.079,-340.043,-340.449
-338.601,-338.366,-339.326,-339.062,-933.574,-942.873,-337.929,-338.499
-336.335,-336.071,-336.959,-336.907,-911.234,-920.782,-335.798,-336.214
-334.985,-334.671,-335.407,-335.706,-889.546,-902.624,-334.613,-334.643
-333.965,-333.764,-334.339,-334.891,-875.541,-890.95,-333.807,-333.634
-332.777,-332.758,-333.229,-333.914,-867.035,-881.382,-332.784,-332.72
-332.021,-332.079,-332.511,-333.226,-859.748,-871.396,-331.978,-332.062
-331.62,-331.71,-332.175,-332.694,-849.108,-857.804,-331.38,-331.515
-331.296,-331.404,-331.976,-332.136,-839.624,-844.393,-330.93,-331.106
-330.801,-330.719,-331.421,-331.332,-832.415,-834.33,-330.386,-330.558
-329.916,-329.477,-330.235,-330.149,-820.372,-825.076,-329.396,-329.466
-328.341,-327.79,-328.494,-328.569,-805.652,-816.59,-327.729,-327.736
-325.839,-325.555,-326.187,-326.343,-794.416,-807.333,-325.289,-325.385
-323.461,-323.418,-324.038,-324.054,-788.817,-799.501,-322.974,-323.242
-321.591,-321.461,-322.104,-321.97,-781.03,-791.224,-321.041,-321.348
-319.658,-319.35,-319.975,-319.93,-765.167,-776.216,-319.143,-319.179
-317.713,-317.416,-317.922,-318.055,-747.986,-757.857,-317.39,-317.032
-315.207,-315.014,-315.361,-315.511,-733.052,-741.599,-314.933,-314.5
-312.008,-311.817,-312.165,-312.224,-721.292,-730.586,-311.572,-311.429
-309.339,-309.11,-309.647,-309.616,-710.605,-719.611,-308.824,-308.885
-307.789,-307.57,-308.245,-308.137,-700.116,-704.074,-307.353,-307.301
-306.424,-306.128,-306.693,-306.669,-694.767,-690.708,-305.977,-305.788
-304.477,-304.041,-304.32,-304.62,-690.532,-681.031,-303.916,-303.844
-302.382,-302.028,-302.118,-302.692,-682.664,-672.294,-301.863,-302.005
-299.827,-299.739,-299.885,-300.441,-670.576,-661.099,-299.526,-299.648
-296.647,-296.688,-296.97,-297.339,-656.907,-649.326,-296.493,-296.361
-294.191,-294.229,-294.54,-294.747,-647.522,-644.979,-294.019,-293.766
-292.52,-292.601,-292.918,-293.074,-639.31,-643.094,-292.338,-292.268
-289.998,-289.986,-290.451,-290.631,-629.796,-635.52,-289.884,-289.988
-285.765,-285.357,-285.996,-286.204,-619.262,-621.538,-285.571,-285.675
-281.131,-280.399,-280.995,-281.254,-607.56,-606.934,-280.614,-280.77
-277.338,-276.742,-277.101,-277.413,-596.209,-597.407,-276.585,-276.857
-273.653,-273.413,-273.577,-273.881,-581.697,-586.204,-272.999,-273.231
-269.951,-269.825,-269.98,-270.23,-566.235,-571.136,-269.475,-269.57
-266.384,-266.071,-266.36,-266.533,-553.073,-556.399,-265.882,-265.966
-262.047,-261.549,-261.986,-262.046,-539.811,-542.666,-261.423,-261.641
-257.186,-256.748,-257.23,-257.165,-526.567,-530.17,-256.599,-256.899
-253.164,-252.912,-253.345,-253.197,-511.852,-515.674,-252.816,-252.924
-250,-249.799,-250.192,-250.075,-498.323,-501.11,-249.811,-249.595
-246.182,-245.935,-246.267,-246.292,-488.216,-488.25,-245.79,-245.607
-241.646,-241.389,-241.599,-241.72,-479.63,-474.816,-240.883,-241.097
-237.429,-237.082,-237.26,-237.304,-471.61,-461.952,-236.538,-236.915
-233.062,-232.551,-232.838,-232.68,-459.356,-447.503,-232.269,-232.449
-228.434,-227.952,-228.286,-227.979,-444.753,-432.604,-227.68,-227.784
-224.362,-224.133,-224.397,-224.158,-431.159,-418.842,-223.652,-223.921
-220.977,-220.892,-221.19,-221.17,-416.816,-405.677,-220.532,-220.854
-217.421,-217.186,-217.629,-217.788,-401.698,-395.205,-217.311,-217.454
-212.917,-212.475,-212.871,-213.122,-383.55,-383.657,-212.887,-212.841
-208.43,-208.021,-208.14,-208.427,-366.926,-371.576,-208.199,-208.094
-204.656,-204.499,-204.387,-204.59,-355.411,-361.251,-204.234,-204.146
-200.879,-200.965,-200.855,-200.787,-344.386,-349.806,-200.513,-200.494
-196.886,-196.975,-197.125,-196.759,-333.145,-337.576,-196.684,-196.832
-192.932,-192.735,-193.242,-192.859,-321.301,-323.877,-192.717,-193.086
-188.984,-188.517,-189.202,-189.092,-310.499,-310.953,-188.642,-189.141
-184.686,-184.295,-184.836,-184.948,-298.975,-298.905,-184.403,-184.791
-180.775,-180.607,-180.842,-180.967,-283.5,-285.141,-180.685,-180.739
-178.001,-177.818,-177.983,-178.092,-269.261,-272.437,-177.972,-177.765
-175.362,-175.033,-175.478,-175.608,-257.843,-259.217,-175.27,-175.103
-172.596,-172.312,-172.965,-173.012,-248.974,-245.766,-172.542,-172.485
-169.416,-169.4,-169.855,-169.782,-239.512,-232.275,-169.615,-169.469
-164.794,-165.096,-165.189,-165.137,-225.789,-215.51,-165.276,-165.033
-160.007,-160.49,-160.447,-160.436,-212.4,-197.864,-160.513,-160.383
-156.944,-157.378,-157.436,-157.277,-199.672,-180.113,-157.232,-157.226
-154.78,-155.016,-155.142,-154.811,-185.872,-164.456,-154.839,-154.759
-151.548,-151.557,-151.64,-151.379,-169.348,-151.645,-151.464,-151.289
-147.835,-147.62,-147.746,-147.667,-151.129,-139.017,-147.693,-147.557
-144.868,-144.477,-144.798,-144.747,-137.359,-127.039,-144.818,-144.684
-141.273,-140.808,-141.246,-141.113,-124.431,-112.651,-141.386,-141.148
-136.652,-136.235,-136.572,-136.386,-108.566,-96.522,-136.805,-136.526
-132.781,-132.514,-132.741,-132.483,-90.97,-80.831,-132.941,-132.681
-130.421,-130.239,-130.549,-130.213,-73.854,-66.693,-130.61,-130.37
-128.628,-128.365,-128.707,-128.484,-62.294,-58.358,-128.638,-128.5
-126.019,-125.714,-125.783,-125.836,-54.053,-51.266,-125.774,-125.773
-122.492,-122.317,-122.101,-122.288,-45.454,-40.402,-122.331,-122.313
-118.996,-118.899,-118.727,-118.797,-34.484,-25.764,-119.072,-118.964
-116.219,-116.022,-116.019,-115.929,-21.74,-10.421,-116.197,-116.187
-113.747,-113.455,-113.396,-113.39,-11.036,1.317,-113.439,-113.617
-110.945,-110.591,-110.382,-110.659,1.069,14.581,-110.622,-110.78
-108.313,-107.799,-107.72,-108.036,13.679,30.066,-108.236,-108.188
-105.318,-104.698,-104.94,-104.92,23.656,43.249,-105.462,-105.246
-101.19,-100.731,-101.032,-100.816,33.125,53.79,-101.398,-101.19
-97.472,-97.341,-97.401,-97.418,42.866,62.24,-97.693,-97.639
-95.294,-95.413,-95.316,-95.612,56.991,74.607,-95.602,-95.721
-93.653,-93.719,-93.685,-94.065,73.536,90.336,-94.019,-94.204
-91.274,-91.028,-91.13,-91.516,86.178,101.747,-91.613,-91.665
-88.693,-88.281,-88.542,-88.739,94.584,106.921,-89.054,-88.879
-86.594,-86.403,-86.766,-86.538,103.226,111.365,-87.052,-86.751
-83.797,-83.916,-84.17,-83.695,119.871,123.655,-84.305,-83.938
-80.332,-80.447,-80.511,-80.151,138.361,137.587,-80.764,-80.332
-77.712,-77.585,-77.655,-77.424,148.094,144.522,-78.015,-77.639
-76.131,-75.916,-76.147,-75.861,151.848,149.02,-76.385,-76.196
-74.464,-74.404,-74.674,-74.361,156.016,155.118,-74.77,-74.708
-71.954,-72.029,-72.154,-71.96,165.741,163.306,-72.377,-72.187
-69.23,-69.322,-69.281,-69.207,178.773,170.68,-69.742,-69.283
-66.389,-66.573,-66.4,-66.385,192.876,180.623,-66.879,-66.447
-63.047,-63.37,-63.103,-63.183,207.295,197.728,-63.454,-63.436
-59.691,-59.922,-59.716,-59.898,216.134,214.57,-60.012,-60.324
-56.643,-56.617,-56.544,-56.694,221.363,227.673,-56.842,-57.144
-54.023,-53.929,-53.775,-53.858,226.124,237.335,-54.122,-54.283
-51.331,-51.422,-51.052,-51.201,232.139,245.388,-51.59,-51.576
-48.257,-48.521,-48.175,-48.337,242.548,255.837,-48.958,-48.657
-45.44,-45.652,-45.622,-45.511,254.444,267.35,-46.461,-45.851
-42.699,-42.731,-42.971,-42.532,265.491,279.037,-43.56,-42.936
-39.813,-39.8,-40.051,-39.575,272.553,287.598,-40.244,-39.982
-36.865,-36.956,-37.02,-36.733,278.416,294.149,-37.098,-37.131
-33.601,-33.741,-33.509,-33.444,290.218,304.177,-33.975,-33.888
-30.297,-30.413,-29.919,-30.064,303.864,313.996,-30.831,-30.522
-27.581,-27.713,-27.206,-27.432,313.86,320.84,-28.12,-27.865
-25.699,-25.865,-25.6,-25.645,317.692,324.54,-26.224,-26.13
-23.498,-23.665,-23.599,-23.399,320.587,329.434,-24.065,-23.991
-19.824,-19.971,-19.769,-19.554,329.641,339.972,-20.338,-20.229
-15.304,-15.444,-14.865,-14.817,339.13,349.917,-15.693,-15.587
-10.845,-11.011,-10.29,-10.276,345.77,356.961,-11.321,-11.187
-7.033,-7.22,-6.761,-6.565,351.687,363.119,-7.762,-7.607
-4.053,-4.232,-4.024,-3.69,359.364,371.255,-4.809,-4.787
-1.598,-1.732,-1.549,-1.29,367.561,381.495,-2.124,-2.292
0.837,0.816,0.952,1.072,371.164,387.65,0.429,0.315
3.813,3.905,3.967,4.029,375.419,392.629,3.343,3.448
7.077,7.187,7.382,7.368,383.599,400.258,6.562,6.746
10.285,10.399,10.77,10.615,392.521,408.677,9.727,9.914
13.429,13.572,13.891,13.738,399.829,415.246,12.811,13.072
16.679,16.682,16.961,17.008,401.997,417.271,16.146,16.388
20.405,20.055,20.55,20.738,403.034,420.419,20.037,20.072
23.627,23.078,23.781,23.903,406.404,426.721,23.293,23.137
25.527,25.172,25.871,25.795,412.106,432.445,25.141,24.974
26.904,26.847,27.55,27.257,418.489,435.313,26.52,26.458
28.534,28.577,29.396,29.043,420.871,433.427,28.174,28.209
30.999,31.031,31.882,31.692,425.029,433.396,30.621,30.664
34.408,34.438,35.176,35.173,434.741,438.62,34.036,33.969
38.261,38.149,38.866,38.927,444.968,446.214,37.886,37.745
41.716,41.313,42.177,42.221,452.233,453.876,41.165,41.223
44.423,43.931,44.784,44.741,455.589,458.984,43.614,43.981
47.351,47.051,47.604,47.422,459.451,465.671,46.439,46.791
50.517,50.33,50.677,50.366,461.488,472.822,49.656,49.776
52.784,52.552,53,52.594,458.084,476.393,52.031,52.234
54.298,54.088,54.671,54.292,454.962,480.005,53.677,54.223
56.782,56.62,57.168,57.039,456.65,485.698,56.22,56.805
61.134,60.855,61.39,61.512,465.317,494.297,60.493,60.782
65.507,65.042,65.732,65.84,474.812,501.574,64.757,64.994
68.412,67.864,68.653,68.665,479.736,505.536,67.555,68.122
70.547,69.939,70.614,70.658,483.602,509.448,69.504,70.213
72.881,72.151,72.718,72.747,487.94,511.688,71.705,72.088
75.586,74.798,75.426,75.314,494.185,513.794,74.535,74.554
77.897,77.244,77.902,77.753,499.425,515.889,77.145,77.121
80.252,79.841,80.343,80.343,503.989,517.767,79.711,79.802
83.617,83.317,83.658,83.803,512.775,522.309,83.08,83.22
86.79,86.432,86.735,86.911,520.318,527.46,86.132,86.316
88.784,88.329,88.667,88.829,523.615,532.706,87.988,88.267
90.754,90.096,90.62,90.713,525.816,535.454,89.855,90.115
93.876,92.933,93.76,93.718,531.261,535.689,92.976,93.068
96.781,95.819,96.711,96.672,540.418,538.139,96.024,95.998
97.746,97.08,97.758,97.881,546.724,541.358,97.166,97.117
97.924,97.428,98.029,98.194,549.858,546.167,97.353,97.329
98.573,98.01,98.727,98.796,549.975,551.825,97.832,98.015
100.029,99.51,100.232,100.288,548.315,556.901,99.147,99.665
102.903,102.567,103.223,103.308,548.983,563.45,102.079,102.617
106.586,106.211,106.904,106.952,549.518,569.139,105.908,106.124
109.413,108.691,109.503,109.52,551.259,573.668,108.719,108.846
110.567,109.535,110.474,110.503,555.439,575.698,109.746,110.088
110.907,109.922,110.78,110.925,561.434,576.422,110.134,110.44
111.417,110.753,111.185,111.577,569.369,580.177,110.801,110.873
112.518,112.123,112.157,112.637,573.882,583.195,111.859,112.039
114.746,114.396,114.438,114.736,574.3,583.975,113.862,114.372
117.607,117.205,117.401,117.638,573.227,583.646,116.613,117.174
120.29,119.888,120.059,120.417,574.42,585.083,119.399,119.73
122.193,121.778,122.011,122.245,578.118,588.323,121.467,121.584
122.679,122.238,122.77,122.746,577.346,585.464,122.13,122.163
122.723,122.398,122.967,123.132,575.594,579.566,122.357,122.459
123.673,123.509,123.749,124.353,577.571,577.579,123.358,123.629
125.289,125.064,125.26,125.791,580.954,579.761,124.83,125.174
126.536,126.137,126.715,126.749,583.364,583.217,125.934,126.231
127.796,127.381,128.17,128.025,582.534,583.747,127.226,127.55
130.299,129.944,130.561,130.63,582.021,585.046,129.818,130.193
132.647,132.274,132.611,132.795,580.833,587.372,132.121,132.383
133.155,132.779,132.963,133.038,576.16,587.789,132.564,132.677
133.103,132.831,133.115,133.086,570.861,587.33,132.649,132.781
134.228,134.033,134.54,134.556,566.679,585.081,133.912,134.179
136.408,136.078,136.641,136.837,568.927,585.851,135.896,136.292
137.945,137.412,137.816,138.289,574.537,590.102,137.154,137.619
138.3,137.829,138.003,138.746,575.578,592.035,137.591,137.974
138.679,138.438,138.48,139.247,574.568,590.617,138.209,138.404
139.71,139.499,139.695,140.142,574.873,587.056,139.226,139.374
140.916,140.557,141.152,141.186,577.311,586.211,140.307,140.564
141.306,140.941,141.744,141.59,576.956,585.297,140.704,141
141.369,141.084,141.709,141.682,573.206,580.593,140.688,140.917
142.569,142.078,142.557,142.8,572.147,577.641,141.607,141.79
144.732,143.893,144.411,144.858,572.824,577.77,143.662,143.891
146.926,146.158,146.539,147.084,575.901,580.1,146.092,146.417
148.713,148.389,148.475,148.992,579.716,580.208,148.12,148.409
150.525,150.426,150.451,150.796,580.97,576.393,149.922,150.067
152.39,152.079,152.317,152.584,580.599,573.441,151.638,151.843
152.854,152.185,152.592,153.065,576.008,570.559,151.935,152.437
151.468,150.642,150.999,151.651,569.801,568.249,150.351,151.073
149.868,149.169,149.386,149.849,565.838,566.74,148.594,149.32
149.921,149.373,149.528,149.726,565.6,567.887,148.646,149.262
151.396,150.84,150.924,151.21,569.216,575.529,150.223,150.729
152.797,152.292,152.189,152.678,571.745,584.176,151.727,152.164
154.141,153.836,153.655,154.023,574.905,589.833,153.15,153.492
155.913,155.691,155.733,155.835,579.071,591.415,155.007,155.189
157.796,157.521,157.888,157.925,580.594,591.632,157.021,157.15
158.676,158.477,158.996,159.084,579.662,594.122,158.024,158.271
158.18,158.126,158.567,158.69,577.141,593.323,157.524,157.807
158.251,158.108,158.432,158.618,579.464,590.054,157.501,157.599
159.592,159.191,159.584,159.795,585.904,588.697,158.864,158.756
160.836,160.258,160.861,160.989,589.609,589.121,160.182,160.085
161.356,160.664,161.423,161.429,589.708,588.65,160.565,160.696
160.874,160.062,160.923,160.766,583.844,581.8,159.851,160.179
159.13,158.245,159.249,158.912,574.06,572.841,158.052,158.422
156.731,155.839,156.907,156.569,565.074,567.004,155.657,156.135
155.338,154.512,155.402,155.276,561.112,563.902,154.174,154.88
155.425,154.713,155.366,155.406,562.475,561.309,154.261,155.027
155.581,154.973,155.571,155.642,561.17,555.14,154.58,155.224
155.565,154.988,155.583,155.749,556.784,550.644,154.601,155.222
155.647,154.949,155.469,155.791,550.342,549.246,154.484,155.183
154.891,153.989,154.518,154.853,541.667,546.146,153.64,154.25
152.753,151.802,152.439,152.681,535.677,543.504,151.704,152.13
150.52,149.729,150.395,150.569,532.15,542.369,149.65,150.142
149.723,149.064,149.731,149.792,530.689,542.989,148.782,149.502
149.598,148.884,149.707,149.597,529.679,542.499,148.57,149.299
149.289,148.505,149.5,149.378,528.361,540.103,148.44,148.946
149.252,148.525,149.418,149.535,529.573,539.447,148.673,148.936
149.332,148.669,149.28,149.635,531.087,538.38,148.746,148.879
149.14,148.5,148.953,149.341,532.669,538.115,148.337,148.503
148.224,147.637,148.083,148.471,531.768,538.452,147.327,147.591
146.687,146.124,146.616,147.03,525.452,535.629,145.819,146.128
145.514,144.89,145.486,145.697,515.876,529.224,144.63,144.936
144.864,144.216,144.889,144.798,504.03,519.816,144.015,144.227
143.844,143.272,143.885,143.829,495.982,514.011,143.141,143.206
141.634,141.068,141.59,141.792,491.207,510.983,140.99,141.07
139.113,138.401,138.973,139.185,484.187,504.18,138.413,138.603
137.377,136.598,137.268,137.237,477.313,495.532,136.688,136.839
135.747,135.155,135.804,135.58,471.5,487.588,135.205,135.228
133.971,133.693,134.302,133.997,467.835,483.018,133.687,133.608
132.766,132.704,133.324,133.092,463.019,478.606,132.76,132.62
132.599,132.528,133.053,133.14,455.019,472.39,132.704,132.585
132.902,132.675,133.005,133.432,450.66,470.136,132.864,132.815
132.757,132.522,132.735,133.223,450.76,470.134,132.532,132.571
132.446,132.494,132.687,133.018,451.75,468.358,132.232,132.471
132.005,132.342,132.624,132.728,448.204,461.983,131.92,132.419
131.442,131.706,132.259,132.122,441.868,454.718,131.335,131.887
131.221,131.109,131.86,131.63,440.337,453.773,130.923,131.182
130.742,130.338,130.949,130.843,438.589,453.545,130.334,130.167
129.543,129.155,129.542,129.612,431.996,448.017,129.213,128.854
128.12,127.846,128.268,128.45,422.571,436.518,127.899,127.636
127.2,126.894,127.541,127.698,416.317,425.272,126.959,126.876
126.218,125.853,126.639,126.597,416.944,421.48,125.833,125.979
123.731,123.402,124.162,123.932,415.91,419.009,123.24,123.591
120.719,120.358,121.123,120.865,411.174,415.638,120.289,120.593
119.162,118.662,119.525,119.315,406.783,413.572,118.837,118.954
119.047,118.616,119.426,119.211,403.417,411.858,118.741,118.826
118.863,118.81,119.358,119.041,400.392,409.86,118.604,118.732
117.742,117.901,118.331,117.855,395.237,405.779,117.602,117.652
116.943,116.893,117.495,116.899,393.193,404.521,116.851,116.737
117.398,117.171,117.837,117.321,395.361,406.019,117.253,116.958
117.806,117.725,118.174,117.985,395.975,404.535,117.574,117.227
116.237,116.266,116.636,116.731,392.899,400.116,115.858,115.798
112.987,112.805,113.45,113.457,383.921,391.873,112.42,112.756
110.4,109.905,110.836,110.508,374.132,382.551,109.733,110.135
108.485,107.934,108.784,108.291,367.742,372.661,107.839,108.043
105.896,105.57,106.051,105.708,363.842,361.2,105.314,105.365
103.216,103.098,103.324,103.245,360.344,350.519,102.766,102.723
101.41,101.326,101.585,101.715,351.672,338.688,101.217,101.119
100.615,100.493,100.961,101.181,343.75,330.561,100.692,100.691
100.282,100.176,100.829,100.891,342.241,329.557,100.473,100.657
100.331,100.317,100.936,100.606,341.969,330.312,100.434,100.639
100.864,100.98,101.393,100.835,339.48,328.149,100.853,100.837
101.153,101.294,101.598,101.201,333.741,319.897,101.134,100.927
100.903,100.827,101.229,100.969,328.727,311.45,100.828,100.673
99.465,99.121,99.661,99.199,322.86,305.103,99.254,99.229
96.573,96.228,96.801,96.172,312.741,298.086,96.364,96.396
94.374,94.21,94.773,94.303,303.37,294.299,94.299,94.317
94.298,94.211,94.807,94.492,294.796,292.488,94.268,94.144
94.754,94.67,95.295,94.879,286.083,289.637,94.678,94.348
93.843,93.85,94.417,93.904,276.213,284.449,93.769,93.436
92.37,92.483,92.941,92.562,265.753,279.421,92.319,92.248
91.57,91.629,92.123,91.896,258.871,278.302,91.464,91.637
90.338,90.264,90.991,90.691,253.537,275.15,90.228,90.384
88.212,88.125,88.965,88.602,249.316,268.276,88.295,88.266
86.745,86.742,87.358,87.261,244.236,260.481,87.067,86.88
87.045,87.107,87.423,87.735,238.59,254.333,87.484,87.247
87.914,88.038,88.258,88.699,239.116,251.941,88.377,88.271
87.462,87.665,87.884,88.101,240.354,247.705,87.823,87.984
85.698,85.928,86.083,86.043,233.364,239.043,85.822,86.082
82.935,83.063,83.229,83.147,217.466,224.28,82.866,82.979
79.742,79.637,80.011,80.009,202.58,205.782,79.581,79.627
77.571,77.291,77.831,77.901,197.052,192.43,77.338,77.513
76.546,76.366,76.791,76.945,191.79,182.536,76.319,76.519
75.642,75.722,75.913,76.117,182.925,173.552,75.545,75.571
74.084,74.247,74.418,74.465,174.549,164.771,74.149,74.016
72.705,72.688,73.109,72.798,168.741,156.731,72.849,72.674
72.576,72.414,72.993,72.508,167.118,154.094,72.694,72.548
72.593,72.528,72.88,72.691,164.071,152.788,72.651,72.553
71.877,71.915,71.898,72.155,158.103,149.112,71.852,71.798
70.88,70.808,70.631,71.033,152.398,143.842,70.722,70.78
70.036,69.783,69.666,69.925,149.327,139.192,69.744,70.068
69.252,68.899,68.915,69.002,148.782,136.702,68.86,69.404
68.49,68.119,68.205,68.293,144.934,132.372,68.051,68.469
68.735,68.425,68.538,68.713,142.234,130.703,68.364,68.468
70.023,69.76,70.029,70.096,145.616,135.003,69.761,69.769
70.621,70.282,70.819,70.641,149.137,137.931,70.336,70.446
68.864,68.42,69.104,68.874,146.411,133.47,68.49,68.575
65.042,64.635,65.331,65.202,134.936,120.622,64.741,64.654
61.73,61.513,62.239,62.118,123.826,108.581,61.681,61.54
60.332,60.263,60.955,60.799,117.161,100.676,60.498,60.404
60.178,60.054,60.505,60.374,108.256,91.105,60.357,60.116
60.264,60.013,60.151,60.052,96.731,79.923,60.354,59.805
59.98,59.695,59.708,59.648,86.708,68.947,60.023,59.396
60.146,59.821,59.921,59.894,84.876,63.218,60.027,59.649
60.931,60.525,60.659,60.639,87.347,60.995,60.463,60.343
60.795,60.379,60.476,60.459,82.621,54.583,60.16,60.099
58.917,58.559,58.763,58.735,70.283,44.816,58.555,58.454
56.352,56.082,56.311,56.329,56.876,35.353,56.391,56.29
54.719,54.599,54.496,54.703,49.956,31.159,54.929,54.817
53.934,53.934,53.499,53.939,45.692,30.261,54.122,53.939
53.763,53.724,53.361,53.922,39.048,28.057,53.894,53.755
54.266,54.097,54.055,54.519,34.705,24.668,54.321,54.437
53.795,53.529,53.698,53.907,29.09,15.837,53.715,54.098
51.834,51.488,51.647,51.764,19.933,4.705,51.582,52.032
50.119,49.723,49.778,50.094,12.258,-1.826,49.815,50.064
50.044,49.731,49.761,50.127,11.873,-1.814,49.915,49.803
51.188,51.032,51.106,51.093,19.587,3.667,51.239,50.966
52.329,52.273,52.246,51.887,24.256,7.604,52.324,52.299
53.467,53.459,53.171,52.866,21.459,8.961,53.294,53.567
53.955,53.956,53.528,53.409,13.421,6.287,53.742,53.981
52.689,52.624,52.269,52.261,1.918,-2.475,52.571,52.557
50.773,50.641,50.322,50.458,-7.645,-9.953,50.756,50.551
50.055,49.932,49.601,49.822,-12.285,-12.958,50.064,49.85
50.64,50.556,50.5,50.519,-9.419,-13.104,50.633,50.453
50.382,50.304,50.72,50.354,-6.187,-16.165,50.356,50.04
48.585,48.455,49.033,48.456,-10.226,-22.235,48.496,48.057
47.619,47.391,47.745,47.322,-13.798,-21.937,47.476,47.187
48.701,48.368,48.484,48.442,-12.713,-17.326,48.663,48.566
50.561,50.123,50.18,50.427,-9.082,-14.14,50.673,50.602
51.221,50.74,50.799,51.029,-7.382,-13.761,51.297,51.28
50.619,50.208,50.241,50.238,-7.583,-13.369,50.494,50.602
50.26,49.866,49.938,49.766,-4.54,-9.875,49.921,49.954
49.852,49.299,49.541,49.348,-3.168,-10.199,49.373,49.121
48.35,47.71,48.125,47.915,-6.605,-14.988,47.872,47.525
46.323,45.901,46.271,46.051,-12.875,-19.603,46.018,45.884
45.506,45.368,45.528,45.373,-18.169,-22.369,45.424,45.388
45.782,45.689,45.746,45.588,-19.115,-22.664,45.794,45.513
44.882,44.67,44.726,44.49,-21.926,-25.781,44.843,44.357
42.816,42.546,42.53,42.375,-26.279,-30.688,42.697,42.426
40.978,40.82,40.724,40.812,-28.977,-35.604,40.889,41.066
38.997,38.997,38.96,39.22,-32.254,-42.882,39.081,39.445
36.045,35.976,36.143,36.374,-36.115,-50.662,36.288,36.48
32.833,32.485,32.809,32.802,-42.622,-58.958,32.981,33.051
30.878,30.351,30.586,30.273,-48.974,-64.032,30.696,30.865
29.563,29.07,29.078,28.702,-53.393,-65.877,29.169,29.387
27.75,27.399,27.217,27.167,-57.949,-69.146,27.43,27.613
26.351,26.19,25.806,26.2,-60.78,-71.559,26.171,26.436
26.43,26.432,25.88,26.452,-62.529,-71.763,26.321,26.611
27.436,27.415,26.951,27.39,-61.145,-67.173,27.405,27.369
27.099,26.907,26.728,26.92,-58.909,-60.843,27.119,26.706
24.766,24.528,24.533,24.468,-60.829,-59.401,24.752,24.361
22.241,22.11,22.115,21.887,-63.327,-61.561,22.232,22.03
20.295,20.21,20.153,20.026,-65.767,-66.821,20.372,20.187
18.828,18.712,18.577,18.702,-67.5,-70.507,18.856,18.739
17.481,17.356,17.12,17.281,-69.513,-71.123,17.298,17.377
16.151,15.993,15.717,15.61,-73.262,-73.501,15.825,15.93
15.013,14.785,14.599,14.195,-75.937,-77.497,14.698,14.7
13.243,12.972,13.001,12.492,-79.965,-83.81,13.035,13.067
10.679,10.429,10.708,10.297,-83.397,-89.257,10.62,10.74
7.993,7.925,8.188,7.964,-85.815,-93.18,8.089,8.163
6.001,6.227,6.064,6.01,-91.086,-97.281,6.225,6.171
5.517,5.831,5.285,5.351,-94.674,-96.687,5.773,5.64
5.931,6.073,5.623,5.686,-93.516,-93.213,6.109,5.947
5.889,5.863,5.749,5.671,-88.009,-90.419,5.945,5.822
4.413,4.313,4.373,4.245,-84.811,-91.972,4.403,4.463
2.118,2.01,2.049,2.116,-87.619,-98.678,2.145,2.358
0.289,0.288,0.148,0.467,-89.169,-102.355,0.338,0.426
-1.332,-1.14,-1.606,-1.19,-90.548,-101.804,-1.297,-1.444
-2.827,-2.525,-3.173,-2.814,-94.984,-100.443,-2.719,-2.855
-4.26,-4.025,-4.488,-4.248,-102.35,-103.364,-4.06,-3.99
-6.325,-6.223,-6.371,-6.207,-110.787,-111.27,-6.127,-6.01
-8.801,-8.734,-8.709,-8.568,-115.135,-115.783,-8.566,-8.679
-10.819,-10.688,-10.607,-10.557,-116.147,-115.995,-10.438,-10.833
-11.791,-11.599,-11.52,-11.65,-114.362,-114.495,-11.345,-11.818
-12.592,-12.428,-12.418,-12.686,-114.452,-116.709,-12.296,-12.614
-14.405,-14.297,-14.382,-14.667,-120.91,-125.35,-14.325,-14.353
-17.218,-16.993,-17.157,-17.394,-127.174,-132.517,-17.133,-16.927
-19.957,-19.44,-19.732,-19.902,-130.536,-137.022,-19.623,-19.503
-20.587,-19.949,-20.383,-20.45,-130.345,-140.411,-20.112,-20.34
-19.569,-19.233,-19.561,-19.477,-129.042,-143.671,-19.217,-19.639
-19.458,-19.628,-19.587,-19.372,-129.548,-146.637,-19.26,-19.513
-20.756,-21.18,-20.934,-20.768,-129.069,-146.7,-20.626,-20.51
-22.995,-23.226,-23.177,-23.226,-131.948,-149.818,-22.884,-22.509
-25.802,-25.631,-25.869,-26.05,-139.377,-155.884,-25.535,-25.286
-28.372,-27.984,-28.275,-28.415,-147.681,-159.494,-27.707,-27.94
-29.925,-29.653,-29.82,-29.88,-154.808,-160.8,-28.943,-29.582
-30.973,-30.918,-30.984,-30.955,-159.051,-161.354,-30.114,-30.637
-32.879,-32.881,-32.917,-32.741,-164.675,-165.566,-32.404,-32.402
-35.085,-35.017,-35.065,-34.783,-169.792,-169.737,-34.798,-34.506
-36.178,-36.092,-36.228,-36.014,-171.273,-169.385,-35.872,-35.813
-35.963,-35.924,-36.193,-36.174,-171.487,-166.705,-35.745,-35.924
-35.397,-35.403,-35.66,-35.771,-171.49,-163.754,-35.379,-35.372
-35.59,-35.701,-35.796,-35.85,-174.32,-165.456,-35.62,-35.428
-36.075,-36.343,-36.402,-36.349,-174.873,-167.922,-35.973,-36.031
-36.364,-36.601,-36.839,-36.82,-170.195,-166.628,-36.139,-36.452
-36.732,-36.701,-37.08,-37.155,-167.747,-165.109,-36.484,-36.565
-37.094,-36.911,-37.14,-37.271,-170.348,-164.158,-36.914,-36.587
-37.359,-37.324,-37.164,-37.435,-175.352,-164.852,-37.303,-36.854
-37.237,-37.344,-36.928,-37.391,-173.098,-163.635,-37.238,-36.874
-36.999,-37.004,-36.695,-37.169,-163.503,-160.839,-36.909,-36.601
-36.828,-36.619,-36.572,-36.9,-157.873,-161.709,-36.587,-36.371
-36.141,-35.792,-35.935,-36.135,-157.75,-163.536,-35.808,-35.843
-35.434,-35.098,-35.385,-35.432,-160.565,-165.614,-35.105,-35.387
-35.484,-35.263,-35.627,-35.482,-162.443,-166.856,-35.189,-35.455
-36.253,-36.043,-36.395,-36.212,-164.313,-168.303,-35.909,-35.981
-36.921,-36.517,-36.918,-36.878,-167.567,-171.871,-36.445,-36.528
-36.719,-36.161,-36.658,-36.736,-166.099,-172.557,-36.164,-36.519
-36.047,-35.619,-36.023,-36.115,-162.457,-171.132,-35.537,-36.012
-35.544,-35.329,-35.471,-35.613,-160.316,-168.596,-35.082,-35.361
-36.039,-35.812,-35.809,-36.068,-160.908,-166.429,-35.518,-35.613
-37.229,-36.941,-37.015,-37.223,-164.739,-166.792,-36.75,-36.849
-37.614,-37.467,-37.697,-37.627,-166.904,-165.567,-37.412,-37.58
-37.686,-37.635,-37.933,-37.711,-169.066,-164.765,-37.587,-37.886
-38.661,-38.421,-38.688,-38.552,-172.431,-166.204,-38.281,-38.746
-40.321,-39.84,-40.101,-39.974,-175.674,-169.535,-39.75,-40.145
-41.724,-41.226,-41.491,-41.255,-177.506,-173.676,-41.244,-41.349
-42.465,-42.045,-42.252,-42.017,-175.046,-174.305,-41.94,-41.933
-42.64,-42.196,-42.453,-42.28,-173.534,-174.892,-41.935,-42.039
-42.08,-41.627,-42.077,-41.895,-174.423,-176.203,-41.486,-41.673
-42.064,-41.711,-42.194,-42.025,-176.236,-177.68,-41.752,-42
-43.791,-43.438,-43.712,-43.685,-178.927,-181.212,-43.491,-43.865
-45.599,-45.005,-45.114,-45.31,-176.909,-182.377,-45.091,-45.544
-45.651,-44.828,-44.958,-45.332,-172.221,-181.989,-45.045,-45.439
-44.221,-43.468,-43.622,-44.035,-169.871,-181.428,-43.724,-43.92
-43.155,-42.646,-42.703,-43.061,-171.008,-179.902,-42.928,-42.821
-43.41,-43.126,-43.03,-43.324,-172.529,-176.743,-43.446,-43.251
-44.534,-44.45,-44.24,-44.464,-170.314,-170.874,-44.527,-44.721
-46.443,-46.4,-46.201,-46.365,-171.276,-169.873,-46.074,-46.691
-48.18,-47.995,-47.896,-48.072,-176.663,-174.4,-47.582,-48.134
-48.374,-48.157,-48.115,-48.332,-180.014,-177.524,-47.909,-48.19
-47.311,-47.195,-47.175,-47.384,-178.508,-176.37,-46.969,-47.311
-46.89,-46.672,-46.695,-46.919,-173.033,-171.681,-46.436,-47.066
-48.765,-48.196,-48.231,-48.557,-172.67,-171.445,-48.235,-48.915
-51.506,-50.708,-50.726,-51.137,-177.667,-175.144,-51.068,-51.576
-52.558,-51.863,-51.942,-52.28,-180.563,-177.118,-52.181,-52.69
-51.67,-51.172,-51.344,-51.476,-179.867,-177.73,-51.25,-51.898
-50.779,-50.336,-50.481,-50.454,-176.992,-177.109,-50.356,-50.897
-51.456,-50.982,-51.053,-51.035,-176.482,-178.288,-51.102,-51.349
-52.349,-51.872,-52.03,-52.052,-174.318,-178.136,-52.014,-52.236
-52.341,-51.912,-52.285,-52.195,-167.493,-174.174,-51.9,-52.484
-52.59,-52.181,-52.721,-52.525,-163.871,-171.935,-52.026,-52.909
-53.626,-53.131,-53.764,-53.686,-166.654,-172.335,-53.111,-53.796
-54.8,-54.237,-54.865,-54.92,-173.024,-174.458,-54.497,-54.689
-55.478,-55.028,-55.449,-55.367,-174.791,-173.728,-55.332,-55.309
-56.092,-55.876,-56.003,-55.704,-172.444,-170.874,-55.952,-56.067
-57.03,-57.009,-56.978,-56.774,-173.727,-172.068,-56.889,-57.045
-57.93,-57.962,-57.903,-58.079,-174.481,-173.813,-57.9,-57.812
-58.644,-58.57,-58.527,-58.924,-170.174,-172.338,-58.725,-58.374
-58.526,-58.299,-58.33,-58.584,-161.031,-165.547,-58.605,-58.143
-57.875,-57.554,-57.694,-57.77,-153.463,-158.375,-57.886,-57.394
-58.051,-57.676,-57.866,-58,-152.575,-158.002,-57.949,-57.525
-59.146,-58.774,-58.961,-59.162,-152.499,-159.225,-58.829,-58.683
-60.498,-60.264,-60.46,-60.495,-151.827,-158.878,-59.943,-60.184
-61.769,-61.674,-61.89,-61.67,-150.993,-157.813,-61.156,-61.565
-63.613,-63.421,-63.7,-63.357,-152.458,-159.586,-63.149,-63.306
-65.91,-65.482,-65.927,-65.642,-158.787,-165.651,-65.64,-65.438
-67.183,-66.619,-67.284,-67.118,-162.854,-169.149,-67.022,-66.836
-67.187,-66.632,-67.364,-67.287,-162.548,-169.133,-66.975,-67.115
-66.808,-66.386,-66.911,-66.999,-161.326,-166.284,-66.453,-66.818
-67.545,-67.266,-67.589,-67.898,-164.88,-164.338,-67.203,-67.54
-69.656,-69.434,-69.733,-70.049,-173.062,-167.54,-69.49,-69.673
-71.332,-71.169,-71.372,-71.514,-176.266,-170.035,-71.206,-71.295
-72.098,-71.981,-72.005,-72.162,-175.875,-170.839,-71.867,-71.95
-73.032,-72.845,-72.857,-73.268,-175.887,-170.557,-72.773,-72.878
-74.955,-74.598,-74.754,-75.303,-176.283,-169.231,-74.663,-74.915
-77.352,-76.734,-77.063,-77.438,-175.623,-167.743,-76.879,-77.349
-79.043,-78.215,-78.661,-78.725,-170.668,-163.881,-78.416,-78.809
-79.862,-79.199,-79.602,-79.447,-168.464,-162.516,-79.345,-79.368
-79.738,-79.533,-79.766,-79.565,-170.366,-163.946,-79.562,-79.393
-79.012,-78.963,-79.115,-79.02,-168.765,-163.802,-79.059,-79.02
-78.357,-78.011,-78.23,-78.246,-162.138,-161.531,-78.282,-78.41
-77.825,-77.307,-77.594,-77.528,-154.269,-156.116,-77.577,-77.772
-77.871,-77.536,-77.893,-77.589,-152.053,-151.753,-77.727,-77.9
-78.591,-78.37,-78.889,-78.437,-151.027,-147.918,-78.638,-78.696
-79.192,-78.859,-79.527,-79.098,-146.194,-143.44,-79.229,-79.177
-78.933,-78.545,-79.166,-78.854,-142.702,-141.272,-78.878,-78.806
-78.419,-78.136,-78.51,-78.374,-141.354,-139.325,-78.411,-78.308
-79.085,-78.91,-79.098,-79.075,-142.596,-140.726,-79.186,-78.989
-80.44,-80.261,-80.491,-80.432,-143.844,-145.899,-80.486,-80.29
-81.503,-81.243,-81.526,-81.488,-143.164,-149.912,-81.321,-81.242
-82.263,-81.992,-82.156,-82.322,-143.997,-149.941,-81.967,-81.914
-82.545,-82.445,-82.502,-82.797,-148.064,-145.405,-82.443,-82.343
-82.382,-82.509,-82.609,-82.742,-156.581,-143.171,-82.471,-82.492
-81.832,-81.974,-82.116,-81.975,-161.519,-142.128,-81.74,-81.916
-81.46,-81.404,-81.494,-81.239,-158.799,-138.455,-81.017,-81.054
-81.562,-81.381,-81.444,-81.217,-155.6,-136.314,-81.034,-80.81
-81.253,-81.09,-81.201,-81.023,-153.564,-136.336,-80.962,-80.616
-80.467,-80.311,-80.471,-80.379,-153.94,-139.114,-80.479,-79.985
-79.938,-79.815,-79.974,-79.987,-154.778,-140.304,-80.134,-79.481
-80.224,-80.293,-80.356,-80.396,-154.962,-137.976,-80.463,-79.961
-80.958,-81.215,-81.131,-81.159,-156.666,-138.579,-81.122,-80.91
-81.433,-81.615,-81.52,-81.543,-155.886,-142.451,-81.452,-81.254
-82.091,-81.996,-82.082,-82.033,-153.485,-146.913,-81.952,-81.688
-82.786,-82.528,-82.752,-82.598,-150.722,-146.687,-82.519,-82.468
-82.814,-82.658,-82.822,-82.627,-148.852,-144.059,-82.473,-82.666
-82.339,-82.388,-82.434,-82.217,-150.207,-146.253,-81.985,-82.084
-82.003,-82.169,-82.236,-81.974,-149.983,-148.036,-81.691,-81.525
-82.237,-82.397,-82.597,-82.372,-148.018,-145.886,-81.986,-81.72
-82.46,-82.558,-82.766,-82.716,-145.04,-140.177,-82.268,-82.03
-82.584,-82.67,-82.751,-82.875,-143.623,-135.066,-82.519,-82.237
-83.103,-83.234,-83.312,-83.471,-146.861,-135.174,-83.233,-82.92
-83.773,-83.849,-84.061,-84.123,-146.43,-134.645,-83.944,-83.807
-84.353,-84.249,-84.531,-84.428,-139.932,-131.718,-84.347,-84.449
-84.714,-84.562,-84.79,-84.601,-132.441,-127.428,-84.689,-84.739
-85.479,-85.5,-85.66,-85.549,-129.644,-124.446,-85.762,-85.47
-86.829,-86.988,-87.19,-87.131,-132.426,-126.433,-87.32,-86.817
-87.698,-87.755,-88.09,-87.967,-132.317,-128.266,-88.016,-87.611
-88.36,-88.153,-88.583,-88.466,-130.432,-129.408,-88.439,-88.129
-89.643,-89.289,-89.758,-89.66,-132.328,-132.273,-89.728,-89.398
-91.526,-91.287,-91.777,-91.475,-138.232,-138.551,-91.701,-91.484
-93.306,-93.278,-93.693,-93.154,-143.706,-147.23,-93.494,-93.46
-94.187,-94.225,-94.466,-94.044,-141.512,-149.953,-94.409,-94.36
-94.15,-94.04,-94.212,-94.121,-135.681,-147.464,-94.327,-94.2
-92.861,-92.578,-92.797,-92.834,-130.665,-144.033,-92.705,-92.664
-90.643,-90.469,-90.591,-90.584,-128.201,-141.712,-90.154,-90.16
-89.037,-89.218,-89.081,-89.142,-130.844,-141.464,-88.664,-88.475
-88.899,-89.322,-89.004,-89.231,-133.909,-139.103,-88.928,-88.561
-90.084,-90.519,-90.122,-90.506,-136.051,-137.632,-90.327,-90.092
-91.34,-91.731,-91.279,-91.805,-135.398,-139.495,-91.563,-91.58
-91.506,-91.814,-91.41,-91.937,-130.451,-142.729,-91.621,-91.662
-90.192,-90.284,-90.06,-90.35,-124.546,-144.413,-90.094,-90.061
-87.836,-87.74,-87.702,-87.756,-118.625,-139.132,-87.559,-87.667
-85.94,-85.915,-85.938,-86.019,-117.956,-132.023,-85.75,-86.029
-84.992,-85.135,-85.028,-85.294,-121.06,-126.158,-85.02,-85.153
-84.602,-84.658,-84.339,-84.711,-121.072,-117.799,-84.643,-84.483
-84.103,-83.856,-83.497,-83.875,-118.599,-108.131,-83.927,-83.728
-82.902,-82.511,-82.332,-82.644,-116.188,-101.592,-82.53,-82.563
-81.89,-81.6,-81.615,-81.708,-118.546,-104.892,-81.458,-81.702
-81.234,-80.983,-81.085,-80.976,-120.926,-110.624,-80.811,-81.114
-79.981,-79.589,-79.746,-79.713,-117.289,-107.819,-79.613,-79.934
-77.806,-77.345,-77.61,-77.685,-113.476,-101.116,-77.495,-77.904
-74.984,-74.695,-75.046,-74.945,-112.378,-96.318,-74.623,-75.112
-72.594,-72.571,-72.855,-72.552,-112.718,-95.377,-72.155,-72.557
-71.375,-71.487,-71.608,-71.406,-109.211,-93.987,-71.079,-71.247
-71.163,-71.269,-71.268,-71.329,-102.639,-91.801,-71.213,-71.152
-70.965,-71.095,-70.965,-71.182,-100.785,-94.606,-71.174,-71.026
-70.013,-70.184,-69.844,-70.167,-101.721,-98.622,-69.936,-69.939
-69.02,-69.03,-68.585,-69.129,-101.801,-100.082,-68.444,-68.784
-67.895,-67.525,-67.352,-68.03,-98.108,-97.889,-67.046,-67.652
-66.212,-65.54,-65.87,-66.334,-93.012,-95.963,-65.5,-66.05
-64.756,-64.171,-64.661,-64.786,-91.118,-99.257,-64.404,-64.666
-63.872,-63.704,-63.866,-63.848,-87.84,-100.897,-63.8,-63.908
-63.276,-63.402,-63.276,-63.229,-84.455,-97.035,-63.27,-63.446
-62.727,-62.748,-62.636,-62.582,-83.623,-89.411,-62.61,-62.832
-62.544,-62.267,-62.262,-62.261,-85.99,-84.294,-62.202,-62.387
-62.341,-61.942,-62.021,-62.024,-93.752,-86.957,-61.84,-62.053
-61.476,-61.276,-61.388,-61.297,-101.323,-90.5,-61.11,-61.315
-61.325,-61.443,-61.498,-61.335,-104.505,-92.472,-61.292,-61.283
-61.966,-62.236,-62.266,-62.027,-102.773,-94.337,-62.136,-61.963
-61.296,-61.483,-61.598,-61.284,-101.475,-96.653,-61.346,-61.428
-59.013,-58.944,-59.121,-58.967,-105.041,-99.121,-58.703,-59.284
-56.846,-56.527,-56.607,-56.829,-106.119,-97.92,-56.28,-56.995
-55.715,-55.421,-55.308,-55.764,-104.316,-97.984,-55.277,-55.505
-54.51,-54.504,-54.328,-54.72,-102.898,-101.104,-54.457,-54.091
-52.849,-53.042,-53.04,-53.265,-102.37,-102.727,-53.056,-52.587
-51.314,-51.466,-51.626,-51.815,-103.038,-102.557,-51.485,-51.272
-49.71,-49.786,-49.815,-50.099,-101.113,-100.505,-49.74,-49.667
-48.424,-48.416,-48.282,-48.509,-99.422,-100.562,-48.368,-48.323
-47.91,-47.65,-47.71,-47.592,-98.881,-101.823,-47.734,-47.786
-48.026,-47.549,-47.856,-47.514,-97.326,-102.133,-47.673,-47.725
-48.066,-47.674,-47.833,-47.745,-96.123,-103.188,-47.676,-47.545
-47.098,-46.898,-46.774,-47.055,-93.249,-100.209,-46.903,-46.623
-45.623,-45.505,-45.378,-45.684,-92.659,-95.213,-45.656,-45.398
-44.35,-44.309,-44.365,-44.512,-96.707,-93.746,-44.522,-44.368
-43.675,-43.739,-43.939,-44.075,-101.551,-96.412,-44.017,-43.847
-44.097,-44.152,-44.395,-44.603,-104.004,-100.006,-44.633,-44.266
-45.17,-45.079,-45.247,-45.41,-101.136,-98.816,-45.712,-45.217
-45.556,-45.332,-45.386,-45.438,-98.571,-97.713,-45.847,-45.484
-43.983,-43.867,-43.794,-43.867,-97.61,-98.846,-44.009,-43.885
-41.841,-42.03,-41.73,-42.014,-95.373,-98.307,-41.807,-41.827
-41.5,-41.796,-41.299,-41.82,-95.408,-97.223,-41.584,-41.567
-42.437,-42.488,-42.126,-42.709,-97.304,-96.056,-42.706,-42.511
-43.33,-43.114,-43.114,-43.542,-100.063,-97.678,-43.698,-43.432
-43.62,-43.463,-43.526,-43.724,-100.471,-98.696,-43.858,-43.816
-43.48,-43.648,-43.389,-43.463,-98.298,-95.422,-43.474,-43.719
-43.342,-43.69,-43.327,-43.415,-98.889,-94.24,-43.255,-43.536
-42.574,-42.774,-42.781,-42.929,-100.797,-96.888,-42.665,-42.731
-40.649,-40.611,-40.953,-41.142,-104.3,-101.63,-40.948,-40.694
-38.05,-37.879,-38.16,-38.356,-107.679,-103.693,-38.322,-37.848
-36.087,-35.926,-36.06,-36.159,-107.16,-102.059,-36.16,-35.794
-34.788,-34.796,-35.032,-34.879,-103.54,-100.464,-34.774,-34.746
-32.449,-32.604,-33.058,-32.684,-96.787,-96.616,-32.55,-32.685
-29.317,-29.415,-29.877,-29.607,-91.4,-93.113,-29.56,-29.548
-26.88,-26.873,-27.034,-27.115,-86.177,-89.708,-27.182,-26.933
-25.049,-25.055,-24.902,-25.167,-77.216,-82.922,-25.383,-24.951
-22.423,-22.529,-22.329,-22.494,-68.677,-76.094,-22.833,-22.295
-18.662,-18.979,-18.843,-18.858,-62.091,-69.034,-19.127,-18.683
-15.451,-15.989,-15.836,-15.737,-57.872,-61.585,-15.691,-15.595
-13.18,-13.641,-13.511,-13.298,-53.017,-53.652,-12.911,-13.158
-11.251,-11.289,-11.33,-11.091,-49.693,-49.826,-10.673,-10.919
-9.818,-9.488,-9.704,-9.541,-54.487,-55.23,-9.421,-9.396
-8.412,-8.063,-8.291,-8.19,-59.443,-60.101,-8.301,-8.173
-6.675,-6.497,-6.603,-6.554,-58.06,-58.981,-6.579,-6.601
-4.828,-4.73,-4.736,-4.766,-52.548,-55.922,-4.674,-4.756
-3.396,-3.221,-3.248,-3.29,-49.243,-55.558,-3.293,-3.328
-2.653,-2.401,-2.478,-2.419,-52.152,-58.301,-2.536,-2.634
-2.039,-1.917,-1.907,-1.769,-54.342,-58.621,-1.913,-2.029
-1.383,-1.55,-1.415,-1.296,-54.513,-60.104,-1.539,-1.385
-0.65,-1.005,-0.949,-0.824,-54.532,-65.108,-1.223,-0.746
0.323,-0.058,-0.184,0.039,-54.491,-69.146,-0.412,0.137
1.543,1.26,1.116,1.415,-55.371,-70.591,0.989,1.464
2.937,2.964,2.865,3.154,-53.481,-69.438,2.754,3.134
4.44,4.778,4.618,4.861,-50.767,-70.878,4.547,4.767
6.377,6.601,6.475,6.648,-48.655,-72.79,6.501,6.614
8.045,7.869,8.003,8.047,-46.273,-70.384,8.064,8.241
9.142,8.762,9.079,9.065,-44.271,-66.294,9.091,9.419
11.292,11.039,11.152,11.306,-37.311,-58.795,11.097,11.574
14.757,14.806,14.49,14.793,-27.476,-48.886,14.351,14.886
18.411,18.672,18.171,18.276,-20.807,-37.989,17.898,18.301
21.635,21.828,21.506,21.322,-18.255,-26.955,21.164,21.357
24.527,24.585,24.407,24.293,-16.146,-18.648,24.24,24.311
27.074,27.167,26.883,27.066,-9.086,-10.914,26.988,27.03
28.536,28.67,28.334,28.579,-4.131,-5.887,28.449,28.493
29.976,30.046,29.86,29.892,-3.425,-2.961,29.666,29.711
32.919,32.963,32.867,32.765,0.975,0.502,32.394,32.431
36.116,36.108,36.016,36.042,8.944,1.693,35.612,35.601
37.722,37.43,37.497,37.712,14.841,1.921,37.421,37.303
37.813,37.164,37.446,37.681,10.739,-0.176,37.608,37.447
37.928,37.262,37.547,37.664,1.042,-3.217,37.628,37.617
38.38,38.129,38.207,38.247,-3.157,-3.675,38.027,38.219
38.639,38.863,38.704,38.801,-1.54,-4.362,38.43,38.675
39.039,39.443,39.204,39.375,2.148,-5.136,39.072,39.251
39.361,39.656,39.585,39.673,2.252,-5.984,39.573,39.682
39.82,39.889,40.081,40.024,2.396,-3.184,40.07,40.058
41.035,40.808,41.107,41.113,6.864,4.185,41.176,40.968
42.401,41.88,42.141,42.327,7.651,8.438,42.386,42.084
43.158,42.605,42.838,42.958,2.848,9.075,43.094,42.966
43.3,43.011,43.172,43.075,-2.966,7.363,43.315,43.499
44.104,43.995,44.012,43.942,-2.609,6.864,44.155,44.523
45.919,45.744,45.678,45.845,3.757,10.085,45.853,46.215
47.178,46.989,46.934,47.219,7.39,12.067,47.052,47.295
47.625,47.642,47.627,47.817,9.735,11.934,47.732,47.833
48.33,48.511,48.549,48.612,12.238,10.013,48.767,48.785
49.455,49.508,49.632,49.676,13.119,10.086,49.894,49.89
49.739,49.597,49.781,49.799,10.951,11.915,49.821,49.847
49.169,48.99,49.147,49.032,5.879,9.152,48.899,49.016
49.735,49.544,49.643,49.424,5.732,6.75,49.365,49.508
51.469,51.283,51.308,51.124,10.717,7.227,51.21,51.212
52.561,52.462,52.388,52.336,16.417,7.595,52.504,52.338
52.452,52.362,52.225,52.323,20.151,7.008,52.591,52.421
52.606,52.365,52.241,52.392,20.655,7.292,52.759,52.758
54.304,53.844,53.81,53.878,24.125,14.75,54.179,54.376
56.605,55.972,56.068,56.052,29.927,25.064,56.215,56.472
58.604,57.984,58.158,58.102,35.192,32.037,58.294,58.404
59.733,59.294,59.485,59.319,40.048,36.46,59.678,59.54
59.499,59.171,59.406,59.079,43.208,40.008,59.551,59.307
58.995,58.689,58.936,58.628,48.094,46.422,58.997,58.924
59.292,59.184,59.217,59.232,51.672,50.288,59.258,59.414
60.729,60.956,60.695,61.042,51.029,48.222,60.709,60.865
62.616,62.97,62.727,63.043,48.612,45.501,62.61,62.629
63.21,63.434,63.439,63.536,44.137,43.914,63.224,63.225
61.997,62.065,62.123,62.23,40.609,43.641,62.033,62.101
60.337,60.304,60.166,60.485,37.645,40.284,60.358,60.36
59.994,59.826,59.535,59.964,35.763,35.246,59.971,59.773
60.718,60.43,60.159,60.457,37.339,33.735,60.64,60.346
61.402,61.17,61.009,61.06,39.39,33.853,61.263,61.099
61.863,61.841,61.737,61.676,39.987,34.784,61.674,61.708
61.089,61.261,61.028,61.048,35.443,32.277,60.919,61.011
59.179,59.477,58.971,59.134,30.703,28.151,59.166,59.165
58.425,58.786,58.08,58.435,34.574,30.837,58.645,58.514
59.922,60.185,59.474,60.015,43.211,39.017,60.247,60
62.151,62.193,61.579,62.05,50.917,47.081,62.406,62.056
63.02,62.948,62.471,62.609,53.504,49.356,63.161,62.813
62.771,62.722,62.474,62.371,54.163,49.287,62.773,62.623
62.072,62.05,62.025,61.959,57.104,52.053,61.982,62.055
60.742,60.742,60.75,60.846,58.042,54.224,60.729,60.789
60.039,60.093,60.006,60.176,57.244,56.395,60.121,59.997
61.043,61.148,61.01,61.088,55.829,58.301,61.09,60.906
63.092,63.212,62.991,62.98,55.247,59.871,63.124,63.065
64.684,64.801,64.342,64.452,55.325,60.453,64.795,64.834
65.227,65.365,64.671,65.001,53.761,56.961,65.342,65.319
65.766,65.981,65.23,65.632,54.86,54.077,65.812,65.621
66.761,67.056,66.44,66.732,55.968,52.788,66.891,66.586
68.042,68.334,67.98,68.12,54.145,53.342,68.383,68.18
69.509,69.726,69.615,69.692,52.708,57.22,69.944,69.958
71.057,71.198,71.158,71.32,51.546,59.621,71.421,71.508
72.758,72.792,72.699,72.982,51.957,59.372,72.984,72.965
74.025,73.878,73.763,74.003,53.175,56.313,74.115,73.923
74.571,74.306,74.191,74.264,57.227,54.143,74.545,74.258
74.514,74.392,74.128,74.142,63.505,54.575,74.366,74.201
73.807,74.025,73.519,73.562,63.441,51.733,73.559,73.654
72.919,73.34,72.848,72.825,58.762,48.355,72.683,72.942
72.229,72.526,72.337,72.298,54.785,48.816,72.113,72.365
72.087,72.119,72.079,72.287,54.018,54.535,72.061,72.243
72.298,72.209,71.991,72.424,54.712,61.371,72.268,72.391
72.247,72.173,71.816,72.076,53.865,62.142,72.197,72.238
71.94,71.823,71.556,71.49,56.904,62.673,71.862,71.8
71.016,70.803,70.623,70.557,61.1,66.708,70.811,70.714
69.498,69.283,69.114,69.266,60.797,70.35,69.177,69.12
68.186,68.111,67.977,68.118,58.916,70.211,68.029,67.952
67.799,67.899,67.755,67.713,59.48,67.21,67.976,67.817
68.586,68.781,68.538,68.529,65.211,68.118,68.879,68.751
69.356,69.589,69.3,69.491,69.013,69.101,69.518,69.548
69.023,69.228,69.047,69.253,67.793,66.575,69.024,69.153
67.757,67.831,67.803,67.81,67.073,65.439,67.661,67.717
66.7,66.616,66.683,66.596,68.024,67.381,66.6,66.504
66.865,66.632,66.848,66.898,71.514,72.666,66.815,66.688
66.96,66.596,67.028,67.197,73.45,73.773,66.86,66.958
65.929,65.605,66.016,66.134,73.615,68.518,65.658,66.095
65.171,65.047,65.139,65.201,76.473,66.663,64.804,65.322
65.83,65.738,65.655,65.735,80.67,73.206,65.488,65.759
66.457,66.089,66.202,66.282,86.675,85.462,66.143,66.192
65.279,64.707,64.991,65.018,90.707,92.441,65.067,65.143
64.328,63.925,64.084,64.01,91.519,93.222,64.319,64.56
65.414,65.266,65.265,65.095,93.32,96.722,65.443,65.845
66.356,66.182,66.193,65.996,95.417,102.445,66.103,66.645
65.67,65.338,65.323,65.127,97.877,107.59,65.043,65.663
64.306,64.034,63.794,63.613,97.319,108.465,63.573,64.071
63.459,63.41,63.025,62.888,95.245,107.676,62.976,63.115
62.997,63.011,62.718,62.663,97.456,110.285,62.801,62.616
62.629,62.488,62.202,62.333,100.596,112.355,62.477,62.286
63.004,62.723,62.307,62.597,101.44,112.645,62.783,62.796
63.439,63.209,62.842,63.041,97.906,111.128,63.26,63.427
62.98,62.891,62.702,62.715,94.753,110.912,62.88,63.109
62.049,62.016,61.826,61.829,97.651,112.962,61.935,62.189
61.371,61.352,61.059,61.112,102.104,111.846,61.312,61.494
61.075,61.146,60.91,60.875,106.032,111.908,61.286,61.3
60.4,60.551,60.474,60.312,107.042,115.596,60.835,60.758
59.778,59.813,59.838,59.7,107.479,119.885,60.032,60.051
59.716,59.522,59.587,59.667,112.368,122.058,59.561,59.688
58.888,58.633,58.646,58.982,116.539,118.951,58.648,58.631
57.111,57.003,56.783,57.25,117.27,115.464,57.164,56.816
55.64,55.66,55.094,55.663,115.094,114.539,55.872,55.376
54.869,54.886,54.149,54.851,113.029,116.881,54.994,54.675
54.081,54.057,53.451,54.158,112.269,120.971,54.084,54.033
53.284,53.244,52.936,53.474,110.179,121.422,53.3,53.377
53.24,53.153,53.225,53.562,111.479,122.051,53.337,53.348
53.419,53.212,53.665,53.842,115.975,124.152,53.602,53.432
53.355,53.047,53.672,53.737,120.156,125.872,53.609,53.311
52.701,52.461,52.988,53.004,121.395,126.802,53.044,52.797
51,50.943,51.266,51.289,116.432,124.821,51.403,51.336
49.609,49.553,49.757,49.84,113.51,124.988,49.872,49.882
49.707,49.376,49.617,49.771,116.389,127.785,49.684,49.527
50.757,50.167,50.536,50.674,119.749,129.711,50.575,50.266
51.143,50.538,51.03,51.075,120.04,130.404,50.971,50.79
50.045,49.624,50.156,50.135,117.262,129.094,49.91,49.928
48.958,48.745,49.188,49.123,117.499,128.999,48.821,48.828
48.567,48.381,48.705,48.623,119.137,127.948,48.39,48.286
47.978,47.648,48.003,48.013,119.349,125.048,47.837,47.726
47.138,46.828,47.324,47.447,120.439,124.421,47.231,47.177
47.245,47.227,47.781,47.837,121.632,125.565,47.599,47.582
48.536,48.733,49.251,49.113,124.58,128.888,48.929,48.969
48.618,48.746,49.22,49.022,126.015,129.574,48.884,48.969
46.766,46.651,47.102,47.042,124.06,126.298,46.911,46.863
45.484,45.095,45.55,45.589,122.382,125.35,45.523,45.24
45.745,45.285,45.679,45.646,121.005,127.223,45.662,45.383
45.644,45.463,45.651,45.55,121.697,130.236,45.548,45.491
43.577,43.735,43.746,43.668,120.724,128.439,43.719,43.663
40.961,41.182,41.285,41.12,115.755,122.011,41.395,41.096
39.653,39.728,40.143,39.718,111.473,118.312,40.12,39.766
39.437,39.352,39.996,39.436,109.493,117.238,39.689,39.568
39.135,38.953,39.582,39.206,110.909,116.968,39.159,39.297
37.357,37.159,37.718,37.599,110.248,113.177,37.327,37.553
34.74,34.557,35.183,35.079,105.853,106.931,34.796,34.905
33.088,32.904,33.615,33.321,103.127,103.192,33.222,33.162
32.193,32.063,32.748,32.279,100.112,99.474,32.464,32.291
31.292,31.268,31.91,31.402,95.534,96.375,31.812,31.491
30.67,30.697,31.289,30.897,89.623,93.899,31.316,30.857
30.743,30.791,31.19,31.035,86.575,92.983,31.243,30.827
30.265,30.411,30.506,30.635,88.557,94.432,30.543,30.291
28.478,28.675,28.615,28.98,88.959,92.412,28.685,28.559
27.317,27.319,27.369,27.818,88.597,87.468,27.575,27.518
27.372,27.143,27.284,27.662,89.198,83.077,27.643,27.61
27.496,27.329,27.31,27.572,89.863,83.107,27.672,27.652
27.093,27.128,26.963,27.07,87.734,85.278,27.164,27.184
25.549,25.546,25.526,25.417,78.119,80.868,25.559,25.569
22.88,22.621,22.833,22.658,68.484,74.913,22.827,22.733
20.371,20.026,20.23,20.278,64.833,73.329,20.303,20.154
19.462,19.339,19.343,19.634,65.983,75.544,19.5,19.415
19.319,19.349,19.294,19.565,68.42,78.371,19.487,19.42
18.154,17.994,18.153,18.238,66.71,75.994,18.282,18.146
16.437,16.092,16.434,16.413,64.339,72.496,16.319,16.236
15.401,15.232,15.421,15.459,63.895,71.71,15.078,15.184
15.391,15.52,15.435,15.587,65.403,73.024,15.14,15.283
15.147,15.339,15.274,15.483,67.718,74.072,15.185,15.045
13.913,14.036,14.203,14.418,66.949,72.102,14.196,13.683
13.564,13.774,13.993,14.188,68.326,73.652,13.888,13.294
14.222,14.617,14.707,14.831,73.92,78.882,14.523,14.107
13.837,14.205,14.289,14.316,80.224,81.389,14.19,13.827
12.411,12.537,12.734,12.745,83.993,78.313,12.778,12.326
11.758,11.758,12.019,12.072,82.568,70.888,12.087,11.673
12.106,12.228,12.561,12.602,81.68,68.717,12.531,12.211
11.231,11.541,11.897,11.978,80.463,71.095,11.79,11.491
8.814,9.153,9.289,9.55,74.623,70.547,9.255,9.028
6.92,7.046,6.913,7.308,67.084,67.341,7.13,6.983
6.329,6.226,6.082,6.469,61.031,63.961,6.495,6.315
6.336,6.359,6.218,6.537,59.984,64.332,6.474,6.298
5.687,6.089,5.723,5.965,58.47,64.274,5.645,5.598
4.125,4.64,4.186,4.427,52.67,60.526,4.038,4.043
2.149,2.418,2.213,2.538,46.653,55.804,2.26,2.166
-0.093,-0.011,-0.037,0.304,40.5,49.158,0.104,0.04
-2.422,-2.249,-2.36,-2.15,36.053,42.692,-2.364,-2.167
-4.869,-4.594,-4.665,-4.699,31.462,34.39,-4.882,-4.54
-6.543,-6.494,-6.192,-6.51,26.94,24.331,-6.577,-6.345
-6.853,-7.206,-6.653,-7.096,27.266,18.628,-7.06,-6.894
-6.735,-7.095,-6.835,-7.121,29.684,16.558,-7.044,-6.744
-6.309,-6.192,-6.395,-6.514,31.834,16.922,-6.441,-6.049
-5.438,-4.955,-5.238,-5.408,31.092,16.05,-5.382,-5.153
-4.115,-3.614,-3.754,-3.977,29.259,14.236,-4.073,-4.088
-2.528,-2.013,-2.209,-2.312,29.848,16.153,-2.551,-2.652
-1.782,-1.262,-1.569,-1.55,28.85,18.952,-1.81,-1.939
-1.985,-1.742,-1.889,-1.861,27.158,21.633,-1.969,-2.194
-2.127,-2.243,-2.09,-2.082,25.355,23.029,-2.021,-2.216
-1.621,-1.768,-1.477,-1.487,24.978,24.531,-1.52,-1.446
-1.229,-1.076,-0.872,-0.942,27.886,26.95,-1.295,-1.013
-1.835,-1.427,-1.434,-1.524,27.176,22.926,-1.97,-1.844
-2.715,-2.389,-2.553,-2.563,22.138,14.658,-2.751,-2.963
-3.212,-3.173,-3.268,-3.251,15.828,8.175,-3.277,-3.555
-3.407,-3.497,-3.417,-3.545,10.898,6.104,-3.681,-3.706
-3.993,-3.957,-3.886,-4.135,7.889,7.479,-4.38,-4.199
-5.444,-5.299,-5.332,-5.415,3.109,6.323,-5.775,-5.565
-6.362,-6.328,-6.27,-6.066,0.647,4.91,-6.62,-6.448
-5.651,-5.767,-5.519,-5.354,1.701,5.022,-5.803,-5.759
-4.258,-4.312,-4.011,-4.174,4.006,5.276,-4.241,-4.323
-4.363,-4.187,-3.946,-4.258,5.974,4.304,-4.234,-4.239
-6.673,-6.365,-6.145,-6.373,2.48,-1.715,-6.514,-6.386
-8.974,-8.826,-8.496,-8.732,-2.963,-9.173,-8.826,-8.77
-10.285,-10.445,-9.993,-10.342,-7.157,-16.768,-10.246,-10.344
-12.004,-12.26,-11.91,-12.26,-11.746,-24.629,-12.145,-12.233
-14.505,-14.56,-14.513,-14.77,-17.874,-29.309,-14.713,-14.707
-16.384,-16.224,-16.374,-16.604,-25.145,-30.27,-16.475,-16.519
-16.807,-16.621,-16.698,-16.937,-26.042,-24.683,-16.762,-16.911
-17.059,-16.924,-16.861,-16.994,-22.73,-17.101,-16.965,-17.008
-17.894,-17.761,-17.676,-17.593,-23.09,-14.271,-17.754,-17.6
-18.649,-18.483,-18.449,-18.223,-26.254,-15.883,-18.486,-18.336
-19.06,-18.835,-18.912,-18.669,-29.436,-20.268,-18.991,-18.97
-19.501,-19.218,-19.432,-19.184,-29.284,-21.008,-19.569,-19.557
-20.83,-20.523,-20.74,-20.505,-29.987,-19.349,-20.951,-20.866
-23.044,-22.735,-22.844,-22.731,-34.289,-20.509,-23.126,-23.106
-25.609,-25.367,-25.397,-25.456,-38.236,-23.924,-25.648,-25.789
-27.854,-27.754,-27.673,-27.847,-42.033,-29.066,-27.891,-28.083
-28.627,-28.647,-28.402,-28.606,-43.905,-31.481,-28.676,-28.849
-28.716,-28.788,-28.52,-28.711,-44.975,-32.586,-28.787,-29.007
-29.363,-29.469,-29.311,-29.544,-44.416,-35.393,-29.487,-29.785
-30.142,-30.301,-30.123,-30.486,-38.969,-37.762,-30.278,-30.64
-30.823,-31.001,-30.697,-31.145,-34.667,-40.774,-30.869,-31.313
-31.668,-31.732,-31.517,-31.842,-33.839,-42.763,-31.675,-32.113
-32.387,-32.281,-32.284,-32.349,-34.958,-43.746,-32.476,-32.675
-31.671,-31.538,-31.491,-31.401,-34.031,-41.333,-31.744,-31.676
-30.038,-29.931,-29.729,-29.662,-29.549,-33.032,-29.927,-29.892
-30.196,-29.941,-29.922,-29.875,-29.286,-27.015,-29.989,-30.128
-32.143,-31.709,-32.015,-31.881,-33.205,-25.605,-32.03,-32.165
-33.669,-33.274,-33.577,-33.422,-38.818,-27.551,-33.619,-33.698
-33.67,-33.452,-33.544,-33.47,-44.702,-31.293,-33.609,-33.747
-32.646,-32.578,-32.648,-32.522,-47.442,-33.128,-32.769,-32.841
-31.445,-31.493,-31.671,-31.437,-49.389,-34.286,-31.969,-31.694
-30.215,-30.315,-30.494,-30.398,-51.861,-35.322,-30.939,-30.399
-29.464,-29.449,-29.668,-29.758,-56.353,-39.658,-29.948,-29.548
-29.173,-28.85,-29.352,-29.347,-59.501,-45.165,-29.255,-29.185
-28.798,-28.185,-28.912,-28.803,-58.094,-46.169,-28.635,-28.746
-28.609,-28.059,-28.62,-28.645,-59.912,-48.808,-28.442,-28.546
-28.671,-28.494,-28.803,-28.872,-64.638,-55.021,-28.677,-28.724
-29.114,-29.185,-29.5,-29.381,-67.695,-62.008,-29.246,-29.253
-29.55,-29.564,-29.941,-29.72,-68.062,-66.581,-29.613,-29.585
-29.053,-28.909,-29.212,-29.054,-66.349,-67.504,-28.943,-28.934
-27.98,-27.771,-27.975,-27.891,-66.384,-70.599,-27.758,-27.829
-27.155,-27.032,-27.219,-27.243,-64.495,-73.708,-27.079,-27.138
-26.694,-26.711,-27.009,-27.17,-58.705,-72.773,-27.006,-26.927
-25.51,-25.593,-26.005,-26.154,-51.73,-67.241,-26.066,-25.906
-23.188,-23.242,-23.583,-23.557,-47.007,-59.239,-23.613,-23.526
-21.291,-21.226,-21.441,-21.252,-48.82,-56.224,-21.424,-21.497
-20.538,-20.361,-20.616,-20.347,-50.378,-56.189,-20.527,-20.777
-20.527,-20.371,-20.743,-20.485,-48.175,-54.866,-20.589,-20.908
-21.141,-21.049,-21.4,-21.279,-46.714,-52.259,-21.328,-21.47
-22.423,-22.297,-22.488,-22.488,-48.459,-50.354,-22.603,-22.485
-23.68,-23.49,-23.544,-23.478,-54.892,-52.282,-23.678,-23.574
-23.882,-23.756,-23.762,-23.575,-60.735,-52.337,-23.726,-23.842
-23.836,-23.854,-23.836,-23.697,-64.68,-51.66,-23.754,-23.933
-24.41,-24.493,-24.395,-24.42,-68.54,-57.07,-24.5,-24.576
-24.977,-25.078,-24.883,-25.054,-71.099,-65.723,-25.15,-25.184
-24.991,-25.103,-24.924,-25.242,-72.646,-71.64,-25.198,-25.223
-24.705,-24.692,-24.582,-25.045,-68.584,-69.48,-24.892,-24.892
-25.346,-25.125,-25.005,-25.516,-62.939,-66.395,-25.431,-25.503
-26.927,-26.721,-26.561,-26.983,-64.169,-70.92,-26.981,-27.1
-28.291,-28.338,-28.185,-28.448,-69.171,-79.208,-28.431,-28.322
-29.28,-29.491,-29.304,-29.515,-72.363,-86.711,-29.425,-29.024
-29.823,-30.051,-29.661,-30.033,-69.225,-88.493,-29.862,-29.454
-29.975,-30.237,-29.651,-30.216,-64.495,-87.464,-29.971,-29.754
-29.691,-29.919,-29.471,-30.004,-63.046,-87.606,-29.72,-29.657
-28.547,-28.609,-28.5,-28.829,-60.508,-84.158,-28.59,-28.575
-26.242,-26.286,-26.269,-26.489,-55.282,-75.759,-26.321,-26.227
-22.957,-23.227,-23.009,-23.294,-47.525,-63.807,-23.145,-22.895
-20.767,-21.113,-20.771,-21.092,-43.988,-55.553,-21.008,-20.696
-21.04,-21.2,-20.958,-21.078,-47.234,-53.914,-21.233,-21.004
-22.221,-22.37,-22.238,-22.051,-47.335,-51.803,-22.404,-22.275
-22.318,-22.643,-22.559,-22.342,-41.169,-47.725,-22.551,-22.42
-20.832,-21.049,-21.13,-21.107,-33.55,-42.501,-21.051,-20.845
-19.373,-19.285,-19.59,-19.562,-32.387,-40.238,-19.481,-19.253
-19.086,-19.019,-19.326,-19.133,-36.312,-41.224,-19.119,-19.002
-19.453,-19.665,-19.774,-19.694,-36.738,-40.029,-19.561,-19.593
-20.314,-20.573,-20.541,-20.853,-35.421,-39.59,-20.495,-20.538
-21.192,-21.257,-21.236,-21.725,-35.183,-41.79,-21.263,-21.169
-21.241,-21.225,-21.306,-21.572,-38.114,-45.865,-21.169,-20.945
-20.257,-20.329,-20.475,-20.51,-40.558,-46.864,-20.255,-19.97
-18.932,-19.063,-19.152,-19.205,-34.966,-40.215,-19.168,-18.845
-18.148,-18.259,-18.261,-18.383,-27.745,-34.581,-18.602,-18.245
-17.753,-17.873,-17.871,-17.899,-26.083,-34.993,-18.259,-17.86
-17.636,-17.808,-17.88,-17.681,-29.253,-38.651,-17.953,-17.501
-17.839,-17.998,-18.213,-17.878,-31.749,-40.378,-17.911,-17.455
-18.179,-18.218,-18.539,-18.391,-32.859,-39.874,-18.128,-17.781
-18.325,-18.221,-18.432,-18.643,-39.028,-44.784,-18.136,-17.94
-17.675,-17.55,-17.517,-17.799,-44.219,-50.828,-17.362,-17.219
-16.851,-16.831,-16.647,-16.743,-44.155,-51.181,-16.65,-16.488
-16.54,-16.561,-16.37,-16.48,-45.745,-48.055,-16.611,-16.442
-16.677,-16.662,-16.535,-16.789,-52.75,-47.152,-16.963,-16.751
-17.339,-17.442,-17.424,-17.489,-63.367,-53.363,-17.729,-17.472
-17.582,-17.912,-18.045,-17.744,-68.494,-59.549,-17.931,-17.724
-16.739,-17.13,-17.331,-17.097,-65.808,-60.438,-16.917,-16.781
-15.441,-15.742,-15.8,-16.072,-60.041,-58.945,-15.456,-15.394
-14.114,-14.304,-14.217,-14.779,-55.537,-58.706,-14.05,-14.12
-12.616,-12.66,-12.719,-13.023,-57.149,-63.705,-12.551,-12.689
-11.416,-11.371,-11.683,-11.597,-59.964,-70.751,-11.444,-11.576
-11.61,-11.623,-11.883,-11.729,-61.318,-78.193,-11.705,-11.893
-11.439,-11.508,-11.456,-11.414,-61.978,-83.277,-11.438,-11.613
-8.528,-8.556,-8.314,-8.256,-58.734,-81.895,-8.402,-8.383
-4.846,-4.86,-4.627,-4.506,-52.854,-78.817,-4.746,-4.602
-2.902,-2.925,-2.74,-2.641,-44.248,-73.236,-2.892,-2.816
-1.774,-1.723,-1.655,-1.559,-37.346,-64.997,-1.79,-1.693
0.787,0.83,0.759,0.839,-36.343,-57.995,0.731,1.038
3.986,3.818,3.796,3.753,-37.125,-51.747,3.877,4.188
4.681,4.377,4.562,4.422,-39.186,-46.497,4.672,4.647
3.137,2.985,3.324,3.106,-40.11,-38.955,3.298,3.118
2.728,2.832,3.15,2.826,-37.35,-29.958,2.971,3.01
5.206,5.42,5.563,5.34,-30.186,-22.843,5.564,5.749
8.62,8.785,8.779,8.779,-20.405,-17.606,9.145,9.33
10.395,10.484,10.532,10.379,-13.825,-15.216,10.901,11.247
10.864,10.9,11.152,10.566,-7.32,-10.946,11.165,11.682
10.698,10.698,11.067,10.365,-1.526,-7.126,10.894,11.241
9.903,9.903,10.182,9.724,-1.5,-9.153,10.17,10.155
9.13,9.112,9.181,8.939,-4.746,-11.974,9.374,9.205
8.365,8.314,8.174,8.033,-9.526,-12.894,8.429,8.365
6.904,6.948,6.685,6.615,-12.587,-12.648,6.939,6.983
4.506,4.746,4.526,4.495,-14.754,-15.981,4.768,4.781
2.351,2.704,2.651,2.622,-16.277,-21.757,2.793,2.752
1.71,2.085,2.083,2.092,-11.968,-22.093,2.086,2.098
2.343,2.707,2.546,2.681,-4.548,-19.106,2.535,2.674
3.233,3.533,3.26,3.491,2.216,-15.404,3.313,3.538
2.994,3.228,3.001,3.18,4.989,-13.787,3.052,3.307
1.471,1.658,1.493,1.611,5.086,-14.975,1.489,1.792
-0.777,-0.671,-0.771,-0.532,7.187,-14.653,-0.776,-0.455
-3.558,-3.447,-3.512,-3.026,6.863,-14.691,-3.406,-3.191
-5.11,-4.785,-4.967,-4.323,4.312,-13.872,-4.737,-4.586
-4.583,-4.016,-4.317,-3.747,2.12,-10.745,-4.097,-3.794
-3.815,-3.306,-3.495,-3.097,0.631,-6.25,-3.361,-2.9
-4.282,-4.108,-4.069,-3.719,0.723,-1.422,-3.965,-3.556
-5.401,-5.397,-5.245,-4.945,-1.084,-1.547,-5.153,-4.884
-5.249,-5.051,-4.933,-4.917,-1.583,-2.227,-4.923,-4.786
-3.409,-3.001,-2.98,-3.28,2.351,2.152,-3.05,-3.105
-1.849,-1.485,-1.501,-1.848,8.826,8.388,-1.592,-1.799
-2.711,-2.45,-2.404,-2.66,14.944,11.484,-2.548,-2.646
-5.223,-4.985,-4.899,-5.129,15.152,8.483,-5.04,-4.883
-6.398,-6.304,-6.233,-6.422,12.985,5.132,-6.165,-5.953
-6.557,-6.699,-6.588,-6.727,11.017,1.732,-6.377,-6.318
-8.384,-8.513,-8.311,-8.501,7.229,-4.703,-8.289,-8.33
-12.023,-11.949,-11.724,-11.905,2.183,-10.624,-11.902,-11.939
-14.969,-14.831,-14.67,-14.667,-5.488,-16.046,-14.717,-14.799
-15.39,-15.259,-15.159,-15.023,-10.749,-18.984,-14.985,-15.174
-15.129,-14.836,-14.762,-14.692,-12.427,-20.772,-14.604,-14.855
-15.98,-15.514,-15.433,-15.505,-14.636,-23.885,-15.437,-15.721
-16.941,-16.518,-16.404,-16.58,-16.689,-24.351,-16.513,-16.818
-17.099,-16.764,-16.671,-16.856,-20.067,-22.459,-16.838,-17.022
-16.435,-16.067,-16.085,-16.106,-21.305,-17.954,-16.319,-16.258
-16.135,-15.759,-15.907,-15.663,-18.622,-13.528,-16.114,-15.955
-16.881,-16.583,-16.79,-16.423,-15.364,-11.531,-16.819,-16.778
-17.35,-17.049,-17.217,-16.934,-11.173,-7.667,-17.109,-17.102
-16.845,-16.495,-16.553,-16.39,-6.272,-2.298,-16.55,-16.378
-16.274,-16.018,-15.998,-15.857,-0.553,3.727,-16.21,-15.971
-16.806,-16.687,-16.691,-16.539,-0.897,5.621,-16.929,-16.907
-17.69,-17.561,-17.607,-17.539,-9.286,1.042,-17.684,-17.968
-17.435,-17.203,-17.271,-17.334,-13.936,-2.454,-17.233,-17.657
-16.595,-16.279,-16.423,-16.52,-11.721,-3.38,-16.359,-16.753
-16.188,-15.827,-16.089,-16.061,-6.343,-3.136,-15.947,-16.346
-16.411,-16.096,-16.397,-16.175,-2.69,-4.06,-16.122,-16.598
-16.488,-16.286,-16.462,-16.239,-1.08,-5.791,-16.179,-16.59
-15.689,-15.471,-15.479,-15.52,2.359,-5.042,-15.304,-15.525
-14.635,-14.295,-14.252,-14.585,2.631,-5.861,-14.115,-14.305
-14.226,-13.931,-13.868,-14.347,-1.641,-8.138,-13.764,-14.061
-15.23,-15.109,-14.937,-15.385,-7.199,-10.525,-15.049,-15.248
-16.715,-16.616,-16.373,-16.634,-10.883,-12.672,-16.752,-16.665
-16.742,-16.523,-16.335,-16.51,-10.463,-11.784,-16.809,-16.684
-15.716,-15.482,-15.312,-15.692,-10.493,-11.376,-15.729,-15.901
-14.773,-14.712,-14.469,-15.043,-10.194,-12.36,-14.719,-15.146
-13.997,-14.068,-13.874,-14.334,-8.462,-14.026,-13.851,-14.225
-13.021,-12.966,-13.005,-13.2,-7.606,-13.965,-12.798,-12.944
-11.977,-11.678,-11.916,-11.876,-7.598,-9.26,-11.752,-11.818
-11.579,-11.179,-11.435,-11.212,-11.22,-7.46,-11.414,-11.555
-11.495,-11.148,-11.33,-11.078,-15.254,-9.011,-11.369,-11.55
-8.969,-8.697,-8.855,-8.743,-8.033,-0.144,-8.794,-9.098
0.058,0.277,0.131,0.148,25.169,34.136,0.271,-0.262
12.325,12.516,12.467,12.543,73.728,80.81,12.497,11.921
17.064,17.275,17.322,17.482,95.383,98.323,17.322,16.817
12.241,12.355,12.48,12.576,81.444,81.56,12.665,12.092
5.959,5.81,6.043,5.919,62.264,62.245,6.273,5.657
2.596,2.342,2.576,2.247,54.611,54.098,2.643,2.112
0.521,0.429,0.483,0.112,52.277,48.544,0.522,0.008
-0.977,-0.918,-1.067,-1.329,46.867,40.113,-0.914,-1.459
-0.822,-0.683,-0.911,-1.051,42.703,35.913,-0.829,-1.254
-1.046,-0.756,-0.978,-1.062,37.808,31.252,-1.085,-1.36
-4.803,-4.368,-4.63,-4.615,24.083,15.291,-4.684,-5.036
-10.787,-10.386,-10.704,-10.499,5.781,-4.924,-10.545,-11.069
-14.579,-14.353,-14.611,-14.253,-8.16,-16.672,-14.414,-14.897
-14.158,-14.112,-14.256,-13.857,-9.911,-13.738,-14.123,-14.362
-12.517,-12.662,-12.678,-12.412,-6.157,-7.159,-12.553,-12.545
-12.845,-13.186,-12.997,-13.021,-10.238,-10.683,-12.938,-12.763
-14.78,-15.137,-14.863,-15.068,-20.243,-19.452,-14.858,-14.685
-16.498,-16.669,-16.582,-16.728,-26.5,-23.106,-16.425,-16.513
-16.917,-16.978,-17.068,-17.135,-21.541,-16.667,-16.806,-17.164
-17.419,-17.542,-17.615,-17.682,-14.58,-10.173,-17.587,-17.845
-19.38,-19.545,-19.617,-19.608,-18.752,-14.761,-19.852,-19.778
-21.166,-21.304,-21.479,-21.342,-28.231,-24.291,-21.618,-21.455
-20.502,-20.627,-20.755,-20.673,-31.82,-29.256,-20.746,-20.723
-17.64,-17.756,-17.62,-17.745,-25.301,-25.626,-17.818,-17.759
-15.962,-16.074,-15.801,-16.029,-20.137,-23.148,-16.177,-15.994
-17.357,-17.545,-17.413,-17.574,-26.703,-30.045,-17.507,-17.434
-19.583,-19.92,-19.919,-19.935,-36.003,-36.912,-19.656,-19.754
-20.149,-20.553,-20.509,-20.393,-38.403,-37.054,-20.278,-20.433
-18.714,-18.989,-18.924,-18.76,-32.456,-31.509,-18.865,-19.19
-16.681,-16.806,-16.827,-16.708,-28.367,-27.746,-16.732,-17.255
-15.197,-15.455,-15.437,-15.422,-33.791,-30.049,-15.306,-15.668
-14.711,-15.294,-15.14,-15.176,-40.503,-33.249,-15.145,-15.103
-15.656,-16.328,-16.27,-16.174,-43.229,-36.057,-16.281,-16.06
-17.326,-17.819,-17.955,-17.68,-43.637,-36.882,-17.749,-17.706
-18.803,-19.237,-19.297,-19.037,-48.495,-37.951,-18.998,-19.207
-19.537,-20.139,-19.964,-19.88,-57.776,-41.387,-19.869,-20.101
-19.471,-20.209,-19.849,-19.983,-61.21,-41.423,-20.006,-20.109
-19.29,-19.946,-19.469,-19.734,-60.116,-39.931,-19.626,-19.668
-18.853,-19.223,-18.864,-18.955,-59.856,-40.564,-18.813,-18.755
-18.083,-18.082,-18.14,-17.828,-61.336,-43.646,-17.9,-17.675
-17.349,-17.05,-17.464,-16.923,-61.474,-46.077,-17.087,-16.929
-16.623,-16.225,-16.669,-16.242,-57.077,-43.73,-16.113,-16.277
-15.839,-15.617,-15.927,-15.746,-54.205,-41.437,-15.241,-15.544
-14.795,-14.964,-15.143,-15.106,-54.638,-41.006,-14.55,-14.608
-13.868,-14.296,-14.359,-14.34,-56.62,-42.581,-13.941,-13.767
-12.746,-12.994,-13.07,-12.978,-56.433,-45.325,-12.642,-12.535
-10.468,-10.353,-10.646,-10.339,-48.441,-44.048,-10.113,-10.089
-8.051,-7.855,-8.314,-7.772,-40.238,-41.402,-7.82,-7.696
-6.756,-6.743,-7.108,-6.552,-38.553,-38.857,-6.75,-6.564
-6.496,-6.607,-6.829,-6.466,-41.202,-36.283,-6.521,-6.441
-6.488,-6.655,-6.888,-6.72,-43.538,-34.369,-6.511,-6.586
-6.255,-6.551,-6.839,-6.785,-44.65,-32.624,-6.376,-6.535
-6.107,-6.516,-6.776,-6.774,-50.979,-35.693,-6.3,-6.484
-6.048,-6.469,-6.603,-6.562,-58.636,-40.796,-6.177,-6.353
-6.091,-6.468,-6.445,-6.317,-61.685,-43.258,-5.997,-6.092
-5.789,-6.03,-6.005,-5.867,-61.631,-43.307,-5.392,-5.422
-4.457,-4.489,-4.664,-4.555,-58.638,-40.567,-3.919,-4.055
-2.663,-2.619,-2.919,-2.76,-55.125,-38.733,-2.259,-2.603
-1.002,-1.055,-1.254,-1.014,-50.569,-36.525,-0.744,-1.239
0.199,0.139,-0.012,0.276,-46.21,-33.663,0.579,-0.004
1.194,1.227,0.932,1.283,-42.8,-33.414,1.691,1.089
2.366,2.324,1.944,2.415,-36.104,-33.888,2.557,2.143
3.087,2.904,2.553,3.129,-29.813,-34.515,2.844,2.828
3.791,3.73,3.328,3.824,-25.548,-31.108,3.569,3.822
5.363,5.557,5.102,5.29,-22.582,-23.708,5.503,5.65
7.359,7.519,7.209,7.137,-21.542,-17.611,7.638,7.513
8.784,8.635,8.503,8.467,-20.308,-12.934,8.883,8.576
9.135,8.798,8.652,8.737,-20.367,-12.207,9.104,8.698
9.112,8.891,8.608,8.637,-19.451,-13.884,9.064,8.672
9.025,9.078,8.637,8.637,-17.602,-15.451,8.869,8.683
8.816,9.054,8.572,8.708,-17.454,-16.645,8.528,8.579
8.997,9.208,8.946,9.059,-16.24,-15.237,8.713,8.816
9.513,9.617,9.623,9.413,-15.756,-14.196,9.352,9.36
10.134,10.181,10.234,9.778,-15.345,-12.562,10.096,10.019
10.669,10.615,10.614,10.271,-14.863,-9.764,10.628,10.497
11.301,11.105,11.15,11.045,-16.431,-8.579,11.174,10.956
12.535,12.378,12.532,12.445,-16.09,-6.605,12.449,12.169
13.943,13.986,14.158,13.98,-12.358,-3.182,13.994,13.742
14.689,14.746,14.897,14.783,-4.91,2.106,14.676,14.489
14.602,14.467,14.655,14.661,1.441,4.779,14.355,14.23
14.9,14.773,14.915,14.913,3.148,3.527,14.64,14.58
15.734,15.816,15.818,15.776,5.361,6.47,15.685,15.667
15.163,15.248,15.211,15.229,6.969,11.147,15.131,15.14
13.729,13.609,13.693,13.67,7.555,12.431,13.443,13.538
13.567,13.322,13.643,13.308,8.38,10.272,13.105,13.33
14.604,14.374,14.863,14.287,10.744,9.525,14.227,14.484
15.591,15.503,15.789,15.361,17.785,16.802,15.415,15.543
15.775,15.911,15.774,15.54,23.452,25.456,15.737,15.718
15.185,15.424,15.192,14.82,25.762,29.31,15.232,15.174
14.174,14.259,14.386,13.801,28.28,29.685,14.281,14.295
13.794,13.592,14.078,13.566,30.79,30.956,13.791,13.959
14.18,13.82,14.238,14.04,31.29,36.046,13.916,14.192
13.625,13.352,13.461,13.547,26.154,37.679,13.339,13.485
12.478,12.321,12.421,12.54,22.418,36.427,12.509,12.379
12.593,12.328,12.712,12.697,26.451,39.121,12.749,12.567
13.694,13.202,13.731,13.674,33.252,45.408,13.502,13.617
13.872,13.295,13.833,13.79,37.463,50.626,13.307,13.829
12.457,11.932,12.6,12.45,36.003,48.353,11.856,12.619
11.243,10.788,11.53,11.338,35.565,44.228,10.759,11.441
11.197,10.912,11.31,11.358,40.149,44.397,10.784,11.137
11.225,11.161,11.022,11.298,44.895,45.347,10.805,10.906
10.388,10.333,10.068,10.247,48.101,45.926,9.863,9.961
9.226,8.973,9,9.01,47.548,45.048,8.561,8.758
9.292,8.852,9.046,9.152,45.749,45.069,8.566,8.803
10.093,9.616,9.657,10.001,45.186,46.232,9.481,9.63
10.084,9.744,9.658,10.074,45.503,46.457,9.781,9.719
9.284,9.142,9.155,9.427,47.056,46.783,9.281,9.113
7.871,7.887,7.939,8.054,43.954,43.366,7.938,7.939
6.267,6.41,6.251,6.321,37.987,38.9,6.211,6.404
4.968,5.19,4.812,4.879,34.1,37.381,4.762,4.914
3.934,4.114,3.756,3.759,30.601,35.695,3.62,3.708
3.07,3.087,2.976,2.767,27.968,33.235,2.665,2.9
2.455,2.341,2.472,1.978,24.952,28.94,1.933,2.429
2.796,2.679,2.835,2.287,22.97,26.248,2.121,2.82
3.646,3.521,3.541,3.273,22.129,26.464,2.843,3.594
3.453,3.249,3.119,3.181,20.214,26.018,2.65,3.275
1.855,1.663,1.39,1.561,19.166,25.716,1.242,1.658
-0.017,-0.056,-0.429,-0.365,17.322,23.911,-0.316,-0.081
-0.46,-0.318,-0.709,-0.799,16.128,21.802,-0.522,-0.419
0.114,0.377,0.036,-0.189,15.185,20.105,0.09,0.103
0.237,0.48,0.246,-0.152,10.905,16.384,0.136,0.113
0.454,0.531,0.405,-0.125,8.337,12.654,0.307,0.3
1.832,1.763,1.635,1.2,11.383,9.904,1.704,1.702
4.055,3.97,3.768,3.602,19.269,11.445,3.944,3.877
5.408,5.352,5.164,5.162,23.269,14.606,5.289,5.165
5.418,5.363,5.314,5.181,18.326,12.55,5.326,5.242
5.354,5.352,5.458,4.997,15.158,9.162,5.378,5.396
5.468,5.632,5.726,5.041,18.405,8.041,5.535,5.732
5.436,5.732,5.576,4.974,23.291,9.281,5.283,5.736
4.998,5.191,4.8,4.498,23.212,9.078,4.618,5.192
4.634,4.543,4.246,4.164,18.938,7.574,4.307,4.727
5.633,5.34,5.368,5.27,18.515,12.317,5.422,5.617
7.695,7.334,7.589,7.402,17.444,19.227,7.435,7.557
9.16,8.754,9.037,8.816,11.604,22.187,8.834,8.999
9.08,8.749,8.937,8.677,7.2,22.037,8.826,9.08
8.617,8.629,8.619,8.392,10.16,22.611,8.528,8.88
9.204,9.597,9.368,9.37,17.59,25.57,9.243,9.565
10.129,10.553,10.286,10.56,16.181,22.671,10.23,10.302
10.427,10.608,10.512,10.852,6.032,13.988,10.637,10.362
10.014,10.097,10.189,10.359,-1.864,6.274,10.347,9.968
9.848,9.988,10.179,10.137,-3.877,1.48,10.059,10.017
10.82,10.905,11.09,10.99,-3.018,0.332,10.761,11.115
12.096,12.037,12.116,12.123,-5.642,-2.373,12.02,12.31
13.175,13.059,13.041,13.196,-7.647,-6.332,13.272,13.19
14.39,14.351,14.352,14.506,-4.089,-6.588,14.517,14.267
15.957,16.04,16.073,16.054,1.28,-3.003,15.973,15.812
17.589,17.728,17.657,17.56,5.629,0.913,17.516,17.435
18.421,18.5,18.37,18.332,6.046,-1.162,18.349,18.271
18.835,18.753,18.847,18.732,7.129,-3.263,18.852,18.759
19.657,19.477,19.837,19.555,12.37,1.364,19.787,19.677
20.811,20.768,21.117,20.86,16.925,7.008,20.991,20.825
22.16,22.296,22.492,22.374,19.122,9.973,22.26,21.961
23.77,23.842,23.964,23.855,20.028,11.557,23.736,23.322
25.396,25.301,25.431,25.263,23.54,17.086,25.331,24.98
25.73,25.613,25.753,25.664,25.009,23.368,25.698,25.549
25.009,24.922,25.032,25.172,19.457,23.389,24.947,24.946
25.476,25.308,25.461,25.794,16.277,22.37,25.364,25.381
27.37,27.127,27.477,27.783,18.243,24.499,27.241,27.233
29.505,29.394,29.867,29.917,21.896,29.816,29.387,29.341
31.082,31.222,31.566,31.302,23.884,32.735,31.067,30.952
31.87,32.035,32.238,31.793,22.28,28.401,32,31.871
31.97,31.893,32.126,31.659,20.959,22.026,32.07,32.048
31.347,31.117,31.35,30.893,20.396,15.835,31.223,31.376
30.954,30.75,30.814,30.438,22.471,12.479,30.672,30.941
31.5,31.208,31.192,31.041,24.531,11.741,31.231,31.458
32.514,32.018,32.24,32.182,21.367,10.194,32.31,32.361
33.587,33.111,33.597,33.334,20.997,12.48,33.469,33.377
34.246,34.08,34.418,34.037,28.116,19.577,34.237,34.238
34.333,34.435,34.384,34.244,36.86,27.184,34.357,34.655
33.88,33.973,33.79,33.926,37.813,27.621,33.799,34.327
33.104,33.064,33.056,33.179,30.79,20.279,32.906,33.458
32.132,32.04,32.192,32.204,26.306,16.941,31.966,32.436
30.392,30.333,30.461,30.52,24.549,18.603,30.388,30.77
28.388,28.407,28.404,28.505,22.619,20.221,28.511,28.765
27.384,27.425,27.384,27.291,20.38,19.218,27.482,27.545
27.812,27.705,27.815,27.458,18.825,16.246,27.791,27.753
28.756,28.523,28.797,28.408,21.793,17.762,28.718,28.804
28.925,28.832,29.121,28.841,25.063,22.152,28.99,29.317
28.933,29.068,29.309,28.963,25.771,25.234,29.006,29.41
29.25,29.382,29.602,29.061,23.945,24.586,29.24,29.388
29.06,29.025,29.178,28.685,19.941,20.808,29.091,28.942
28.475,28.399,28.376,28.25,18.498,18.842,28.624,28.526
28.116,28.147,27.951,28.136,16.8,14.581,28.265,28.415
28.37,28.459,28.227,28.495,13.508,7.367,28.457,28.703
28.997,29.044,28.843,29.234,12.1,2.611,29.137,29.335
29.591,29.561,29.405,29.984,13.075,1.124,29.813,29.997
29.837,29.686,29.765,30.183,14.431,1.242,29.988,30.191
29.294,28.964,29.461,29.41,10.149,-1.647,29.334,29.504
28.993,28.58,29.259,29.03,5.12,-3.255,29.075,29.215
29.984,29.79,30.144,30.141,6.89,0.467,30.163,30.391
31.663,31.799,31.751,31.928,11.661,5.101,31.858,32.179
33.015,33.141,33.215,33.349,14.644,9.924,33.215,33.456
33.413,33.267,33.823,33.824,11.618,12.402,33.634,33.76
33.032,32.827,33.606,33.454,6.443,13.307,33.157,33.343
31.727,31.743,32.373,32.087,3.848,14.23,31.686,32
30.061,30.271,30.71,30.398,1.27,12.624,30.006,30.304
29.855,30.091,30.425,30.164,-1.17,9.666,29.882,30.048
30.819,31.004,31.189,31.006,-2.772,5.08,30.762,30.857
31.125,31.265,31.284,31.239,-0.288,2.712,30.915,31.048
30.027,30.132,30.124,30.196,3.319,3.43,29.867,30.105
28.852,28.951,28.945,29.012,1.299,0.939,28.795,29.198
29.224,29.327,29.201,29.289,-1.359,-2.725,29.082,29.557
30.016,30.052,29.86,30.134,-1.301,-3.738,29.79,30.103
29.869,29.763,29.751,30.173,2.022,0.223,29.769,29.881
29.269,29.128,29.373,29.647,6.842,5.107,29.432,29.469
28.968,29.053,29.303,29.311,9.048,4.68,29.417,29.35
29.527,29.897,29.862,29.894,11.017,4.157,30.114,29.888
31.22,31.592,31.336,31.631,13.774,7.469,31.619,31.439
33.451,33.564,33.501,33.79,19.598,14.247,33.584,33.6
34.255,34.092,34.472,34.409,26.565,19.582,34.377,34.357
33.103,32.752,33.275,33.097,27.762,20.079,33.243,33.016
31.857,31.55,31.701,31.846,25.611,22.62,31.898,31.648
31.059,31.059,30.774,31.114,22.994,27.402,31.176,31.04
30.279,30.458,30.138,30.315,23.131,31.008,30.576,30.503
29.931,29.986,29.878,29.986,27.181,32.423,30.217,30.24
30.495,30.476,30.453,30.768,31.347,32.02,30.71,30.877
31.123,31.241,31.185,31.604,35.165,33.506,31.441,31.56
30.335,30.543,30.575,30.785,36.183,33.831,30.826,30.732
28.722,28.812,29.076,29.015,34.608,31.263,29.149,29.045
27.421,27.356,27.702,27.556,30.331,26.096,27.531,27.622
26.322,26.22,26.342,26.298,23.173,18.816,26.212,26.393
25.052,24.88,24.792,24.922,20.459,15.202,24.953,25.089
23.584,23.219,23.195,23.401,21.286,12.731,23.504,23.566
22.896,22.453,22.577,22.693,21.005,8.277,22.689,22.772
23.14,22.898,23.004,23.05,19.368,3.561,22.736,23.078
23.21,23.265,23.22,23.322,19.572,-0.167,22.738,23.311
22.8,22.965,22.882,22.953,26.746,-0.26,22.461,22.868
22.338,22.381,22.475,22.394,34.844,-0.322,22.142,22.276
22.263,22.141,22.345,22.328,37.597,-1.471,22.031,22.281
21.721,21.545,21.559,21.848,34.757,-1.713,21.379,21.973
19.985,19.851,19.692,20.007,28.853,-0.906,19.671,20.334
18.322,18.236,18.227,18.151,25.504,1.263,18.095,18.55
17.764,17.663,17.844,17.523,21.06,-2.775,17.496,17.808
17.821,17.687,17.817,17.664,12.8,-13.391,17.488,17.786
16.683,16.632,16.635,16.659,2.607,-22.311,16.422,16.72
13.535,13.619,13.631,13.585,-7.94,-27.185,13.333,13.68
9.945,10.024,10.118,9.958,-14.282,-29.215,9.651,10.114
7.287,7.322,7.374,7.252,-19.001,-32.276,6.995,7.508
6.364,6.512,6.379,6.401,-21.104,-31.718,6.323,6.782
7.41,7.608,7.415,7.501,-15.733,-23.224,7.577,7.889
9.549,9.511,9.563,9.523,-7.786,-13.908,9.705,9.791
11.264,11.082,11.4,11.174,-3.164,-8.706,11.451,11.382
11.184,11.355,11.597,11.288,-3.591,-8.912,11.604,11.568
10.291,10.942,10.94,10.641,-3.157,-8.839,10.865,10.947
10.236,10.854,10.868,10.595,-0.542,-6.002,10.609,10.722
10.496,10.648,10.883,10.642,-1.29,-6.456,10.438,10.549
9.65,9.597,9.756,9.661,-3.737,-9.94,9.327,9.559
7.405,7.665,7.35,7.555,-7.352,-13.855,7.237,7.541
5.216,5.752,5.117,5.56,-9.772,-13.654,5.407,5.492
3.828,4.235,3.671,4.142,-10.306,-10.549,4.243,4.016
2.879,3.173,2.636,3.063,-14.467,-11.338,3.342,3.047
2.375,2.859,2.213,2.569,-20.53,-12.997,2.791,2.678
1.617,2.174,1.76,1.898,-24.902,-12.64,1.883,1.975
0.189,0.457,0.62,0.52,-24.284,-9.62,0.268,0.402
-1.053,-1,-0.566,-0.657,-20.188,-7.17,-0.999,-0.943
-1.124,-0.871,-0.711,-0.638,-17.08,-9.268,-0.857,-0.855
-0.493,0.032,-0.106,0.004,-13.409,-10.581,-0.019,-0.009
-0.96,-0.546,-0.676,-0.621,-12.424,-10.939,-0.523,-0.525
-2.442,-2.33,-2.4,-2.342,-14.044,-12.031,-2.159,-2.351
-3.72,-3.649,-3.777,-3.731,-14.044,-12.993,-3.427,-3.937
-4.563,-4.35,-4.471,-4.519,-11.386,-13.208,-4.134,-4.7
-4.924,-4.671,-4.731,-4.83,-3.202,-8.884,-4.552,-4.81
-4.943,-4.719,-4.905,-4.906,5.831,-3.091,-4.899,-4.863
-4.446,-4.272,-4.644,-4.511,11.017,1.446,-4.662,-4.535
-3.466,-3.474,-3.724,-3.574,11.501,3.677,-3.611,-3.466
-2.697,-2.936,-2.867,-2.725,7.823,2.721,-2.632,-2.521
-2.483,-2.758,-2.622,-2.387,8.082,5.788,-2.339,-2.406
-2.886,-2.985,-3.16,-2.797,13.761,12.775,-2.775,-3.065
-3.713,-3.613,-4.17,-3.732,20.499,18.024,-3.647,-4.025
-5.224,-5.076,-5.717,-5.271,24.172,19.037,-5.217,-5.584
-7.279,-7.305,-7.687,-7.248,23.657,18.168,-7.335,-7.667
-8.599,-8.86,-8.99,-8.525,24.675,22.636,-8.647,-8.894
-8.706,-8.977,-9.1,-8.63,27.028,29.96,-8.662,-8.775
-7.883,-7.91,-8.078,-7.653,30.652,36.858,-7.756,-7.738
-7.349,-7.106,-7.14,-6.827,35.913,43.22,-7.164,-7.13
-8.31,-7.977,-7.734,-7.663,38.738,46.666,-8.108,-8.185
-10.163,-9.972,-9.5,-9.719,38.532,47.65,-10.088,-10.202
-11.91,-11.91,-11.4,-11.761,32.955,43.068,-11.968,-11.998
-12.539,-12.505,-12.139,-12.428,26.33,35.643,-12.47,-12.494
-11.945,-11.687,-11.468,-11.622,26.276,32.811,-11.582,-11.769
-11.229,-10.912,-10.669,-10.85,31.36,35.541,-10.754,-11.163
-10.679,-10.619,-10.267,-10.662,37.075,41.084,-10.403,-10.941
-10.091,-10.358,-9.983,-10.508,37.421,40.516,-10.075,-10.618
-9.543,-9.898,-9.591,-9.941,36.404,34.752,-9.585,-10.073
-9.601,-9.779,-9.6,-9.658,39.815,33.352,-9.592,-9.919
-10.129,-10.195,-10.156,-10.061,43.17,37.205,-10.191,-10.251
-10.001,-10.216,-10.24,-10.078,44.297,42.941,-10.203,-10.181
-9.407,-9.715,-9.69,-9.563,42.882,46.341,-9.582,-9.723
-9.105,-9.186,-9.055,-9.204,43.841,51.754,-9.091,-9.28
-9.368,-9.178,-9.014,-9.402,49.601,61.923,-9.244,-9.28
-10.078,-9.857,-9.793,-10.029,53.902,68.005,-10.005,-9.939
-10.636,-10.503,-10.579,-10.472,55.247,66.062,-10.637,-10.588
-10.863,-10.77,-10.943,-10.665,54.058,58.919,-10.921,-10.923
-10.784,-10.731,-10.947,-10.716,54.825,55.483,-10.949,-11.05
-10.993,-10.974,-11.232,-11.087,57.382,57.458,-11.255,-11.443
-11.959,-11.898,-12.25,-12.012,53.881,56.806,-12.18,-12.292
-13.12,-13.025,-13.4,-12.952,47.674,53.955,-13.092,-13.134
-14.127,-14.092,-14.368,-13.885,44.837,50.729,-13.808,-14.044
-14.338,-14.437,-14.694,-14.376,47.957,49.89,-14.069,-14.53
-13.884,-14.1,-14.458,-14.274,53.543,50.79,-13.927,-14.333
-14.202,-14.4,-14.75,-14.618,55.67,47.828,-14.303,-14.52
-15.732,-15.832,-16.005,-15.881,57.917,44.663,-15.633,-15.762
-17.955,-18.091,-18.094,-17.82,59.949,43.23,-17.807,-17.949
-19.69,-19.983,-19.982,-19.391,58.959,42.164,-19.681,-19.865
-20.192,-20.522,-20.7,-19.869,54.339,40.01,-20.299,-20.479
-20.083,-20.323,-20.665,-19.769,47.733,37.545,-20.213,-20.317
-20.286,-20.496,-20.778,-19.847,46.695,41.534,-20.297,-20.409
-21.403,-21.677,-21.751,-20.83,49.012,47.997,-21.198,-21.516
-22.758,-23.149,-23.038,-22.368,49.151,50.494,-22.563,-23.05
-23.523,-24.01,-23.805,-23.537,45.973,48.362,-23.71,-24.009
-23.91,-24.236,-24.154,-24.056,40.139,42.853,-24.462,-24.33
-24.217,-24.095,-24.376,-24.131,37.964,41.26,-24.735,-24.379
-24.64,-24.189,-24.72,-24.311,39.329,44.053,-24.845,-24.594
-24.925,-24.573,-24.969,-24.496,42.866,48.741,-24.935,-24.784
-24.847,-24.805,-25.003,-24.449,48.976,54.59,-24.963,-24.731
-23.791,-23.919,-24.213,-23.597,55.135,60.307,-24.114,-23.873
-21.209,-21.357,-21.77,-21.258,61.104,68.066,-21.583,-21.55
-19.026,-19.216,-19.421,-19.201,61.249,72.31,-19.312,-19.396
-19.143,-19.468,-19.33,-19.458,55.197,69.331,-19.368,-19.293
-20.935,-21.442,-21.174,-21.458,50.605,63.358,-21.178,-21.02
-22.578,-23.2,-22.952,-23.085,51.748,58.692,-22.869,-22.901
-23,-23.56,-23.225,-23.181,60.127,58.976,-23.312,-23.44
-22.856,-23.199,-22.744,-22.761,66.829,58.305,-23.068,-22.994
-22.716,-22.912,-22.451,-22.645,64.861,54.9,-22.713,-22.511
-22.728,-22.988,-22.509,-22.831,57.173,53.594,-22.629,-22.595
-22.924,-23.271,-22.694,-23.128,50.054,53.889,-22.99,-23.081
-23.076,-23.366,-22.761,-23.297,49.675,55.384,-23.372,-23.323
-23.61,-23.854,-23.278,-23.839,50.298,54.362,-23.978,-23.795
-24.287,-24.62,-24.07,-24.506,48.493,52.785,-24.607,-24.47
-24.713,-25.028,-24.699,-24.89,46.378,55.243,-24.968,-24.86
-25.377,-25.39,-25.459,-25.502,42.113,58.134,-25.541,-25.382
-26.036,-25.786,-25.984,-26.163,39.036,60.261,-26.227,-25.995
-25.939,-25.774,-25.764,-26.161,37.712,60.291,-26.415,-26.064
-24.991,-25.079,-24.943,-25.276,38.757,61.043,-25.689,-25.327
-24.69,-24.912,-24.934,-24.933,44.154,64.951,-25.218,-25.146
-26.038,-26.263,-26.429,-26.232,49.658,66.376,-26.273,-26.537
-27.613,-27.762,-27.806,-27.729,51.791,64.782,-27.787,-28.092
-28.632,-28.537,-28.502,-28.524,47.537,61.096,-28.826,-29.04
-29.742,-29.315,-29.47,-29.389,43.643,58.518,-29.81,-30.087
-31.601,-31.105,-31.368,-31.251,47.423,58.323,-31.508,-31.912
-33.821,-33.594,-33.713,-33.715,52.138,55.539,-33.707,-34.107
-35.204,-35.28,-35.291,-35.316,52.735,51.857,-35.235,-35.561
-35.994,-36.23,-36.312,-36.169,48.738,49.359,-36.232,-36.537
-36.717,-36.962,-37.106,-36.848,45.729,49.851,-37.012,-37.283
-37.405,-37.492,-37.595,-37.453,45.819,51.285,-37.555,-37.766
-38.466,-38.473,-38.483,-38.56,41.77,47.366,-38.546,-38.846
-39.803,-40.088,-39.879,-40.098,34.848,42.59,-39.98,-40.535
-41.097,-41.685,-41.214,-41.444,27.888,40.993,-41.274,-41.99
-42.243,-42.702,-42.252,-42.39,21.306,41.867,-42.28,-42.944
-43.465,-43.672,-43.48,-43.485,14.697,41.461,-43.464,-43.996
-44.541,-44.819,-44.728,-44.623,7.826,36.182,-44.615,-45.014
-44.957,-45.357,-45.22,-45.073,6.582,32.492,-45.085,-45.345
-45.637,-45.846,-45.812,-45.656,8.644,31.184,-45.815,-45.946
-46.899,-46.887,-47.015,-46.794,8.254,27.748,-47.12,-47.19
-47.639,-47.701,-47.822,-47.576,4.559,21.669,-47.737,-47.925
-47.319,-47.534,-47.597,-47.538,-1.511,15.232,-47.124,-47.543
-46.755,-46.944,-47.048,-47.249,-5.451,12.307,-46.408,-46.887
-47.617,-47.718,-47.883,-48.129,-10.21,6.936,-47.473,-47.723
-49.336,-49.484,-49.608,-49.644,-17.367,-3.216,-49.537,-49.505
-49.742,-49.974,-49.979,-49.768,-22.273,-11.519,-50.049,-49.994
-48.739,-48.864,-48.762,-48.536,-23.369,-15.912,-48.862,-49.037
-47.813,-47.735,-47.583,-47.573,-19.821,-16.629,-47.768,-48.187
-47.756,-47.673,-47.564,-47.619,-17.378,-18.397,-47.691,-48.249
-47.538,-47.638,-47.603,-47.453,-17.838,-20.932,-47.434,-48.069
-46.347,-46.528,-46.45,-46.227,-17.714,-20.516,-46.18,-46.844
-44.821,-44.878,-44.669,-44.67,-18.883,-19.131,-44.699,-45.311
-43.686,-43.665,-43.401,-43.582,-20.825,-16.792,-43.623,-44.098
-43.026,-43.114,-42.935,-43.045,-24.202,-16.415,-42.927,-43.162
-41.898,-42.003,-42.004,-41.975,-27.513,-15.619,-41.808,-41.743
-40.42,-40.266,-40.436,-40.392,-28.887,-8.345,-40.441,-40.213
-39.499,-39.083,-39.297,-39.32,-30.311,1.142,-39.54,-39.404
-38.403,-37.991,-38.089,-38.152,-29.488,7.728,-38.292,-38.404
-37.079,-36.851,-36.748,-36.845,-28.062,8.946,-36.884,-37.2
-36.553,-36.483,-36.229,-36.431,-24.062,9.826,-36.532,-36.827
-36.653,-36.601,-36.379,-36.672,-12.866,14.411,-36.862,-36.951
-36.076,-35.91,-35.828,-36.072,-0.968,18.019,-36.266,-36.202
-34.35,-34.068,-33.993,-34.122,5.809,20.83,-34.283,-34.243
-32.653,-32.405,-32.099,-32.298,6.755,22.371,-32.38,-32.477
-31.221,-31.127,-30.493,-31.061,8.476,23.502,-31.001,-31.21
-29.88,-29.876,-29.121,-30.025,14.876,26.232,-29.855,-30.056
-29.6,-29.557,-29.106,-29.831,20.191,27.612,-29.747,-29.82
-30.352,-30.235,-30.393,-30.468,23.692,28.287,-30.715,-30.599
-30.993,-30.784,-31.503,-31,24.896,27.394,-31.552,-31.346
-31.019,-30.694,-31.581,-30.97,24.09,26.219,-31.547,-31.447
-31.735,-31.485,-32.001,-31.638,20.747,24.886,-32.133,-32.14
-33.97,-34.064,-34.004,-33.874,11.498,18.318,-34.365,-34.255
-35.957,-36.262,-36.004,-36.019,1.505,10.872,-36.349,-36.064
-36.556,-36.667,-36.656,-36.865,-5.905,7.016,-36.75,-36.551
-36.181,-36.031,-36.244,-36.555,-8.946,8.377,-36.105,-36.193
-35.531,-35.407,-35.584,-35.743,-8.488,12.694,-35.385,-35.64
-35.01,-35.109,-35.144,-35.144,-10.962,12.836,-35.059,-35.253
-34.378,-34.715,-34.681,-34.676,-12.597,12.038,-34.733,-34.76
-34.219,-34.745,-34.705,-34.657,-9.393,13.819,-34.811,-34.625
-34.791,-35.382,-35.248,-35.195,-2.843,16.675,-35.426,-35.092
-35.24,-35.672,-35.425,-35.574,3.102,16.807,-35.682,-35.429
-35.603,-35.761,-35.581,-35.844,4.11,12.35,-35.771,-35.68
-36.792,-36.843,-36.814,-36.926,3.831,10.877,-36.858,-36.755
-38.638,-38.776,-38.779,-38.807,2.127,11.224,-38.801,-38.611
-39.18,-39.351,-39.281,-39.448,-2.057,7.685,-39.406,-39.255
-38.517,-38.633,-38.541,-38.773,-6.153,2.103,-38.681,-38.653
-39.091,-39.297,-39.27,-39.298,-8.513,-1.746,-39.238,-39.276
-40.527,-40.961,-40.939,-40.739,-4.92,0.487,-40.753,-40.806
-40.82,-41.353,-41.231,-41.027,-0.621,3.273,-41.081,-41.157
-40.114,-40.591,-40.394,-40.279,-2.981,0.745,-40.346,-40.374
-40.172,-40.6,-40.387,-40.287,-10.404,-4.999,-40.39,-40.218
-41.178,-41.61,-41.315,-41.248,-16.646,-9.505,-41.404,-41.016
-41.508,-41.95,-41.547,-41.59,-15.783,-7.967,-41.738,-41.341
-41.322,-41.715,-41.402,-41.457,-15.627,-7.893,-41.55,-41.333
-41.645,-41.965,-41.821,-41.692,-21.285,-13.816,-41.92,-41.791
-42.214,-42.586,-42.302,-42.036,-27.373,-18.989,-42.595,-42.383
-42.138,-42.622,-42.018,-41.906,-31.435,-20.206,-42.564,-42.372
-41.105,-41.486,-40.92,-41.072,-30.676,-16.819,-41.412,-41.424
-40.35,-40.374,-40.247,-40.456,-29.198,-15.022,-40.42,-40.523
-40.202,-39.962,-40.136,-40.241,-30.103,-16.334,-40.078,-40.049
-39.582,-39.421,-39.508,-39.516,-30.531,-16.399,-39.415,-39.302
-38.127,-38.123,-38.074,-37.993,-31.129,-18.442,-37.977,-37.953
-36.134,-36.023,-36.053,-35.892,-30.765,-22.162,-35.935,-35.983
-34.387,-34.091,-34.259,-34.017,-32.003,-25.571,-34.068,-34.159
-33.306,-32.971,-33.149,-32.844,-34.171,-26.811,-32.811,-33.062
-33.001,-32.582,-32.723,-32.463,-32.231,-25.737,-32.375,-32.764
-33.237,-32.721,-32.892,-32.649,-28.511,-26.005,-32.715,-33.005
-33.198,-32.906,-33.084,-32.678,-25.541,-26.046,-32.932,-33.004
-33.039,-33.109,-33.252,-32.744,-27.313,-27.933,-32.875,-32.818
-32.597,-32.764,-32.916,-32.553,-31.569,-31.329,-32.411,-32.278
-31.565,-31.653,-31.823,-31.596,-33.081,-31.424,-31.484,-31.186
-31.18,-31.193,-31.372,-31.079,-38.054,-31.712,-31.29,-30.737
-32.126,-32.059,-32.216,-31.904,-49.098,-35.326,-32.303,-31.636
-33.22,-33.149,-33.142,-33.01,-60.522,-42.584,-33.319,-32.837
-32.706,-32.711,-32.559,-32.488,-64.762,-47.328,-32.697,-32.462
-31.276,-31.191,-31.243,-30.984,-64.896,-46.015,-31.181,-30.957
-30.778,-30.357,-30.748,-30.38,-70.883,-45.817,-30.545,-30.173
-30.246,-29.569,-29.901,-29.624,-76.859,-46.337,-29.845,-29.377
-28.814,-28.316,-28.27,-28.085,-76.104,-46.144,-28.51,-28.034
-28.002,-27.922,-27.738,-27.599,-71.033,-47.998,-28.096,-27.628
-28.647,-28.725,-28.753,-28.701,-67.523,-53.842,-28.906,-28.506
-28.848,-28.78,-29.039,-29.013,-69.385,-62.319,-28.774,-28.627
-26.648,-26.426,-26.772,-26.615,-68.921,-65.089,-26.205,-26.376
-23.692,-23.366,-23.698,-23.446,-64.534,-63.812,-23.191,-23.366
-22.123,-21.689,-21.933,-21.791,-61.639,-65.098,-21.672,-21.524
-21.482,-21.023,-21.176,-21.156,-60.882,-68.491,-20.99,-20.689
-20.686,-20.315,-20.476,-20.355,-60.658,-70.446,-20.22,-20.056
-19.512,-19.163,-19.458,-19.105,-56.994,-65.028,-19.246,-19.06
-18.051,-17.55,-18.006,-17.551,-51.752,-55.929,-17.938,-17.472
-15.686,-15.129,-15.541,-15.19,-45.631,-47.968,-15.581,-14.942
-13.232,-12.937,-13.086,-12.849,-39.859,-42.084,-13.165,-12.569
-12.598,-12.574,-12.653,-12.374,-41.496,-42.849,-12.586,-12.18
-13.191,-13.091,-13.421,-13.102,-45.678,-47.157,-13.069,-13.03
-14.047,-13.639,-14.081,-13.929,-46.411,-50.238,-13.709,-13.987
-15.467,-14.863,-15.085,-15.149,-45.508,-49.447,-15.086,-15.26
-16.982,-16.45,-16.491,-16.59,-45.607,-45.241,-16.822,-16.645
-17.148,-16.797,-16.875,-16.987,-45.877,-41.596,-17.167,-16.91
-15.926,-15.617,-15.734,-16.034,-40.569,-36.792,-15.795,-15.747
-15.709,-15.371,-15.438,-15.887,-37.347,-35.725,-15.339,-15.406
-17.301,-16.985,-17.151,-17.37,-45.782,-42.735,-16.926,-16.995
-18.973,-18.61,-19.085,-18.829,-59.18,-52.657,-18.715,-18.81
-19.687,-19.246,-19.887,-19.376,-66.196,-61.97,-19.519,-19.517
-19.863,-19.469,-19.984,-19.581,-61.531,-66.472,-19.793,-19.568
-20.821,-20.501,-20.837,-20.692,-56.406,-68.156,-20.792,-20.497
-22.809,-22.452,-22.649,-22.73,-60.151,-71.244,-22.673,-22.518
-24.873,-24.33,-24.47,-24.633,-67.047,-76.273,-24.494,-24.515
-26.042,-25.286,-25.542,-25.637,-70.651,-81.679,-25.454,-25.526
-25.693,-25.046,-25.358,-25.351,-68.404,-80.023,-25.209,-25.132
-25.01,-24.801,-24.963,-24.863,-67.051,-74.56,-24.905,-24.638
-25.278,-25.289,-25.434,-25.3,-68.397,-72.712,-25.404,-25.165
-25.803,-25.636,-25.967,-25.978,-66.129,-71.99,-25.865,-25.801
-25.084,-24.816,-25.105,-25.365,-61.541,-69.561,-25.094,-25.075
-22.96,-22.882,-22.861,-23.209,-57.256,-65.103,-23.084,-22.972
-21.479,-21.572,-21.405,-21.596,-57.224,-63.384,-21.641,-21.55
-21.429,-21.561,-21.449,-21.473,-58.558,-61.343,-21.429,-21.579
-21.942,-22.09,-21.952,-22.012,-53.59,-52.786,-21.791,-22.155
-23.355,-23.435,-23.257,-23.372,-46.363,-45.616,-23.195,-23.468
-25.794,-25.685,-25.66,-25.662,-41.882,-44.377,-25.67,-25.683
-28.12,-27.867,-28.084,-27.939,-40.365,-45.614,-28.022,-27.949
-28.886,-28.688,-29.014,-28.776,-36.747,-43.621,-28.859,-28.971
-28.04,-28.004,-28.203,-27.985,-30.156,-37.834,-28.037,-28.427
-27.025,-27.045,-26.943,-27.006,-27.328,-33.799,-26.918,-27.405
-26.561,-26.523,-26.177,-26.575,-25.459,-29.738,-26.378,-26.76
-26.837,-26.708,-26.399,-26.751,-21.752,-26.332,-26.679,-27.019
-28.305,-28.061,-28.028,-27.98,-19,-26.496,-28.172,-28.578
-31.54,-31.271,-31.439,-31.133,-22.467,-31.786,-31.442,-31.814
-35.971,-35.832,-35.93,-35.779,-32.779,-42.29,-35.937,-36.173
-39.737,-39.66,-39.629,-39.717,-36.621,-46.921,-39.686,-39.877
-42.147,-41.899,-41.97,-41.993,-31.472,-41.73,-42.007,-42.23
-43.157,-42.692,-43.009,-42.841,-24.518,-32.475,-43.001,-43.159
-43.491,-43.003,-43.339,-43.246,-18.419,-25.104,-43.388,-43.42
-44.744,-44.33,-44.393,-44.527,-15.446,-24.15,-44.615,-44.627
-46.548,-46.118,-45.945,-46.087,-10.799,-22.221,-46.336,-46.358
-47.816,-47.389,-47.198,-47.129,-5.527,-16.57,-47.624,-47.537
-48.72,-48.438,-48.304,-48.081,-6.164,-14.018,-48.699,-48.466
-50.684,-50.542,-50.45,-50.253,-12.829,-19.786,-50.911,-50.634
-54.73,-54.595,-54.554,-54.483,-23.019,-33.147,-55.096,-54.914
-59.293,-59.194,-59.088,-59.141,-29.287,-41.996,-59.547,-59.551
-62.875,-63.005,-62.658,-62.823,-30.31,-43.593,-62.942,-63.088
-65.468,-65.797,-65.328,-65.586,-27.963,-43.498,-65.515,-65.694
-66.959,-67.132,-66.891,-67.095,-20.658,-39.758,-67.05,-67.221
-66.886,-66.752,-66.824,-66.844,-9.466,-30.4,-66.929,-67.101
-65.479,-65.286,-65.339,-65.421,6.477,-16.633,-65.484,-65.639
-64.805,-64.736,-64.41,-64.959,22.875,-5.893,-64.853,-64.933
-65.897,-65.967,-65.21,-66.139,38.103,3.368,-65.99,-65.964
-67.396,-67.648,-66.723,-67.561,55.588,21.105,-67.534,-67.505
-68.139,-68.562,-67.781,-68.339,71.41,44.261,-68.396,-68.497
-67.617,-68.151,-67.588,-68.003,86.242,66.34,-68.082,-68.278
-66.29,-66.916,-66.441,-66.804,100.481,82.72,-66.912,-67.109
-65.656,-66.264,-65.77,-66.083,109.756,92.424,-66.209,-66.364
-67.181,-67.59,-67.121,-67.325,110.314,95.272,-67.525,-67.567
-70.706,-70.986,-70.64,-70.601,101.081,88.899,-71.034,-70.939
-74.3,-74.686,-74.455,-74.174,89.929,79.444,-74.87,-74.76
-76.537,-76.934,-76.781,-76.519,80.46,69.764,-77.255,-77.246
-76.43,-76.537,-76.449,-76.481,75.314,62.061,-77.012,-77.105
-73.761,-73.654,-73.578,-73.83,78.527,62.611,-74.165,-74.337
-70.005,-70.025,-69.914,-70.085,82.372,67.452,-70.438,-70.597
-66.701,-66.914,-66.749,-66.819,79.772,69.606,-67.268,-67.198
-64.564,-64.801,-64.587,-64.774,70.757,65.644,-65.137,-64.835
-63.003,-63.167,-62.967,-63.318,64.254,61.911,-63.416,-63.235
-61.288,-61.427,-61.234,-61.693,66.837,64.683,-61.58,-61.673
-59.525,-59.778,-59.476,-60.02,71.167,68.07,-59.914,-60.03
-57.737,-58.131,-57.737,-58.163,74.909,71.044,-58.274,-58.311
-56.389,-56.681,-56.405,-56.455,79.259,73.837,-56.777,-56.939
-55.516,-55.532,-55.505,-55.309,82.905,75.075,-55.617,-55.913
-54.861,-54.816,-54.95,-54.848,82.4,73.617,-54.997,-55.2
-54.44,-54.542,-54.702,-54.753,75.266,66.693,-54.791,-54.978
-53.278,-53.359,-53.498,-53.591,71.052,62.045,-53.562,-54.037
-51.108,-51.01,-51.053,-51.22,73.8,65.597,-51.152,-51.774
-48.746,-48.683,-48.519,-48.827,79.185,74.67,-48.839,-49.064
-46.808,-46.953,-46.718,-47.039,82.148,81.384,-47.219,-46.933
-45.273,-45.325,-45.34,-45.459,75.864,76.704,-45.762,-45.461
-43.298,-42.941,-43.217,-43.106,66.226,67.668,-43.509,-43.5
-40.814,-40.325,-40.503,-40.315,61.686,62.958,-40.871,-40.955
-37.912,-37.794,-37.573,-37.443,63.013,61.871,-38.113,-38.157
-34.914,-35.217,-34.625,-34.575,64.464,59.904,-35.171,-35.338
-33.413,-33.818,-33.113,-33.112,58.555,52.777,-33.491,-33.814
-33.408,-33.641,-33.057,-33.136,53.188,47.587,-33.296,-33.629
-32.788,-32.817,-32.396,-32.664,56.969,50.1,-32.587,-32.906
-30.586,-30.66,-30.252,-30.714,66.459,58.229,-30.42,-30.736
-28.665,-29.009,-28.482,-28.936,71.702,63.425,-28.592,-28.858
-28.304,-28.87,-28.279,-28.54,67.116,57.178,-28.287,-28.583
-28.122,-28.815,-28.245,-28.321,62.981,49.256,-28.237,-28.621
-27.676,-28.418,-27.893,-27.878,62.88,47.327,-27.984,-28.315
-25.801,-26.413,-25.983,-25.944,67.127,52.068,-26.147,-26.324
-19.08,-19.466,-19.107,-19.082,88.38,72.524,-19.35,-19.416
-8.818,-9.09,-8.652,-8.68,125.186,107.946,-9.029,-9.054
-2.358,-2.752,-2.192,-2.238,152.356,136.712,-2.545,-2.638
-3.426,-4.034,-3.539,-3.47,147.287,134.945,-3.664,-3.877
-7.236,-7.795,-7.537,-7.329,122.321,110.986,-7.557,-7.71
-9.213,-9.488,-9.408,-9.243,102.663,90.604,-9.527,-9.443
-9.962,-10.136,-10.091,-10.084,90.252,79.322,-10.214,-10.017
-9.896,-10.182,-10.165,-10.246,80.912,73.59,-10.124,-10.057
-8.576,-8.919,-8.966,-9.057,70.593,66.771,-8.79,-8.912
-6.498,-6.851,-6.852,-6.899,58.023,54.728,-6.628,-6.823
-4.263,-4.613,-4.453,-4.429,47.289,41.653,-4.22,-4.339
-1.911,-2.135,-1.88,-1.902,37.76,30.306,-1.73,-1.735
1.187,1.125,1.333,1.178,31.126,23.5,1.361,1.335
5.095,5.084,5.202,5.023,26.284,18.057,5.279,5.094
9.255,9.298,9.336,9.208,20.722,12.099,9.647,9.253
12.282,12.506,12.436,12.28,13.45,6.492,12.976,12.331
13.373,13.735,13.567,13.36,0.97,-4.15,14.237,13.427
14.292,14.525,14.326,14.186,-11.559,-16.251,15,14.39
15.994,15.953,15.703,15.722,-21.06,-24.805,16.239,16.139
17.914,17.637,17.35,17.466,-28.056,-29.681,17.739,17.907
19.639,19.184,18.968,19.066,-31.014,-32.549,19.371,19.278
20.553,20.084,19.919,19.955,-34.687,-40.343,20.335,20.008
20.961,20.667,20.489,20.465,-41.557,-51.432,20.652,20.617
21.646,21.48,21.328,21.256,-52.447,-60.907,21.236,21.53
22.943,22.737,22.626,22.57,-63.491,-66.302,22.686,22.782
24.248,23.936,23.853,23.869,-70.168,-69.028,24.221,23.998
24.474,24.14,24.114,24.103,-79.227,-77.75,24.468,24.357
24.452,24.336,24.392,24.182,-91.688,-90.848,24.52,24.662
25.675,25.927,26.038,25.648,-103.273,-101.935,26.12,26.201
28.342,28.627,28.758,28.446,-110.907,-108.757,28.978,28.873
31.641,31.483,31.597,31.583,-115.314,-113.042,31.958,31.841
34.429,33.966,33.957,34.195,-123.778,-121.31,34.487,34.389
36.021,35.746,35.574,35.833,-134.52,-132.633,36.284,36.066
36.797,36.786,36.579,36.729,-142.823,-143.968,37.296,36.98
38.949,39.023,38.833,38.985,-147.233,-150.68,39.4,39.175
42.696,42.893,42.633,42.929,-149.494,-151.251,43.187,43.092
45.205,45.563,45.258,45.627,-153.674,-153.892,46.009,45.879
46.67,47.031,46.749,46.984,-152.389,-156.431,47.622,47.373
49.333,49.583,49.257,49.253,-143.519,-155.138,50.065,49.761
53.223,53.355,52.95,52.812,-136.103,-153.419,53.687,53.377
57.054,57.045,56.694,56.561,-136.121,-153.443,57.387,57.156
60.312,60.164,59.978,59.819,-142.838,-155.392,60.569,60.542
63.667,63.429,63.377,63.1,-144.695,-152.615,63.871,63.959
66.95,66.756,66.706,66.398,-139.259,-146.355,67.157,67.131
69.832,69.884,69.668,69.508,-133.103,-142.204,69.999,69.926
73.304,73.584,73.196,73.132,-124.866,-136.46,73.321,73.47
78.302,78.491,78.228,78.06,-113.705,-125.56,78.265,78.579
83.992,83.877,83.96,83.738,-103.466,-109.9,84.114,84.3
87.463,87.177,87.406,87.302,-103.207,-100.712,87.704,87.756
87.897,87.701,87.796,87.697,-111.556,-103.633,88.055,88.177
87.755,87.803,87.726,87.427,-117.398,-108.914,87.797,88.06
88.859,89.146,88.892,88.521,-120.016,-112.034,88.84,89.342
90.947,91.339,90.794,90.684,-120.558,-112.935,90.868,91.711
92.114,92.412,91.614,91.847,-122.185,-115.02,92.05,92.978
92.054,92.165,91.404,91.747,-125.525,-117.707,92.145,92.8
92.52,92.524,92.045,92.256,-124.918,-115.91,92.757,93.114
93.971,93.977,93.746,93.768,-121.134,-112.991,94.208,94.399
96.123,96.203,96.074,96.003,-115.265,-110.391,96.31,96.45
98.564,98.786,98.709,98.639,-109.146,-108.505,98.814,99.045
100.62,100.993,100.953,100.881,-102.421,-106.007,100.998,101.36
101.537,101.96,101.895,101.811,-94.95,-101.295,101.908,102.325
101.571,101.91,101.798,101.732,-93.278,-100.132,101.811,102.211
102.564,102.789,102.701,102.6,-94.624,-101.166,102.738,103.064
104.068,104.194,104.139,103.963,-96.156,-101.99,104.164,104.479
103.956,103.957,103.825,103.726,-98.736,-102.451,103.85,104.336
102.398,102.294,102.054,102.159,-99.048,-100.718,102.249,102.815
100.808,100.67,100.386,100.66,-98.556,-99.556,100.94,101.196
100.14,99.997,99.712,100.096,-98.843,-97.607,100.55,100.417
100.611,100.498,100.301,100.638,-100.941,-95.289,101.103,100.945
102.301,102.282,102.27,102.312,-100.942,-93.409,102.789,102.871
104.435,104.513,104.536,104.311,-95.746,-89.775,104.827,105.126
105.661,105.746,105.535,105.37,-92.465,-88.314,105.807,106.274
105.968,105.904,105.539,105.578,-90.632,-89.109,105.857,106.47
105.567,105.247,105.058,105.132,-88.964,-91.01,105.339,105.982
105.066,104.66,104.648,104.662,-88.525,-92.058,104.89,105.369
104.787,104.687,104.558,104.554,-87.82,-91.696,104.859,105.045
103.835,104.13,103.85,103.788,-90.623,-95.872,104.211,104.209
103.026,103.338,103.084,102.985,-94.34,-100.79,103.458,103.536
103.4,103.463,103.23,103.25,-94.866,-102.939,103.661,103.908
103.897,103.932,103.6,103.745,-91.699,-102.835,104.07,104.34
103.199,103.523,103.083,103.138,-86.77,-99.189,103.458,103.601
101.649,102.159,101.701,101.579,-86.637,-96.181,101.973,101.966
100.83,101.16,100.754,100.683,-87.544,-92.354,101.054,101.028
100.71,100.811,100.439,100.556,-84.92,-86.135,100.838,100.938
100.615,100.756,100.385,100.485,-79.81,-79.546,100.869,101.013
100.952,101.166,100.806,100.817,-73.681,-74.269,101.325,101.369
101.911,102.009,101.592,101.732,-69.045,-73.149,102.051,102.085
103.153,103.253,102.612,102.875,-59.884,-69.422,102.963,103.073
103.692,104.081,103.241,103.374,-48.363,-62.07,103.546,103.638
103.722,104.322,103.639,103.599,-44.363,-57.622,103.961,103.974
104.685,105.202,104.961,104.882,-45.105,-54.02,105.258,105.244
106.525,106.906,106.958,106.823,-43.091,-47.75,107.121,107.103
108.038,108.469,108.517,108.222,-34.217,-37.126,108.506,108.418
108.114,108.626,108.657,108.23,-27.083,-29.969,108.526,108.393
107.328,107.643,107.826,107.391,-27.723,-30.87,107.569,107.606
107.251,107.252,107.591,107.226,-25.565,-29.527,107.194,107.444
107.943,107.977,108.292,108.02,-14.201,-20.723,107.942,108.129
108.468,108.819,108.937,108.83,1.316,-8.63,108.892,108.916
107.914,108.403,108.247,108.406,7.568,-3.823,108.537,108.637
106.787,107.192,106.813,107.208,3.494,-7.013,107.209,107.506
106.125,106.514,106.141,106.486,1.904,-7.842,106.387,106.71
105.644,106.049,105.958,105.925,2.564,-5.904,106.032,106.19
104.722,105.017,105.229,104.816,0.852,-3.258,105.231,105.227
102.631,102.861,103.09,102.653,-4.431,-3.491,103.007,102.993
100.095,100.377,100.404,100.297,-9.058,-6.02,100.28,100.328
98.574,98.878,98.783,98.997,-7.167,-3.523,98.781,98.85
97.652,98.016,97.914,98.235,-3.144,2.668,98.065,98.156
97.496,98.006,97.902,98.235,2.26,11.688,98.078,98.168
98.835,99.351,99.286,99.582,8.592,20.061,99.45,99.389
100.111,100.469,100.459,100.647,11.505,21.547,100.695,100.427
98.982,99.253,99.188,99.31,9.972,17.53,99.467,99.219
96.231,96.485,96.287,96.505,4.576,10.913,96.445,96.496
94.834,94.985,94.767,95.142,3,6.704,94.731,95.085
94.612,94.706,94.622,94.949,6.964,4.367,94.517,94.879
93.746,93.956,93.938,94.061,12.589,4.323,93.928,94.047
92.007,92.308,92.179,92.305,19.495,10.64,92.291,92.231
89.492,89.728,89.54,89.845,22.663,15.49,89.686,89.607
86.642,86.769,86.728,87.034,21.297,13.871,86.854,86.734
83.871,83.954,84.04,84.17,16.309,8.811,84.17,83.934
81.978,82.163,82.097,82.2,11.142,6.915,82.244,82.002
81.468,81.932,81.515,81.815,12.086,10.789,81.642,81.662
81.141,81.876,81.236,81.672,14.926,11.843,81.324,81.724
80.839,81.589,81.095,81.396,16.887,11.377,81.168,81.666
81.199,81.708,81.632,81.63,17.268,14.853,81.69,81.868
81.726,81.984,82.197,81.978,15.886,20.326,82.235,82.052
81.318,81.501,81.626,81.413,14.208,23.209,81.722,81.497
79.4,79.604,79.524,79.446,8.688,18.108,79.722,79.667
77.296,77.484,77.421,77.454,3.522,11.601,77.585,77.588
76.525,76.744,76.755,76.828,3.26,9.931,76.799,76.696
77.251,77.568,77.459,77.497,5.019,10.087,77.497,77.394
78.118,78.386,78.15,78.1,3.907,7.362,78.287,78.356
77.397,77.481,77.323,77.148,-5.275,-2.159,77.525,77.642
75.534,75.573,75.523,75.185,-15.461,-11.151,75.712,75.696
73.72,73.905,73.765,73.339,-19.862,-15.361,73.979,73.916
73.032,73.328,73.048,72.692,-20.208,-18.675,73.343,73.358
74.087,74.29,74.015,73.814,-19.303,-23.43,74.364,74.368
75.565,75.589,75.328,75.353,-20.709,-31.197,75.726,75.624
76.159,76.137,75.828,76.076,-20.787,-33.637,76.194,76.135
75.482,75.509,75.259,75.487,-20.495,-28.371,75.393,75.569
74.368,74.332,74.352,74.264,-23.394,-23.899,74.204,74.476
74.003,73.823,74.222,73.729,-25.441,-23.157,73.935,74.003
73.847,73.679,74.265,73.484,-26.078,-25.152,73.982,73.874
73.49,73.513,73.912,73.111,-24.505,-24.973,73.708,73.721
73.228,73.435,73.459,72.976,-23.271,-24.704,73.424,73.637
73.11,73.393,73.068,73.058,-24.055,-27.073,73.293,73.516
72.628,72.914,72.339,72.595,-23.42,-26.753,72.737,72.806
71.713,71.97,71.393,71.551,-23.309,-24.457,71.687,71.561
72.07,72.331,71.925,71.951,-21.36,-20.865,72.047,71.74
73.522,73.866,73.463,73.63,-17.96,-18.418,73.697,73.244
73.824,74.206,73.709,74.043,-17.744,-18.851,74.232,73.665
72.806,73.017,72.625,72.954,-19.352,-18.451,73.372,72.725
71.597,71.579,71.314,71.658,-22.735,-19.744,72.276,71.565
70.432,70.472,70.127,70.446,-25.626,-23.93,71.152,70.422
68.658,69.076,68.602,68.666,-27.759,-30.964,69.243,68.706
67.029,67.732,67.219,67.07,-27.252,-36.332,67.351,67.201
66.811,67.387,66.959,66.89,-20.326,-32.449,66.961,67.031
67.16,67.378,67.181,67.278,-15.125,-25.35,67.313,67.243
67.267,67.251,67.226,67.392,-16.086,-21.354,67.486,67.193
