EEG 1,EEG 2,EEG 3,EEG 4,EEG 5,EEG 6,EEG 7,EEG 8
61.642,193.706,26.925,57.349,-75.956,-283.507,-471.173,-22.355
106.659,229.461,78.841,112.333,-45.694,-246.653,-456.708,21.027
136.36,249.634,117.629,152.452,-16.136,-211.464,-445.21,49.032
158.062,255.493,146.798,178.944,12.314,-177.939,-436.073,65.672
193.883,267.196,182.884,210.489,39.648,-145.101,-424.475,88.637
246.319,288.645,227.072,251.189,65.709,-113.072,-409.444,118.433
295.595,309.57,266.723,290.13,90.541,-81.87,-394.822,143.54
324.23,321.494,292.249,317.623,114.408,-50.717,-383.923,157.466
342.951,329.823,313.843,341.036,138.315,-19.04,-374.388,170.114
369.543,340.551,342.284,368.504,162.115,11.75,-362.444,188.49
397.501,347.112,368.347,391.405,184.274,39.526,-349.192,201.355
412.372,346.705,384.06,404.259,205.34,65.269,-337.618,202.764
416.753,344.129,395.186,414.197,226.877,91.851,-328.055,201.081
432.005,348.323,414.919,433.86,249.159,120.596,-317.514,209.377
460.646,357.206,441.226,460.552,270.744,149.553,-304.971,224.991
477.475,353.576,455.183,475.143,289.926,175.822,-293.622,230.133
478.278,336.076,455.212,475.553,307.473,199.746,-284.462,223.535
483.989,322.825,457.148,477.842,325.418,223.842,-275.105,218.708
503.937,325.534,470.509,491.792,344.929,249.684,-264.402,222.722
520.072,329.13,484.43,504.55,364.916,275.633,-254.66,224.672
514.998,311.896,482.984,499.237,382.747,298.735,-247.661,210.471
503.629,283.684,474.71,488.38,398.203,319.937,-240.492,190.998
508.372,270.043,478.691,494.552,413.864,342.631,-229.999,187.028
529.482,277.462,497.549,517.039,431.549,367.415,-216.985,199.638
546.709,283.315,511.612,531.135,449.383,391.114,-205.452,204.818
545.592,266.142,505.972,523.11,464.63,411.613,-197.536,187.327
539.289,241.467,498.156,515.1,478.533,431.473,-189.527,170.018
545.393,234.851,508.761,527.881,493.917,453.446,-177.784,175.341
563.514,244.174,532.429,551.928,511.064,476.529,-163.777,192.888
576.335,242.829,547.578,563.954,528.01,498.165,-151.948,197.622
573.722,220.217,547.175,559.983,543.985,518.405,-143.844,185.122
572.954,202.668,550.06,562.024,560.238,539.7,-135.578,177.617
586.832,205.264,564.268,577.932,576.786,562.618,-125.294,182.866
603.299,208.473,577.217,592.936,592.909,585.775,-115.806,186.169
606.287,192.104,579.551,595.687,608.533,607.614,-108.88,177.6
598.427,162.678,576.477,590.642,624.035,627.811,-102.937,163.525
595.487,141.563,580.435,591.023,640.052,647.649,-95.312,157.352
598.238,132.13,588.884,596.378,655.374,666.98,-85.818,157.045
600.901,127.439,593.624,600.099,669.034,685.367,-75.94,154.869
603.59,123.799,597.13,603.305,682.692,704.05,-66.757,152.51
607.215,116.856,604.961,609.499,697.492,723.63,-57.882,154.735
616.507,107.285,617.487,620.269,712.196,743.287,-47.763,163.138
628.829,97.369,624.315,627.253,724.925,761.699,-37.489,166.293
636.928,93.426,622.832,626.669,736.246,778.816,-28.82,157.029
639.049,95.917,623.729,627.12,747.904,795.587,-20.52,146.649
638.235,90.158,630.198,632.27,759.934,812.469,-11.1,145.54
640.483,69.297,635.023,636.24,772.133,829.824,-2.02,148.577
640.374,39.899,628.68,629.175,784.452,847.162,3.494,140.074
631.591,16.15,615.389,615.052,796.068,863.433,6.636,121.149
620.033,5.517,606.187,606.667,805.83,878.312,12.188,107.185
610.78,-4.285,599.764,603.685,814.221,892.681,20.67,99.629
602.581,-27.194,590.756,598.37,823.28,907.665,28.597,89.546
589.496,-63.326,576.623,585.291,832.502,921.948,34.292,70.658
574.276,-94.726,563.482,570.418,840.298,934.029,40.261,49.826
565.478,-107.785,557.902,561.435,847.683,944.975,48.242,35.379
560.933,-115.259,553.62,553.062,855.57,955.869,56.55,21.237
553.952,-134.41,544.296,540.863,862.807,966.501,64.382,2.11
541.026,-167.249,530.762,526.404,868.663,976.505,71.994,-19.879
528.74,-197.404,521.223,516.424,874.631,986.753,79.841,-36.637
518.934,-213.894,516.678,512.636,881.283,998.303,87.689,-46.079
497.478,-230.873,503.557,503.352,887.092,1010.587,93.297,-61.256
465.985,-258.297,480.784,484.676,892.338,1022.38,96.39,-87.264
445.979,-285.946,462.819,466.425,898.733,1032.816,100.223,-112.719
449.165,-299.931,459.994,459.968,906.702,1042.745,107.634,-123.532
459.472,-306.792,462.519,461.273,914.641,1053.657,116.421,-124.209
452.094,-326.714,450.287,452.718,920.406,1064.76,121.919,-135.788
430.17,-356.213,426.042,433.282,924.399,1074.615,124.73,-161.176
414.204,-376.917,407.694,416.879,928.694,1083.672,128.793,-184.891
412.449,-385.327,402.319,410.991,934.534,1093.546,135.354,-196.447
412.354,-397.44,399.291,406.358,940.969,1103.515,142.29,-203.92
398.906,-426.81,385.874,389.621,945.786,1110.856,147.659,-222.415
378.808,-460.895,368.932,368.537,948.993,1116.301,152.668,-246.017
364.653,-483.464,358.749,356.561,952.375,1123.124,158.596,-261.269
357.864,-495.215,353.722,352.152,956.942,1131.956,165.054,-269.009
350.542,-508.174,345.325,343.783,961.572,1140.157,171.129,-280.023
336.872,-530.194,328.608,326.134,964.126,1145.58,176.646,-299.616
325.892,-551.354,313.081,310.353,965.221,1149.618,183.014,-317.191
321.214,-566.316,303.903,301.273,967.389,1154.666,189.659,-327.198
312.074,-582.488,293.42,290.448,971.155,1161.197,194.54,-337.277
291.247,-603.542,276.496,273.746,974.369,1167.779,198.139,-353.706
265.346,-624.952,257.617,256.487,975.762,1173.214,202.278,-374.63
250.998,-638.969,247.139,246.871,977.292,1178.088,207.944,-391.181
249.498,-652.184,242.897,239.829,979.922,1182.278,214.474,-403.381
245.84,-673.881,235.847,228.062,982.315,1185.67,220.968,-415.699
234.755,-696.678,227.188,217.106,984.237,1190.068,226.942,-425.686
227.573,-708.461,223.288,213.27,986.621,1196.2,232.456,-431.551
231.861,-707.628,225.685,215.012,989.438,1202.341,238.71,-434.429
230.141,-711.67,222.151,210.543,991.133,1206.807,244.717,-442.106
210.796,-730.677,205.74,195.518,991.644,1210.597,248.483,-457.872
190.913,-751.021,187.621,179.568,992.625,1214.956,251.186,-474.896
183.04,-764.939,175.822,166.576,994.373,1218.732,254.639,-491.121
178.05,-781.155,166.538,152.886,996.465,1221.516,257.997,-508.473
160.059,-810.319,149.484,132.66,998.076,1224.153,259.28,-530.262
133.715,-844.946,126.342,110.006,998.527,1227.137,260.035,-552.735
120.614,-865.902,111.964,98.034,998.696,1230.698,263.654,-565.108
123.421,-869.001,108.659,96.864,999.436,1234.504,269.556,-568.145
122.365,-866.878,104.139,93.17,1000.159,1237.776,274.466,-573.766
101.785,-878.507,87.653,75.154,999.782,1239.593,276.562,-591.838
75.692,-903.488,67.751,51.667,999.222,1240.563,277.931,-613.421
67.805,-919.986,60.166,41.333,1000.24,1242.618,281.375,-622.77
70.464,-923.228,57.937,39.642,1001.924,1246.091,285.13,-626.632
58.228,-931.864,43.714,27.398,1002.013,1249.115,286.141,-641.356
24.435,-957.774,16.207,-0.952,999.822,1249.262,285.357,-669.503
-5.541,-984.868,-5.688,-26.563,997.207,1247.287,286.964,-694.763
-10.749,-998.478,-11.069,-34.575,996.013,1246.545,291.952,-703.687
-11.613,-1012.125,-14.8,-39.294,995.627,1247.476,296.279,-706.956
-30.069,-1034.415,-28.407,-54.039,994.53,1247.93,298.204,-717.27
-18.461,-1019.687,-11.33,-36.241,995.467,1251.036,306.43,-696.27
157.527,-841.941,161.62,140.752,1012.203,1271.112,343.112,-518.155
517.783,-479.071,516.695,499.039,1050.053,1311.902,411.111,-157.466
749.668,-244.415,747.772,728.97,1074.728,1337.677,456.882,75.796
559.297,-439.201,558.165,536.14,1048.485,1311.595,432.217,-117.022
198.873,-807.589,197.96,174.565,997.8,1261.741,382.273,-481.69
178.553,-827.685,178.708,156.415,986.128,1251.863,391.141,-500.615
524.238,-473.707,525.653,504.6,1021.835,1289.413,458.055,-148.706
761.05,-232.495,761.824,740.197,1048.048,1316.704,502.528,90.929
614.111,-384.067,613.133,589.679,1026.894,1296.037,483.305,-59.261
277.617,-726.739,276.392,251.668,984.003,1253.728,431.326,-400.305
-72.809,-1080.45,-72.609,-97.647,953.718,1224.266,362.913,-754.796
-449.714,-1464.403,-449.107,-474.257,932.862,1204.262,276.86,-1136.98
-690.213,-1716.055,-692.643,-717.373,917.157,1189.687,223.604,-1381.397
-595.408,-1624.965,-604.023,-627.166,923.39,1197.551,243.859,-1286.242
-358.191,-1384.464,-373.095,-394.566,944.968,1220.866,289.681,-1047.218
-335.362,-1366.289,-353.318,-374.756,944.662,1221.866,296.398,-1024.294
-552.222,-1596.375,-568.23,-591.619,912.932,1190.589,266.818,-1241.111
-717.291,-1763.412,-726.872,-752.934,887.083,1164.414,247.62,-1403.365
-639.195,-1665.988,-641.581,-669.391,896.15,1173.237,263.59,-1320.345
-464.919,-1470.426,-462.785,-490.851,918.47,1195.865,292.834,-1140.499
-444.924,-1451.074,-441.171,-468.629,915.873,1193.499,301.657,-1114.779
-586.726,-1611.511,-585.13,-611.944,888.091,1165.574,288.014,-1253.909
-679.724,-1717.596,-684.87,-711.489,868.291,1145.826,278.8,-1350.192
-600.65,-1634.106,-612.665,-639.535,875.047,1152.976,292.301,-1276.527
-471.688,-1492.94,-484.996,-511.59,889.007,1167.578,314.323,-1147.412
-474.51,-1489.468,-484.841,-509.632,882.694,1162.692,318.923,-1142.538
-600.462,-1615.181,-608.701,-630.967,858.591,1140.772,304.619,-1259.155
-681.511,-1693.411,-689.037,-710.022,843.01,1126.654,294.775,-1334.851
-621.659,-1627.366,-628.575,-651.047,848.963,1132.091,305.231,-1275.94
-512.644,-1515.656,-520.245,-546.935,859.91,1141.204,324.562,-1173.128
-488.063,-1492.075,-497.205,-528.663,855.734,1135.391,333.17,-1153.21
-543.921,-1546.676,-554.186,-587.771,839.904,1118.9,329.552,-1206.811
-576.14,-1573.432,-587.301,-618.149,829.862,1109.785,327.19,-1231.009
-533.156,-1523.146,-543.959,-568.637,832.611,1114.945,334.347,-1176.882
-473.272,-1456.984,-481.958,-503.358,838.343,1122.52,343.947,-1106.421
-453.373,-1431.981,-459.755,-501.115,835.341,1119.361,350.546,-1079.679
-394.815,-1366.074,-398.82,-506.44,822.603,1105.652,377.443,-1016.276
-175.332,-1135.462,-175.894,-348.638,806.665,1089.103,453.916,-791.878
128.934,-819.147,131.834,-12.155,795.814,1077.613,550.056,-483.562
292.51,-645.102,297.108,249.09,793.909,1074.824,596.533,-316.105
266.955,-663.846,271.76,273.397,795.993,1076.147,583.865,-335.926
192.343,-738.998,197.073,192.668,796.101,1075.646,558.419,-403.666
141.267,-795.152,145.344,140.437,795.338,1074.671,540.105,-447.982
106.421,-829.593,108.427,106.309,796.381,1076.394,524.067,-476.155
107.145,-820.611,106.05,85.192,796.635,1077.792,518.591,-470.399
163.842,-753.345,159.471,111.052,793.38,1075.1,532.563,-412.881
279.495,-626.687,273.208,189.127,787.48,1068.394,566.528,-299.752
467.338,-428.981,463.2,339.358,779.926,1058.387,624.204,-112.848
687.15,-204.471,688.416,570.668,772.923,1048.264,691.442,110.308
828.273,-60.09,832.653,770.37,769.025,1042.611,731.8,256.286
859.207,-19.03,862.748,844.543,767.406,1041.413,736.422,291.706
831.597,-33.405,834.318,838.562,766.412,1041.495,723.39,269.739
755.767,-104.524,758.818,782.116,766.544,1041.479,695.843,200.169
660.468,-203.074,663.336,674.507,768.247,1041.485,661.02,108.672
637.101,-226.418,640.61,602.994,768.725,1039.477,648.247,86.367
710.826,-145.801,716.954,647.372,765.578,1033.908,667.603,162.117
814.63,-33.415,822.191,750.211,760.052,1026.83,697.637,271.302
920.657,81.053,926.656,841.796,752.362,1018.83,729.231,384.702
1046.242,216.485,1051.123,954.655,741.931,1008.737,768.817,518.631
1155.875,336.151,1162.705,1091.472,731.758,998.557,804.402,637.444
1209.101,399.248,1219.083,1189.051,726.21,992.097,819.807,697.659
1206.251,409.006,1218.243,1222.289,726.925,991.137,812.385,696.263
1141.996,356.932,1154.676,1182.577,732.571,995.026,781.358,631.054
1052.044,269.905,1064.101,1080.346,739.435,1000.664,741.016,544.469
1029.188,243.518,1038.63,1007.984,742.291,1003.111,723.475,529.682
1106.148,324.878,1112.439,1051.729,740.513,1001.678,739.088,615.011
1225.004,461.063,1232.212,1171.695,738.537,1000.014,768.124,743.3
1346.013,601.943,1359.73,1293.272,736.764,997.643,799.368,877.328
1467.725,734.278,1487.568,1415.619,732.716,992.108,833.107,1011.176
1561.647,830.763,1583.334,1530.952,728.609,985.9,857.722,1112.398
1616.994,891.712,1640.283,1615.009,729.112,983.827,866.313,1173.401
1648.01,933.547,1673.122,1674.959,735.069,987.683,861.719,1209.575
1623.964,918.442,1645.933,1677.205,743.244,995.17,837.007,1187.561
1544.531,845.41,1559.546,1587.929,749.919,1001.792,797.048,1108.668
1501.802,808.947,1511.924,1494.797,752.671,1003.646,772.704,1067.493
1556.934,869.712,1565.467,1519.867,753.478,1002.347,779.378,1122.766
1639.651,959.882,1648.816,1633.482,758.144,1004.165,790.54,1203.429
1644.358,973.186,1655.236,1682.945,767.542,1010.567,774.764,1206.891
1583.488,915.037,1593.729,1613.473,775.522,1016.217,740.578,1145.937
1557.94,889.103,1564.879,1537.842,777.699,1016.99,721.262,1121.333
1610.5,949.088,1615.322,1566.859,777.748,1015.658,727.089,1176.785
1675.948,1026.442,1679.67,1658.353,781.067,1017.16,733.925,1245.036
1671.166,1025.112,1672.596,1683.835,786.173,1020.487,718.063,1241.776
1609.379,960.17,1609.446,1614.088,788.484,1020.82,688.348,1182.622
1575.847,929.109,1577.487,1547.077,787.508,1017.222,670.946,1154.252
1624.891,987.542,1628.25,1562.349,786.866,1013.898,677.46,1209.883
1769.278,1141.488,1771.58,1659.396,786.21,1011.077,711.031,1360.801
1999.207,1381.158,1998.665,1843.464,778.331,1001.345,775.981,1596.122
2227.889,1621.999,2225.024,2095.13,763.249,984.546,847.441,1828.64
2336.375,1739.639,2332.243,2280.335,752.731,972.471,879.391,1939.784
2341.782,1748.219,2335.79,2326.624,753.745,971.835,869.809,1946.716
2333.26,1744.949,2324.5,2319.97,760.629,976.917,850.329,1940.346
2296.953,1720.04,2287.507,2294.577,765.544,980.228,825.406,1910.341
2215.37,1647.917,2207.387,2213.578,767.242,980.26,791.082,1836.65
2171.022,1607.407,2162.746,2134.149,767.676,978.209,768.279,1794.93
2210.018,1652.791,2200.777,2148.389,768.451,975.926,769.049,1833.459
2247.123,1702.137,2240.983,2212.132,770.832,975.804,768.767,1875.63
2192.984,1656.677,2191.682,2196.475,773.953,977.249,741.873,1831.22
2096.044,1558.788,2094.26,2092.416,775.384,976.947,702.733,1739.165
2063.845,1524.058,2055.849,2019.538,773.655,972.983,683.51,1704.6
2105.68,1571.239,2091.875,2042.908,770.698,967.834,686.75,1744.12
2133.525,1608.219,2117.814,2090.398,769.877,965.135,685.082,1774.048
2087.762,1567.728,2072.763,2065.566,770.551,963.879,661.704,1732.596
2012.262,1500.498,1999.997,1984.509,769.875,961.215,631.757,1664.056
1979.709,1486.827,1972.546,1936.221,766.785,956.628,617.198,1643.309
2002.138,1527.157,1999.147,1949.838,762.326,951.188,619.347,1677.45
2070.583,1601.985,2067.615,1991.839,756.831,944.435,634.421,1751.463
2213.112,1750.115,2208.429,2085.931,747.696,933.222,674.289,1896.837
2412.916,1964.995,2407.132,2281.349,735.758,918.886,734.137,2102.781
2546.041,2114.47,2538.603,2477.729,726.892,908.75,771.258,2245.737
2544.131,2121.636,2536.207,2533.498,723.136,905.478,763.59,2256.679
2479.844,2063.379,2475.364,2483.963,721.555,904.027,736.333,2206.199
2417.076,2009.724,2416.768,2425.335,720.963,901.263,709.35,2151.986
2361.911,1967.664,2363.288,2370.665,722.605,899.962,682.353,2099.344
2328.851,1947.316,2331.443,2320.037,724.89,900.261,660.967,2069.349
2329.089,1952.433,2332.468,2302.887,725.166,898.552,650.863,2074.781
2330.684,1952.307,2332.259,2313.45,724.623,895.369,641.439,2081.411
2289.284,1914.849,2289.751,2296.392,724.969,893.708,619.116,2048.244
2215.274,1855.132,2220.002,2230.363,725.032,892.845,588.879,1988.362
2156.528,1811.317,2168.77,2158.874,722.308,888.886,566.485,1944.35
2132.052,1797.157,2149.47,2128.271,717.159,881.623,556.006,1929.832
2118.897,1794.334,2137.155,2130.031,713.172,875.607,546.554,1922.311
2084.371,1769.359,2102.229,2111.906,711.058,871.515,528.355,1891.832
2027.898,1718.542,2048.481,2053.189,707.639,865.088,505.884,1841.018
1974.736,1671.932,2000.469,1986.675,700.231,854.143,489.346,1796.802
1945.468,1652.574,1973.664,1941.841,689.276,840.601,482.573,1777.134
1971.537,1687.96,1998.854,1931.502,675.278,825.029,493.766,1811.434
2091.394,1815.888,2118.12,2001.039,654.639,803.099,538.752,1939.003
2255.514,1987.85,2280.756,2166.539,626.795,773.834,603.322,2106.975
2325.333,2064.2,2345.777,2301.191,600.224,745.383,638.252,2173.697
2274.089,2018.87,2290.152,2298.326,584.105,727.172,628.007,2119.313
2209.098,1958.624,2222.98,2234.61,578.317,719.886,604.25,2056.918
2159.841,1911.182,2170.355,2182.025,575.262,715.81,581.789,2011.798
2083.174,1837.431,2090.795,2105.433,570.527,709.318,553.187,1939.256
2005.572,1767.107,2015.278,2011.622,564.699,700.608,527.429,1869.502
1976.167,1746.758,1990.302,1967.959,557.767,690.878,517.977,1849.829
1958.835,1739.88,1975.041,1966.371,549.455,680.677,512.517,1839.318
1887.089,1679.878,1903.166,1922.789,541.145,670.786,490.035,1771.46
1786.793,1588.067,1801.049,1824.177,534.801,662.732,456.575,1674.046
1735.989,1542.334,1747.271,1749.039,530.222,656.574,435.473,1626.549
1748.33,1563.12,1759.048,1738.871,524.862,649.405,434.13,1643.844
1800.14,1628.64,1813.956,1763.826,515.212,636.963,449.527,1700.51
1907.61,1749.369,1924.619,1832.484,498.618,617.375,488.099,1810.575
2058.206,1909.82,2075.989,1983.849,479.437,596.688,540.949,1964.319
2145.713,2006.169,2163.789,2130.952,466.145,582.832,569.514,2059.447
2113.536,1982.81,2133.178,2148.131,459.024,574.126,557.974,2037.427
2023.95,1899.608,2043.906,2066.566,451.702,564.445,529.719,1955.366
1921.894,1801.479,1940.593,1969.672,443.27,554.37,498.279,1858.607
1816.169,1702.314,1837.251,1870.397,438.6,548.364,463.12,1760.245
1748.395,1645.128,1775.417,1786.081,437.49,545.001,436.594,1699.572
1743.785,1648.056,1772.486,1761.008,434.957,539.844,428.548,1696.23
1750.149,1655.039,1774.149,1778.234,430.816,534.095,423.451,1701.122
1699.352,1603.561,1718.371,1755.138,428.422,531.002,400.089,1652.616
1609.12,1515.99,1625.699,1665.501,428.084,529.534,364.098,1566.716
1545.309,1456.272,1559.845,1571.537,426.011,525.352,337.546,1504.782
1521.137,1437.129,1535.553,1516.498,418.84,515.632,327.945,1483.193
1536.853,1464.052,1557.845,1499.184,406.345,500.45,337.309,1509.082
1642.37,1588.484,1673.822,1567.026,389.096,480.339,379.006,1630.009
1823.293,1785.696,1856.604,1755.186,370.555,459.187,441.344,1817.231
1934.256,1901.386,1955.881,1925.633,356.162,443.159,474.962,1919.607
1896.92,1866.464,1908.052,1932.85,346.567,432.743,461.262,1876.161
1787.468,1767.999,1802.028,1837.692,339.772,424.47,428.429,1775.503
1666.832,1658.434,1688.39,1733.009,335.934,418.032,390.511,1664.244
1543.017,1537.987,1562.89,1611.252,334.264,414.386,346.572,1539.527
1450.582,1451.037,1466.257,1489.663,330.252,409.892,313.278,1447.329
1416.06,1428.216,1431.724,1433.89,322.321,401.411,302.365,1420.622
1398.489,1414.209,1411.555,1433.888,315.537,392.8,294.798,1407.012
1331.431,1336.461,1336.246,1392.873,312.664,387.661,267.133,1335.724
1214.726,1213.313,1218.292,1273.334,309.805,383.153,226.684,1222.419
1112.082,1122.001,1128.033,1147.897,302.49,374.348,198.744,1138.596
1083.246,1109.571,1109.279,1086.142,290.419,360.071,196.693,1124.071
1176.976,1214.806,1199.181,1114.782,274.25,340.981,230.469,1212.641
1402.799,1455.948,1420.707,1281.31,252.677,316.047,308.011,1430.541
1640.019,1711.115,1663.77,1556.515,229.205,289.257,393.969,1674.102
1720.893,1796.846,1748.753,1738.211,211.718,269.304,427.916,1764.354
1651.782,1719.105,1672.177,1714.611,202.711,258.427,406.248,1692.105
1546.98,1606.676,1556.634,1604.915,198.966,252.624,368.269,1577.913
1417.339,1476.829,1423.327,1484.66,196.224,248.321,324.162,1447.762
1256.548,1320.377,1265.845,1325.316,191.294,242.865,274.719,1297.048
1151.626,1220.128,1165.295,1184.916,182.84,233.528,245.312,1202.353
1142.587,1213.856,1157.801,1149.501,172.95,221.518,244.948,1197.906
1157.711,1232.134,1172.203,1168.04,165.123,211.313,249.099,1215.565
1166.968,1248.231,1180.387,1161.376,157.391,201.597,251.083,1228.235
1222.528,1313.025,1235.632,1186.179,146.242,188.388,270.158,1287.789
1303.175,1401.137,1317.8,1282.153,134.713,174.704,297.82,1374.515
1318.498,1420.65,1336.336,1349.965,127.561,165.777,302.769,1399.019
1243.565,1348.072,1263.697,1316.683,124.438,160.952,277.133,1333.176
1108.416,1214.314,1127.359,1199.543,122.286,156.63,232.309,1202.2
964.132,1070.8,979.146,1039.426,119.911,151.634,184.686,1054.852
876.044,984.304,888.969,905.065,116.003,144.762,155.416,960.998
859.481,971.087,875.385,853.938,108.154,134.27,152.042,945.139
884.162,999.942,904.173,865.059,95.614,120.454,165.664,978.08
954.917,1075.737,974.394,915.063,78.905,103.386,195.68,1055.854
1074.617,1203.114,1089.851,1030.765,61.694,85.496,239.333,1177.551
1164.03,1302.055,1175.574,1159.854,49.198,72.144,269.407,1268.796
1158.596,1304.562,1168.663,1197.216,41.121,63.596,267.913,1268.201
1080.279,1230.753,1091.536,1146.053,34.795,56.505,244.399,1196.881
952.526,1102.72,966.207,1046.314,31.491,51.424,204.534,1076.063
808.903,952.366,821.719,902.789,32.239,49.891,155.713,935.288
725.964,861.45,734.216,772.673,32.142,47.71,124.436,849.979
722.422,860.015,728.556,733.764,26.961,40.574,121.872,844.777
711.959,862.146,721.515,751.246,21.214,32.731,119.366,838.358
616.566,776.351,631.467,706.256,20.625,30.305,87.389,750.27
479.887,639.691,497.575,572.038,22.979,31.509,39.377,618.873
400.097,556.519,415.495,446.059,21.735,29.142,9.927,538.186
401.212,557.806,411.546,399.62,14.573,20.24,9.321,532.814
472.121,635.931,481.51,427.841,3.433,7.199,34.223,598.902
634.87,811.704,648.533,551.156,-11.709,-9.665,91.287,763.36
839.955,1029.624,857.154,773.353,-28.926,-28.72,162.887,974.431
939.576,1137.178,957.559,948.488,-42.12,-43.768,199.595,1081.296
896.056,1096.212,915.015,957.287,-49.486,-52.597,188.906,1044.011
808.559,1006.884,829.705,882.598,-52.923,-57.617,161.392,959.433
711.959,905.389,734.208,799.485,-52.594,-59.985,127.394,861.945
592.095,781.184,612.513,675.309,-50.775,-61.517,85.162,738.638
499.133,688.22,517.133,539.668,-54.151,-67.449,55.937,642.723
471.28,663.603,489.77,483.18,-63.856,-78.699,52.232,614.954
450.885,644.767,469.369,489.48,-71.541,-87.462,48.299,594.341
363.821,554.225,375.033,439.029,-72.713,-89.083,16.488,501.774
234.714,419.943,236.153,299.276,-72.238,-88.412,-29.963,367.364
148.576,333.537,148.919,173.868,-75.777,-91.841,-57.354,285.091
135.246,324.358,140.577,137.266,-83.77,-100.242,-57.081,280.014
181.091,375.34,188.607,159.818,-94.302,-111.539,-37.743,331.004
298.91,501.642,307.695,234.411,-108.887,-127.096,6.147,455.011
466.528,681.33,478.437,397.362,-126.915,-146.252,68.299,631.005
568.404,792.528,581.54,562.303,-141.116,-161.874,107.18,736.512
543.927,770.185,556.379,596.188,-147.34,-169.944,101.41,711.722
455.112,676.678,467.847,524.686,-149.158,-173.385,73.087,625.138
337.447,551.724,350.797,417.4,-150.902,-175.966,36.281,511.069
196.739,407.09,211.237,276.514,-152.769,-179.02,-6.563,370.495
98.902,309.102,115.543,147.003,-154.736,-183.579,-35.79,269.435
84.261,296.362,100.371,104.632,-158.646,-190.019,-39.827,251.065
77.855,297.521,89.71,116.006,-163.562,-195.66,-42.619,242.436
-11.287,220.175,-3.275,62.733,-166.748,-198.771,-71.426,151.639
-149.069,88.302,-142.549,-76.736,-168.08,-200.941,-114.764,11.649
-231.457,2.186,-225.159,-196.245,-170.024,-204.158,-140.561,-69.774
-228.738,-3.089,-222.901,-230.07,-174.425,-209.339,-139.605,-61.768
-156.952,64.253,-151.39,-203.123,-182.73,-218.459,-114.697,15.557
5.975,232.302,14.293,-92.829,-197.741,-234.738,-55.306,184.096
227.927,464.977,240.384,140.141,-215.514,-253.682,24.374,411.904
363.079,606.069,375.645,359.19,-225.635,-264.681,69.762,549.334
342.926,584.372,351.938,399.152,-226.644,-266.722,60.193,527.431
250.426,487.06,255.951,313.786,-225.809,-267.221,28.338,431.132
140.942,372.697,143.052,208.073,-226.012,-268.714,-7.351,315.314
21.277,252.411,21.812,86.13,-224.508,-268.325,-47.387,190.61
-59.25,179.482,-53.927,-24.571,-221.618,-266.761,-75.475,113.239
-75.151,174.359,-62.274,-61.329,-221.422,-268.131,-81.088,104.908
-94.08,160.28,-77.252,-52.893,-223.543,-271.417,-86.443,89.756
-188.103,63.262,-168.149,-102.344,-223.053,-271.475,-116.467,-1.978
-315.469,-71.625,-292.751,-228.024,-218.644,-267.427,-159.834,-126.118
-381.806,-145.893,-363.932,-337.503,-215.97,-265.165,-185.875,-194.095
-378.363,-145.032,-370.704,-372.656,-219.649,-269.124,-187.221,-196.56
-335.128,-96.024,-332.825,-358.557,-227.215,-276.818,-171.843,-155.446
-217.62,31.616,-215.648,-287.001,-236.716,-286.871,-131.273,-37.057
-28.362,229.633,-27.983,-113.998,-248.482,-299.943,-67.89,148.93
94.535,359.139,93.639,66.373,-259.594,-312.502,-24.287,266.471
62.916,335.485,66.003,102.412,-266.683,-320.426,-27.611,235.24
-41.462,240.574,-32.964,24.136,-268.828,-322.642,-56.216,135.845
-147.656,139.405,-138.771,-70.848,-266.634,-320.317,-91.216,32.229
-260.271,23.427,-253.701,-183.43,-262.948,-317.139,-130.457,-80.47
-350.547,-75.243,-344.565,-304.898,-262.934,-318.331,-158.962,-169.683
-379.783,-111.774,-375.131,-366.089,-267.866,-324.573,-164.847,-198.211
-387.426,-122.966,-387.509,-362.975,-271.565,-329.481,-166.38,-208.768
-453.727,-189.546,-457.216,-394.439,-270.171,-329.101,-189.561,-278.239
-576.863,-310.424,-577.258,-511.65,-267.599,-327.136,-228.985,-399.623
-669.993,-401.491,-664.661,-636.286,-268.292,-328.439,-256.055,-489.457
-683.542,-414.396,-675.466,-685.881,-271.232,-332.699,-258.291,-503.825
-618.573,-345.003,-607.88,-659.452,-274.239,-337.484,-236.984,-439.346
-460.009,-177.007,-444.436,-548.129,-281.598,-345.777,-183.342,-274.629
-244.667,42.664,-228.315,-332.454,-295.32,-358.994,-108.666,-52.355
-112.793,166.3,-104.003,-131.668,-306.813,-369.636,-63.372,77.172
-131.742,134.415,-131.413,-93.184,-310.004,-372.732,-70.101,49.987
-223.205,36.232,-223.392,-171.352,-308.676,-372.072,-99.275,-42.856
-339.735,-82.854,-335.616,-275.552,-307.248,-371.861,-133.788,-151.747
-480.081,-226.704,-474.987,-411.546,-305.649,-371.558,-176.345,-284.638
-581.975,-330.069,-580.092,-546.24,-304.39,-370.518,-209.142,-384.007
-599.098,-344.369,-599.953,-596.869,-305.613,-370.719,-214.996,-399.726
-579.152,-320.426,-578.912,-579.385,-308.594,-373.148,-206.925,-376.248
-556.76,-296.711,-553.087,-568.153,-312.958,-378.5,-195.953,-351.556
-492.776,-235.45,-486.779,-531.449,-319.355,-386.484,-171.433,-290.291
-399.864,-147.399,-392.99,-428.075,-324.611,-392.966,-139.911,-202.411
-363.65,-115.216,-355.291,-347.88,-325.441,-394.834,-128.627,-168.317
-413.525,-166.543,-402.105,-363.197,-323.274,-393.605,-144.918,-215.958
-523.789,-277.359,-510.748,-451.601,-320.932,-391.599,-179.575,-323.797
-656.496,-412.485,-646.512,-582.186,-317.944,-388.516,-222.424,-459.076
-749.468,-506.881,-744.169,-708.253,-314.082,-385.038,-254.649,-558.916
-768.357,-521.33,-765.378,-768.726,-312.684,-384.483,-262.389,-584.424
-733.424,-479.677,-731.804,-760.392,-315.61,-387.938,-250.289,-553.378
-651.221,-398.799,-651.928,-707.238,-322.132,-394.91,-221.015,-472.745
-520.621,-279.314,-523.446,-590.111,-329.788,-403.389,-176.027,-342.377
-417.925,-185.606,-421.114,-449.588,-334.668,-408.548,-141.336,-237.155
-418.305,-186.512,-421.335,-401.6,-336.283,-409.293,-140.07,-232.524
-487.933,-257.026,-492.56,-452.283,-336.434,-408.652,-161.221,-300.936
-587.641,-362.681,-593.817,-536.467,-333.838,-406.548,-193.677,-405.767
-716.534,-494.574,-720.328,-654.463,-327.043,-401.28,-236.909,-539.221
-826.062,-599.264,-823.92,-790.129,-320.801,-396.837,-272.299,-648.024
-857.583,-625.065,-851.168,-864.354,-320.88,-398.435,-279.53,-679.625
-814.426,-584.551,-810.801,-847.748,-324.805,-403.119,-264.035,-646.088
-720.17,-499.529,-725.853,-778.083,-328.358,-406.379,-236.038,-569.031
-598.088,-380.291,-610.801,-667.411,-332.311,-408.98,-198.65,-457.958
-519.411,-293.068,-528.2,-552.13,-336.755,-411.532,-170.4,-373.593
-534.967,-300.944,-532.141,-516.228,-338.996,-412.544,-169.591,-373.591
-601.351,-368.975,-590.436,-554.351,-337.241,-410.765,-188.158,-429.83
-689.097,-461.08,-678.538,-620.162,-332.211,-406.144,-218.307,-517.853
-808.876,-582.349,-802.729,-732.947,-325.911,-400.188,-260.142,-642.061
-913.416,-689.529,-909.989,-872.919,-321.284,-396.073,-295.325,-748.653
-938.042,-721.224,-935.568,-945.208,-320.022,-395.186,-303.221,-772.88
-887.248,-675.697,-886.133,-917.851,-319.872,-394.909,-287.955,-722.682
-792.567,-577.808,-791.185,-840.355,-320.245,-395.529,-258.763,-630.2
-670.589,-449.529,-667.802,-728.05,-323.136,-399.586,-218.928,-512.586
-572.712,-353.21,-574.529,-606.54,-326.593,-403.898,-187.694,-425.178
-548.308,-339.66,-561.709,-554.029,-326.963,-404.107,-183.057,-416.551
-578.409,-379.464,-599.309,-572.201,-323.076,-400.096,-196.951,-457.337
-656.207,-456.495,-671.768,-623.81,-315.588,-392.933,-224.227,-531.675
-787.733,-579.843,-791.519,-729.613,-306.932,-384.091,-266.449,-650.57
-900.265,-687.657,-898.944,-864.855,-301.085,-377.524,-302.376,-755.294
-917.257,-710.567,-920.872,-929.247,-299.138,-375.726,-309.431,-775.429
-884.149,-689.613,-894.456,-900.492,-296.905,-374.851,-302.604,-747.852
-919.182,-730.586,-928.552,-892.559,-291.439,-370.189,-316.756,-778.59
-1038.866,-847.535,-1041.593,-986.053,-284.144,-362.082,-355.788,-887.223
-1133.269,-940.345,-1133.636,-1106.46,-277.275,-354.224,-387.807,-978.516
-1131.632,-939.845,-1134.02,-1149.255,-272.358,-349.182,-390.765,-982.159
-1043.919,-851.061,-1047.229,-1104.835,-271.331,-347.824,-365.046,-898.777
-866.779,-674.517,-873.325,-980.443,-277.204,-352.644,-308.047,-727.616
-629.594,-441.499,-643.5,-755.194,-286.77,-361.365,-231.269,-501.55
-466.896,-276.937,-484.829,-525.861,-290.229,-364.532,-180.795,-347.213
-457.17,-257.483,-471.987,-447.884,-285.381,-359.597,-180.432,-337.645
-521.358,-320.405,-532.814,-495.445,-278.37,-352.731,-203.099,-399.779
-598.997,-414.061,-614.279,-567.686,-271.684,-346.366,-231.137,-480.905
-699.529,-531.575,-721.72,-665.543,-262.937,-337.802,-268.969,-588.75
-782.52,-615.467,-804.785,-776.522,-253.325,-328.457,-300.883,-674.52
-799.26,-622.253,-814.301,-822.929,-247.619,-323.323,-307.358,-686.096
-794.508,-612.209,-804.092,-800.631,-244.75,-320.608,-304.875,-673.739
-850.546,-673.648,-861.79,-813.983,-239.264,-314.375,-324.774,-726.725
-958.105,-789.355,-971.958,-913.692,-230.053,-304.391,-364.047,-834.139
-1030.661,-862.295,-1040.188,-1017.41,-221.352,-295.47,-390.935,-902.621
-1033.656,-858.901,-1036.735,-1048.721,-216.82,-290.311,-392.969,-900.046
-982.954,-802.306,-986.462,-1023.471,-215.633,-287.572,-378.082,-850.856
-853.005,-668.533,-861.379,-941.606,-217.495,-288.201,-338.322,-729.133
-639.906,-454.223,-650.417,-750.558,-221.981,-292.752,-271.053,-523.422
-468.209,-288.011,-477.396,-524.25,-223.811,-295.218,-217.626,-353.974
-446.238,-276.005,-453.058,-434.806,-219.924,-291.533,-212.879,-330.178
-515.229,-350.149,-519.664,-481.898,-212.672,-284.062,-237.436,-397.161
-594.074,-429.229,-598.842,-554.455,-203.739,-274.929,-267.099,-478.536
-675.625,-514.433,-685.699,-636.646,-193.225,-264.332,-300.519,-567.856
-738.327,-582.077,-751.929,-728.445,-183.595,-254.718,-326.98,-635.959
-749.547,-591.634,-757.633,-767.379,-177.484,-248.727,-332.424,-643.87
-736.143,-575.579,-736.807,-737.635,-172.031,-243.136,-329.696,-624.03
-763.078,-609.714,-764.407,-726.462,-163.653,-233.971,-343.938,-649.161
-836.448,-696.617,-842.573,-794.669,-153.693,-223.082,-374.224,-724.174
-890.237,-758.869,-897.545,-882.03,-145.505,-214.717,-395.735,-779.326
-886.528,-754.792,-893.444,-907.23,-140.509,-209.948,-396.92,-777.305
-841.075,-702.48,-849.137,-872.479,-136.784,-205.617,-385.816,-733.994
-753.03,-604.934,-759.471,-807.927,-133.523,-200.97,-361.695,-645.164
-609.185,-456.402,-610.743,-685.554,-132.38,-198.992,-317.916,-498.429
-468.203,-322.992,-471.755,-520.134,-132.291,-198.94,-274.965,-360.987
-412.325,-283.499,-428.668,-424.121,-129.709,-196.163,-261.968,-317.959
-431.159,-311.954,-456.403,-426.723,-122.441,-188.019,-274.532,-345.919
-484.277,-358.558,-502.828,-464.055,-111.978,-176.771,-295.99,-393.669
-559.037,-421.001,-567.797,-522.779,-101.814,-166.097,-322.456,-459.841
-614.479,-473.053,-625.129,-596.264,-93.678,-157.259,-344.642,-518.486
-610.654,-474.389,-627.373,-626.837,-86.536,-149.801,-349.87,-524.477
-577.912,-447.6,-593.583,-595.3,-78.008,-142.266,-345.826,-497.21
-587.26,-463.268,-599.993,-577.628,-68.426,-134.309,-354.338,-509.974
-650.792,-533.158,-665.582,-632.088,-60.319,-126.43,-378.816,-577.995
-704.385,-588.003,-721.307,-705.712,-54.141,-118.334,-398.848,-631.453
-704.907,-587.191,-720.338,-724.391,-48.755,-110.778,-401.601,-628.096
-680.658,-567.031,-696.313,-695.637,-43.233,-104.302,-397.866,-606.058
-687.74,-581.261,-706.607,-686.665,-37.495,-97.81,-404.601,-620.694
-734.089,-629.124,-752.457,-725.947,-30.926,-90.068,-422.231,-669.273
-771.288,-663.726,-785.31,-771.763,-23.301,-81.835,-436.576,-703.621
-771.212,-665.189,-785.425,-787.828,-16.904,-75.542,-440.179,-706.099
-737.528,-636.18,-757.811,-780.458,-13.439,-71.688,-433.19,-681.442
-647.902,-546.46,-671.975,-737.518,-14.033,-71.007,-405.476,-597.594
-483.22,-375.256,-505.462,-598.7,-18.267,-74.072,-350.769,-432.003
-324.245,-209.179,-345.128,-397.172,-20.953,-76.08,-299.429,-272.675
-278.629,-161.681,-303.623,-292.323,-18.494,-72.725,-287.498,-232.15
-321.186,-207.617,-353.576,-324.443,-13.171,-66.42,-304.448,-281.997
-370.737,-260.81,-409.517,-385.985,-7.496,-60.624,-323.158,-337.888
-412.487,-302.052,-455.015,-428.882,-0.499,-54.071,-340.289,-385.736
-445.888,-332.782,-490.781,-470.926,7.536,-45.549,-355.974,-425.125
-452.435,-340.331,-500.771,-498.306,12.698,-38.339,-361.647,-436.207
-440.166,-331.056,-492.551,-488.556,14.6,-33.778,-358.964,-426.175
-450.755,-338.974,-504.659,-475.58,17.539,-28.833,-363.014,-437.297
-495.157,-376.595,-548.441,-503.722,24.109,-21.187,-379.422,-482.515
-534.184,-414.083,-586.471,-553.866,32.309,-12.161,-395.656,-522.581
-545.982,-429.262,-594.092,-580.647,38.208,-5.397,-401.101,-532.866
-544.914,-426.977,-584.561,-572.91,42.062,-1.433,-399.668,-527.633
-551.78,-428.873,-584.16,-560.606,47.54,3.273,-402.168,-530.402
-569.734,-449.022,-599.345,-570.03,56.215,11.602,-412.092,-545.084
-583.057,-472.075,-611.52,-590.871,65.641,21.509,-421.874,-555.392
-582.396,-479.088,-608.942,-600.332,72.228,28.524,-424.579,-552.012
-569.19,-469.207,-592.23,-585.43,76.989,33.543,-421.479,-535.045
-557.882,-460.319,-574.038,-560.101,82.972,40.114,-419.444,-517
-563.038,-465.71,-570.057,-551.459,89.898,47.849,-422.755,-514.385
-577.332,-476.217,-577.467,-562.133,95.577,54.167,-428.159,-524.076
-585.785,-481.365,-582.179,-573.673,99.379,58.279,-430.659,-531.197
-576.162,-474.692,-570.022,-566.212,104.108,62.828,-428.933,-521.757
-554.374,-459.683,-547.706,-544.817,110.593,68.786,-425.889,-502.718
-543.772,-450.367,-536.568,-532.485,115.685,73.466,-424.695,-495.079
-551.802,-452.969,-537.289,-533.387,118.877,76.368,-425.204,-499.196
-561.513,-461.641,-535.62,-535.057,122.699,80.218,-426.029,-499.429
-548.656,-457.382,-519.905,-523.626,128.809,87.163,-425.349,-482.758
-519.65,-439.037,-497.767,-503.832,135.632,95.028,-423.233,-458.469
-505.744,-431.299,-487.647,-492.769,140.376,100.371,-422.051,-447.145
-512.515,-439.502,-489.472,-491.024,143.343,104.01,-422.616,-448.71
-519.25,-444.537,-490.779,-490.061,146.909,108.519,-423.977,-450.595
-508.081,-431.188,-480.737,-482.139,151.791,114.343,-423.406,-441.507
-488.275,-412.027,-465.367,-470.011,155.105,118.812,-419.42,-425.739
-477.298,-406.092,-457.795,-461.401,155.529,120.427,-414.57,-417.331
-469.385,-406.343,-454.089,-453.172,157.007,122.339,-412.095,-416.556
-459.025,-402.434,-447.555,-444.775,161.899,127.088,-412.692,-416.862
-451.191,-394.112,-435.654,-436.866,167.899,133.437,-413.033,-410.07
-448.131,-386.629,-421.229,-428.9,171.747,138.153,-410.208,-396.838
-443.2,-381.539,-408.461,-419.11,173.2,139.873,-405.068,-385.137
-429.451,-372.748,-395.922,-403.081,174.826,141.167,-399.937,-373.783
-417.106,-364.278,-389.51,-391.542,177.256,144.178,-397.46,-363.581
-398.915,-344.955,-375.797,-393.635,178.473,147.155,-391.979,-341.559
-316.813,-258.914,-294.981,-366.72,174.996,145.23,-362.617,-255.049
-132.369,-71.779,-111.721,-223.264,166.247,137.499,-298.396,-70.167
63.601,124.639,81.427,11.677,158.722,131.275,-232.58,125.551
134.04,194.321,150.317,156.157,157.855,131.874,-209.322,198.059
95.677,154.394,114.024,141.842,161.153,135.863,-220.444,161.507
52.75,108.585,75.678,87.267,163.763,138.134,-231.407,117.949
28.853,81.646,55.667,63.699,165.753,139.524,-236.703,91.371
7.906,59.911,34.691,43.663,169.528,143.201,-244.199,65.407
-3.766,48.25,20.531,16.243,173.055,146.904,-249.135,47.914
-6.056,43.616,17.915,5.196,173.221,147.204,-246.94,43.204
-20.912,24.762,4.365,5.503,171.059,145.976,-245.676,30.028
-52.511,-10.366,-29.127,-10.525,170.04,147.072,-251.769,-0.452
-72.871,-32.876,-54.066,-38.93,171.361,150.06,-257.92,-23.676
-69.384,-30.305,-51.663,-53.978,172.185,150.874,-255.62,-24.81
-55.373,-18.38,-34.594,-43.58,171.143,149.29,-247.191,-14.834
-53.391,-22.034,-31.913,-31.084,169.768,148.327,-242.625,-18.273
-75.881,-51.291,-58.078,-48.171,168.647,148.518,-246.791,-47.498
-106.565,-84.855,-92.017,-85.922,167.044,148.298,-252.845,-81.275
-123.037,-99.964,-108.725,-111.304,164.506,146.65,-252.819,-96.24
-117.365,-93.875,-102.477,-105.987,162.667,144.98,-246.547,-90.657
-103.782,-84.333,-89.73,-88.534,162.65,144.198,-240.141,-82.951
-103.793,-90.094,-91.431,-90.912,162.995,143.208,-238.467,-91.069
-117.105,-106.87,-104.917,-112.333,161.869,141.488,-238.997,-108.451
-130.245,-121.605,-115.702,-131.113,158.574,138.375,-236.506,-121.025
-131.99,-126.385,-115.104,-133.809,155.425,134.468,-230.294,-122.736
-130.647,-131.773,-114.51,-131.611,154.191,131.831,-225.707,-123.671
-144.529,-154.079,-131.889,-144.97,152.481,130.575,-226.421,-138.771
-168.409,-183.115,-159.464,-170.01,148.266,129.088,-228.369,-162.271
-187.619,-201.951,-180.15,-190.247,142.542,126.368,-227.127,-182.124
-198.343,-208.078,-188.981,-197.989,137.796,123.447,-223.26,-194.075
-213.08,-217.018,-199.639,-207.231,134.513,120.524,-220.872,-207.545
-243.008,-244.188,-226.208,-234.874,131.083,116.484,-222.481,-234.11
-271.627,-275.734,-255.127,-266.886,127.345,112.24,-224.398,-262.316
-280.494,-291.076,-267.318,-281.174,123.812,108.923,-221.889,-275.242
-273.738,-289.816,-262.321,-275.67,120.243,106.107,-214.685,-271.789
-272.283,-293.459,-260.75,-271.884,115.355,102.231,-207.499,-271.737
-288.852,-317.346,-278.859,-288.861,109.084,96.811,-204.74,-292.574
-311.429,-344.685,-302.41,-314.879,103.899,91.413,-204.215,-320.551
-326.379,-358.992,-316.342,-333.535,100.142,86.484,-201.85,-337.486
-329.441,-364.614,-323.485,-342.537,95.952,82.414,-197.457,-343.514
-329.98,-375.78,-334.793,-350.47,90.467,79.564,-193.739,-352.285
-342.038,-395.369,-352.815,-363.669,84.612,76.638,-191.695,-370.875
-360.809,-408,-366.283,-374.958,80.103,73.026,-189.208,-387.246
-376.24,-412.799,-374.533,-384.937,76.633,68.833,-185.717,-397.066
-371.139,-407.111,-369.373,-398.785,72.378,63.851,-177.372,-392.662
-297.609,-339.124,-300.352,-381.535,63.843,55.616,-146.72,-325.415
-123.5,-162.796,-131.014,-251.954,49.165,42.376,-81.504,-157.112
66.227,36.529,54.078,-28.74,34.734,29.772,-12.053,28.771
132.139,104.758,116.97,108.323,27.299,23.328,15.429,91.221
80.287,43.603,66.321,81.274,24.485,19.977,5.707,36.473
15.799,-29.747,5.55,6.34,21.474,15.788,-6.877,-29.188
-30.573,-78.822,-39.243,-40.034,19.044,13.148,-15.589,-75.366
-72.872,-124.12,-82.377,-82.212,18.406,13.527,-25.59,-117.17
-100.059,-156.051,-109.798,-124.403,15.605,11.881,-28.879,-144.271
-104.212,-161.278,-113.558,-135.213,9.293,6.032,-21.793,-149.756
-115.346,-170.453,-124.718,-129.947,3.893,0.319,-17.627,-164.655
-158.062,-214.81,-167.637,-158.709,1.955,-2.241,-26.119,-213.455
-203.361,-266.57,-214.952,-216.924,0.639,-3.507,-36.759,-265.062
-219.689,-288.127,-236.16,-256.899,-4.147,-7.065,-36.589,-284.476
-216.836,-284.755,-237.058,-256.462,-10.534,-11.841,-28.904,-280.038
-226.317,-291.205,-246.028,-246.372,-13.954,-14.327,-26.283,-286.102
-260.01,-326.951,-278.102,-267.542,-14.919,-15.139,-32.528,-318.045
-293.305,-368.329,-311.057,-310.806,-16.533,-17.002,-38.308,-350.686
-306.607,-386.49,-322.649,-339.42,-20.223,-21.054,-36.139,-362.664
-304.585,-380.994,-318.345,-337.889,-24.364,-25.207,-29.381,-361.668
-306.804,-379.639,-322.841,-330.908,-26.871,-27.436,-26.852,-370.695
-334.339,-409.428,-353.478,-354.769,-28.143,-28.984,-32.793,-403.901
-383.274,-459.911,-397.146,-406.257,-29.858,-31.251,-42.13,-448.134
-429.775,-503.321,-434.963,-458.005,-33.799,-34.9,-47.935,-486.949
-432.179,-503.092,-437.984,-489.093,-40.251,-40.609,-40.981,-491.874
-328.277,-399.557,-342.848,-454.598,-50.3,-50.403,-1.484,-397.497
-114.379,-187.464,-135.586,-287.067,-65.424,-65.526,75.516,-189.908
73.512,-4.194,51.362,-49.158,-80.759,-80.798,146.424,-4.272
98.56,13.963,78.281,60.537,-89.799,-89.754,164.612,19.629
13.668,-71.883,-4.347,4.597,-92.616,-92.062,144.871,-64.345
-72.402,-150.99,-87.743,-81.729,-93.269,-91.769,122.592,-146.424
-159.762,-236.276,-172.673,-160.071,-94.476,-92.471,100.492,-230.637
-248.194,-335.295,-262.591,-259.739,-97.309,-95.501,78.73,-322.626
-287.639,-386.117,-307.589,-333.837,-102.678,-100.847,72.383,-370.226
-285.451,-381.076,-307.102,-336.053,-108.709,-105.933,79.634,-369.434
-320.906,-404.68,-335.999,-331.609,-112.256,-108.122,75.715,-395.318
-421.89,-504.258,-429.944,-405.168,-113.257,-108.485,50.485,-487.355
-510.896,-606.762,-519.889,-517.546,-113.483,-109.307,26.236,-579.13
-521.496,-630.889,-536.954,-572.855,-114.866,-111.81,24.759,-600.143
-454.18,-565.439,-472.891,-547.962,-119.124,-116.351,49.138,-538.141
-299.564,-400.291,-314.146,-445.375,-129.427,-125.6,105.985,-377.558
-62.691,-147.025,-71.84,-227.911,-146.062,-140.735,193.103,-131.696
140.749,65.473,128.767,37.814,-160.464,-153.856,266.258,71.242
192.857,111.847,171.067,165.388,-165.99,-158.16,284.907,114.752
131.52,39.786,105.041,127.198,-165.803,-157.056,266.606,50.064
33.678,-60.513,13.177,43.483,-164.28,-155.214,239.73,-40.397
-87.264,-176.143,-100.495,-56.511,-161.918,-152.374,205.754,-152.475
-183.391,-268.901,-197.758,-172.495,-159.976,-149.136,176.647,-247.185
-197.071,-286.714,-216.13,-230.703,-161.695,-149.518,173.767,-262.759
-173.74,-271.692,-191.98,-205.204,-165.147,-152.704,185.05,-237.279
-213.128,-317.263,-227.702,-196.257,-165.025,-153.267,175.767,-273.396
-324.328,-429.765,-338.545,-286.345,-161.323,-150.15,141.321,-385.367
-410.529,-513.147,-425.057,-406.776,-158.303,-146.962,114.505,-472.686
-415.425,-514.311,-427.866,-451.705,-159.447,-147.49,115.949,-475.056
-366.642,-465.305,-379.166,-423.851,-164.137,-151.814,135.818,-425.123
-263.723,-365.536,-281.117,-359.51,-171.038,-158.738,172.028,-327.627
-81.874,-182.133,-101.667,-212.611,-180.804,-168.446,234.194,-152.062
99.664,10.106,85.524,7.034,-190.509,-177.767,298.251,31.17
159.998,79.684,150.847,140.81,-196.033,-182.607,323.127,96.905
113.964,31.285,99.343,127.51,-197.205,-182.632,310.145,49.104
31.671,-59.034,8.251,56.726,-194.693,-178.857,282.077,-39.646
-78.113,-174.065,-101.451,-41.366,-188.81,-172.709,245.34,-150.544
-177.221,-276.848,-194.4,-163.307,-182.847,-167.746,213.32,-247.036
-201.382,-305.269,-215.932,-233.298,-181.653,-167.702,206.35,-272.302
-177.921,-283.666,-192.474,-211.771,-183.232,-169.761,214.969,-251.468
-203.476,-307.786,-216.406,-189.164,-181.132,-167.649,206.569,-276.334
-302.859,-405.349,-314.505,-261.268,-175.181,-161.604,173.479,-373.567
-391.383,-491.796,-402.233,-378.293,-170.522,-156.852,144.869,-460.022
-402.364,-500.289,-410.884,-428.365,-170.152,-156.126,142.798,-469.25
-345.096,-442.942,-352.85,-392.605,-172.271,-157.365,161.571,-413.588
-222.603,-322.812,-234.671,-308.297,-176.693,-160.704,199.82,-296.509
-29.003,-128.399,-47.458,-152.609,-186.111,-169.493,263.58,-107.517
151.676,60.95,131.122,59.881,-196.154,-179.417,325.887,73.088
208.826,128.174,191.891,189.133,-198.806,-182.268,346.798,132.95
166.427,84.798,153.397,182.703,-193.72,-178.02,331.386,90.84
93.882,1.017,80.534,120.32,-186.34,-171.798,303.646,14.621
-11.562,-112.405,-27.003,22.658,-179.949,-165.44,266.195,-93.054
-117.907,-217.94,-133.143,-102.56,-175.138,-159.072,230.231,-195.441
-148.696,-246.036,-162.558,-169.553,-173.376,-155.583,220.018,-219.271
-119.361,-216.317,-132.336,-138.531,-173.033,-154.631,229.357,-184.716
-136.136,-232.51,-146.895,-109.715,-169.148,-151.159,222.478,-198.221
-236.945,-333.517,-244.912,-184.583,-161.253,-144.137,187.262,-298.422
-329.41,-429.333,-336.606,-306.554,-153.928,-137.676,154.031,-393.729
-337.974,-438.974,-344.553,-356.657,-151.182,-134.923,148.758,-404.269
-283.091,-377.271,-287.06,-322.124,-152.16,-134.737,165.509,-347.088
-176.908,-260.955,-178.565,-248.242,-155.553,-137.144,199.955,-237.433
2.177,-76.194,-0.031,-102.622,-162.219,-143.879,258.863,-57.127
190.39,112.627,185.721,117.886,-168.164,-149.686,319.072,131.607
267.506,190.317,262.199,268.042,-168.66,-148.843,341.544,212.254
232.813,157.813,229.971,272.388,-165.43,-144.253,328.759,183.292
158.345,81.538,156.479,209.637,-161.307,-139.912,303.564,110.736
62.018,-23.701,56.626,119.617,-156.172,-135.05,269.842,10.496
-25.233,-119.443,-34.015,10.562,-150.169,-129.202,237.638,-81.326
-48.68,-142.056,-55.744,-52.395,-146.296,-125.737,227.323,-105.841
-30.064,-115.177,-32.517,-36.068,-145.388,-125.162,233.064,-86.162
-55.509,-135.58,-55.717,-20.303,-143.859,-123.34,224.933,-111.749
-150.34,-233.259,-151.133,-89.619,-139.354,-118.565,193.05,-208.011
-236.611,-322.24,-238.006,-199.822,-133.73,-112.96,162.358,-294.187
-254.061,-336.736,-256.764,-256.632,-131.307,-109.911,154.18,-310.167
-215.835,-295.318,-221.79,-246.841,-133.16,-110.399,165.687,-271.047
-115.842,-194.241,-122.979,-186.123,-137.829,-113.878,198.747,-168.088
70.533,-4.156,66.497,-27.752,-145.105,-120.464,260.908,24.874
262.74,193.869,260.762,204.726,-151.491,-126.842,323.803,220.661
329.472,262.222,325.171,339.708,-152.763,-129.28,344.363,282.909
282.518,211.294,275.582,318.499,-149.61,-127.843,327.379,228.054
209.047,133.132,202.611,251.646,-144.23,-123.029,300.524,149.944
118.386,41.036,114.623,175.646,-137.814,-115.555,267.76,59.453
23.969,-51.453,23.232,70.796,-132.119,-108.712,235.251,-32.926
-14.995,-87.082,-14.106,-5.118,-129.774,-106.712,222.425,-72.355
-0.005,-69.582,0.094,0.277,-129.411,-107.831,226.469,-60.779
-13.467,-83.215,-15.351,20.043,-126.619,-105.932,218.984,-76.076
-99.25,-172.805,-103.437,-42.89,-121.411,-100.346,187.721,-160.528
-191.11,-270.751,-198.431,-159.52,-117.206,-95.625,155.723,-251.209
-217.99,-302.091,-227.469,-224.954,-116.24,-94.706,146.611,-276.863
-182.133,-264.879,-190.167,-209.621,-117.896,-96.147,159.377,-236.435
-85.238,-159.371,-89.699,-144.515,-121.993,-99.623,192.44,-134.102
89.301,28.229,87.67,-5.096,-129.868,-107.555,251.31,41.703
270.943,220.461,271.096,205.471,-137.698,-115.94,311.898,222.231
338.468,289.81,340.05,346.475,-139.687,-117.765,333.591,291.587
299.054,246.142,302.201,346.507,-135.987,-113.501,318.866,256.956
233.118,176.228,236.78,288.706,-130.035,-107.684,293.968,193.479
147.7,86.227,148.28,208.908,-123.687,-101.856,261.887,105.164
55.674,-11.955,50.827,100.051,-117.875,-96.228,227.723,7.755
19.459,-52.404,10.314,24.946,-114.89,-93.273,212.829,-33.375
40.576,-33.206,28.603,33.906,-114.314,-92.899,217.35,-16.662
31.399,-43.659,18.126,56.792,-112.591,-91.242,212.435,-27.842
-57.766,-134.374,-70.179,-4.138,-108.89,-86.967,182.675,-115.239
-154.059,-232.843,-165.682,-116.929,-104.668,-81.786,149.841,-209.717
-177.292,-255.395,-189.576,-176.054,-101.783,-78.408,139.277,-233.045
-136.197,-207.28,-148.183,-158.288,-101.516,-78.35,150.742,-190.594
-46.11,-107.389,-55.724,-101.32,-105.433,-82.536,180.997,-96.592
114.051,59.913,106.623,23.371,-114.653,-91.615,236.187,66.528
291.361,241.292,284.878,226.269,-123.683,-100.403,295.797,244.464
362.347,314.271,356.949,367.675,-125.852,-102.54,318.383,316.638
317.365,267.391,312.573,360.519,-122.581,-99.306,302.189,273.805
239.506,182.402,232.925,288.595,-118.417,-95.221,274.925,195.894
149.713,84.277,141.447,206.509,-113.755,-90.93,243.752,104.525
57.903,-10.755,52.336,106.857,-107.42,-85.351,211.587,13.983
11.182,-54.748,11.258,29.804,-102.93,-81.657,194.903,-27.94
12.111,-47.541,15.814,13.223,-103.877,-82.807,196.336,-22.543
22.883,-28.195,26.145,20.803,-108.351,-86.496,202.677,-11.22
57.354,13.552,57.553,37.706,-113.485,-90.478,216.142,20.321
141.505,99.169,139.186,111.293,-117.145,-93.955,243.227,102.488
212.921,166.007,209.951,207.351,-118.063,-95.693,264.294,174.906
209.858,156.969,205.942,237.097,-117.13,-95.16,261.237,172.229
146.485,92.175,141.253,195.086,-115.668,-93.229,240.002,107.071
44.32,-7.138,40.538,108.42,-113.403,-90.649,208.11,4.297
-64.927,-115.144,-63.912,-6.355,-109.731,-87.581,174.169,-102.592
-128.383,-181.508,-122.308,-101.17,-107.017,-86.246,154.678,-162.278
-118.748,-177.893,-111.872,-128.14,-107.004,-87.839,157.855,-151.049
-32.74,-97.035,-29.814,-83.154,-109.47,-91.552,183.758,-67.496
119.163,58.614,120.131,40.451,-115.743,-98.179,232.141,82.34
267.253,219.022,271.178,218.164,-123.571,-105.381,282.002,232.186
314.765,275.165,320.742,326.108,-127.51,-108.304,299.316,282.371
271.94,232.023,276.919,311.437,-126.387,-106.488,285.343,241.795
204.558,161.783,210.01,255.939,-122.196,-102.403,261.587,178.029
105.78,61.269,114.155,178.677,-116.347,-97.378,227.349,82.972
-14.009,-60.343,-5.179,52.607,-110.461,-92.126,186.066,-36.855
-77.132,-124.295,-72.096,-54.817,-107.589,-89.11,163.032,-103.806
-56.906,-102.285,-54.458,-66.368,-107.505,-88.705,167.528,-85.361
-0.099,-43.361,4.534,-17.491,-107.759,-89.123,184.624,-24.314
72.278,29.367,79.937,42.826,-110.368,-91.999,208.657,54.452
160.292,118.888,168.061,132.211,-115.695,-97.031,238.488,145.039
215.825,180.438,222.531,219.332,-118.985,-99.68,256.224,198.354
209.632,182.715,217.422,245.582,-118.017,-98.313,252.704,189.615
156.43,133.645,167.926,217.741,-114.055,-94.385,233.877,138.437
51.057,22.315,65.613,135.542,-107.628,-88.455,197.783,37.929
-74.361,-115.988,-60.221,2.336,-99.778,-81.296,153.439,-85.58
-136.807,-186.937,-124.627,-102.186,-94.78,-76.502,129.141,-149.293
-110.53,-158.631,-99.691,-111.785,-94.351,-75.62,134.882,-123.803
-33.936,-75.738,-24.663,-58.571,-96.211,-77.087,157.709,-46.605
73.138,34.081,81.281,28.293,-100.339,-81.432,192.06,61.985
190.021,150.747,198.668,157.883,-104.97,-86.765,230.034,180.257
253.34,214.198,262.575,264.204,-105.506,-88.226,248.334,243.07
244.73,204.844,252.905,283.068,-101.98,-85.699,241.582,231.606
192.418,147.218,196.807,243.15,-97.499,-82.278,220.7,173.352
89.284,34.52,86.801,152.621,-92.617,-78.363,183.822,60.896
-36.194,-99.205,-46.688,11.454,-86.975,-73.214,139.164,-74.313
-96.761,-163.639,-114.504,-99.806,-83.06,-69.514,114.811,-143.683
-65.844,-134.698,-90.11,-114.096,-82.168,-69.123,119.798,-122.227
13.71,-56.424,-16.423,-64.694,-83.538,-70.98,141.28,-50.467
124.783,56.099,89.866,22.061,-88.43,-75.781,175.918,58.508
252.031,186.813,213.221,159.214,-94.666,-81.727,217.036,187.329
325.5,260.952,282.834,274.242,-97.012,-84.196,238.813,260.366
315.727,247.113,268.857,291.203,-95.356,-83.019,232.297,245.563
253.812,179.662,202.967,242.921,-91.919,-80.37,208.736,174.696
146.713,67.463,92.314,151.709,-85.888,-75.922,169.701,55.46
28.652,-56.243,-29.9,17.941,-77.075,-69.492,125.118,-76.462
-22.578,-113.517,-87.344,-88.118,-70.455,-64.816,101.759,-139.973
10.166,-85.222,-62.657,-102.536,-69.412,-64.148,107.117,-115.606
87.688,-6.956,9.221,-51.917,-71.714,-65.687,128.886,-41.583
198.312,110.959,120.605,41.021,-76.212,-69.408,164.585,71.037
320.422,240.048,247.11,180.847,-81.26,-74.156,205.728,199.143
377.512,297.67,308.239,288.751,-83.08,-75.869,224.809,264.775
347.933,269.211,284.021,299.266,-81.164,-73.757,215.38,246.476
273.988,203.124,218.183,255.446,-76.884,-69.546,191.591,184.727
158.372,91.713,110.092,170.967,-70.515,-63.423,153.454,79.535
23.373,-50.137,-19.88,33.781,-63.591,-56.183,108.224,-46.933
-51.188,-129.286,-88.946,-80.154,-59.931,-51.846,83.639,-114.242
-37.629,-107.058,-68.97,-93.319,-59.835,-51.285,88.029,-95.803
22.22,-36.428,-7.073,-41.309,-59.933,-50.9,104.6,-34.356
108.916,52.388,77.167,28.676,-60.719,-51.122,128.859,53.635
212.818,157.417,182.247,133.457,-63.052,-53.283,161.186,162.689
274.313,226.99,252.66,235.751,-63.344,-54.012,181.208,233.629
265.111,226.453,254.666,271.094,-58.935,-50.104,176.431,235.235
211.06,172.547,206.586,249.105,-51.372,-42.213,154.179,188.938
106.335,63.301,102.352,170.374,-43.541,-33.366,115.684,87.898
-29.35,-70.555,-31.828,30.392,-36.902,-26.113,69.635,-43.349
-109.205,-142.037,-105.723,-87.801,-32.663,-21.996,43.098,-114.863
-92.813,-118.342,-81.159,-103.338,-30.598,-20.555,47.224,-88.894
-15.934,-36.635,3.17,-45.314,-29.828,-21.152,70.444,-5.333
96.61,80.868,119.815,48.327,-32.777,-25.524,106.895,108.993
219.345,207.998,242.13,184.019,-38.651,-30.992,147.156,230.777
283.95,273.329,304.148,296.895,-41.107,-31.492,165.977,294.749
271.423,257.896,289.752,318.268,-37.873,-27.486,157.58,280.452
212.757,197.402,230.814,277.311,-32.347,-22.98,134.683,218.089
98.644,84.723,117.793,185.143,-26.74,-18.136,95.759,102.709
-44.616,-56.201,-23.184,37.588,-20.607,-11.949,47.882,-36.192
-122.765,-131.959,-98.007,-81.743,-15.431,-6.929,20.526,-106.485
-103.168,-109.787,-75.148,-95.197,-13.004,-4.635,24.313,-79.938
-32.121,-36.74,-1.803,-40.401,-13.06,-4.324,44.586,-5.55
71.954,70.523,104.807,42.575,-16.169,-7.642,77.353,98.229
199.629,204.995,236.466,174.495,-20.3,-13.179,118.854,224.172
278.801,291.174,318.983,299.577,-21.385,-15.189,143.211,304.441
269.742,282.729,309.28,332.085,-19.486,-12.315,137.663,302.128
202.622,211.008,238.951,288.848,-15.771,-7.107,113.003,245.527
85.766,92.741,121.946,195.441,-9.4,-0.262,72.533,139.526
-48.726,-39.244,-9.885,57.599,-1.214,8.083,25.494,11.251
-116.079,-108.29,-79.187,-55.597,4.371,14.008,-1.48,-61.381
-94.224,-92.171,-64.147,-79.264,5.525,14.953,0.491,-53.393
-27.089,-25.861,-0.429,-37.465,4.709,13.674,18.816,4.594
80.928,87.343,108.202,49.591,2.031,11.432,51.85,113.045
222.058,234.585,248.123,197.191,-1.779,8.938,95.001,259.203
306.463,326.134,331.744,327.918,-2.686,9.002,119.517,352.296
287.866,315.545,318.74,353.053,1.074,12.311,112.005,345.494
216.522,247.5,256.402,309.56,9.003,18.488,85.953,281.942
114.693,142.577,159.586,231.864,20.219,28.039,46.176,180.293
-1.841,21.513,42.757,109.506,32.284,39.6,-0.331,61.457
-66.541,-46.2,-23.822,0.679,41.162,48.626,-28.79,-3.895
-50.979,-31.946,-9.336,-18.064,45.643,53.218,-29.325,11.946
7.23,27.974,47.92,31.3,48.151,55.995,-15.914,69.983
93.881,118.71,131.934,101.576,49.097,57.329,6.441,154.422
209.526,237.65,243.264,206.378,48.908,57.206,37.865,265.598
292.021,321.769,322.876,314.399,50.534,58.339,58.813,344.935
296.694,328.56,329.018,356.061,55.734,62.456,55.52,350.814
251.519,288.206,288.451,339.356,64.571,70.308,34.735,309.989
165.303,208.61,206.627,278.627,75.961,81.721,-1.456,228.429
52.738,99.386,97.26,165.609,87.615,93.888,-45.87,119.206
-11.966,30.954,34.553,63.57,96.246,102.625,-73.135,55.995
8.114,44.519,52.987,56.97,101.097,107.945,-73.364,75.631
41.809,76.429,80.446,112.198,106.717,115.143,-72.328,107.421
-0.859,37.402,32.523,105.91,116.568,126.493,-97.051,63.336
-97.735,-55.391,-63.365,7.626,128.325,138.382,-137.079,-33.434
-151.399,-107.518,-113.116,-82.408,137.533,146.601,-161.437,-88.384
-119.423,-74.296,-78.625,-87.225,143.341,151.122,-158.253,-59.787
-6.999,42.504,36.196,-15.949,146.599,153.112,-128.875,51.136
189.812,245.41,235.42,137.998,145.052,150.203,-69.924,248.499
413.844,473.869,459.129,376.777,140.749,144.761,-1.511,471.264
536.647,599.426,577.797,570.286,141.48,145.422,30.932,588.81
534.185,598.293,568.884,610.693,148.922,154.068,19.793,578.208
489.966,552.58,519.558,570.718,158.18,164.995,-4.512,528.228
423.317,482.839,451.654,515.878,166.746,174.647,-33.299,462.007
334.101,392.132,362.837,429.06,175.75,183.683,-68.344,375.25
287.395,345.946,315.397,349.56,184.301,191.748,-90.782,328.011
310.365,369.943,337.377,347.658,190.641,197.888,-91.216,348.945
328.577,388.847,355.629,388.77,196.826,204.147,-92.983,366.403
269.865,330.529,297.568,366.2,204.919,212.16,-118.557,308.091
176.42,238.318,205.492,270.048,214.208,220.976,-154.592,215.98
137.685,201.034,168.642,197.468,222.689,228.487,-173.71,179.55
157.01,219.931,189.215,200.487,228.799,233.602,-174.427,201.315
163.112,225.217,196.1,226.256,233.08,237.768,-177.868,209.418
116.825,179.325,149.615,203.092,237.264,242.748,-196.654,163.514
60.556,122.775,90.231,140.613,243.012,249.416,-220.535,104.963
42.839,103.885,68.307,98.953,249.356,256.369,-234.196,84.872
56.385,117.262,80.679,92.913,253.555,260.852,-235.652,98.944
109.049,171.284,134.852,111.884,254.457,261.708,-221.096,153.881
256.288,321.586,282.972,209.219,251.055,257.976,-174.525,303.157
470.653,541.264,497.482,424.998,245.503,251.969,-106.898,520.258
599.345,676.129,627.839,624.052,243.801,249.722,-68.107,653.23
578.616,659.062,609.228,656.966,248.048,253.109,-78.217,634.856
508.715,588.992,538.634,587.329,255.55,259.458,-106.088,561.881
454.775,533.244,481.42,526.884,263.324,266.516,-130.709,502.26
403.748,480.66,426.931,473.769,269.497,273.016,-153.71,447.119
366.061,441.289,386.918,417.556,272.244,276.643,-169.03,406.221
359.605,431.82,380.532,395.233,272.121,276.85,-171.152,396.227
354.872,422.998,378.909,405.671,273.355,277.375,-173,390.68
306.913,372.916,335.254,385.579,277.368,280.737,-189.994,348.102
231.872,299.113,261.948,313.45,281.667,285.819,-216.207,281.096
186.33,255.211,213.585,244.878,284.254,289.866,-233.641,238.389
184.398,253.898,206.818,226.512,285.12,291.37,-237.393,232.576
187.78,257.956,206.57,236.626,286.428,292.547,-239.73,229.888
154.382,223.784,170.786,214.163,289.55,295.312,-253.726,190.559
93.085,159.152,108.001,147.222,293.36,298.466,-275.672,123.625
48.748,112.386,64.373,87.725,296.003,300.199,-290.915,76.388
44.137,108.7,62.155,70.022,297.232,300.944,-293.054,74.357
96.994,163.225,116.349,91.549,296.969,300.974,-277.495,133.182
241.951,308.817,262.302,183.38,291.768,295.887,-230.566,282.918
443.554,512.621,468.004,378.592,281.941,285.114,-162.027,487.703
566.336,639.564,594.533,569.151,275.677,277.708,-119.978,612.634
555.988,631.016,578.929,613.967,277.241,279.48,-126.468,599.689
498.806,572.896,511.338,556.033,281.565,285.397,-150.583,537.369
439.038,514.349,450.471,495.266,283.288,288.514,-170.218,480.19
362.678,442.087,381.632,431.657,283.24,288.617,-190.158,412.657
304.104,387.018,326.169,362.509,283.343,288.287,-206.197,357.917
297.436,382.116,317.658,334.399,282.989,287.835,-208.467,350.91
303.04,387.296,323.44,347.626,282.542,287.663,-206.778,358.78
258.115,338.087,278.955,328.104,282.762,288.185,-220.227,315.503
174.379,247.554,192.013,246.039,283.149,288.703,-245.973,227.872
118.996,188.129,133.188,166.081,282.71,288.224,-262.762,167.44
112.588,183.222,127.253,143.629,281.433,286.664,-263.514,160.218
110.638,183.848,127.016,150.035,280.801,285.114,-263.22,158.536
69.37,140.188,84.527,120.763,280.596,283.193,-275.335,113.673
5.698,70.862,18.605,52.167,279.542,280.458,-293.39,45.636
-34.73,28.226,-20.329,-2.696,277.876,278.204,-303.36,7.075
-36.422,28.952,-17.145,-21.021,275.832,276.463,-300.866,12.141
25.261,93.871,47.291,-3.907,270.635,271.739,-277.515,76.187
202.222,274.859,222.51,108.052,257.494,259.448,-214.636,248.902
451.348,530.669,468.952,358.861,239.938,243.237,-126.988,495.179
604.4,688.588,621.427,600.218,228.99,233.254,-72.507,651.25
589.206,670.411,607.799,653.465,226.963,231.082,-74.307,641.878
508.628,581.491,529.394,575.721,227.125,230.26,-96.906,566.467
433.681,500.502,453.659,494.644,226.121,228.226,-117.539,493.268
354.62,420.407,369.824,413.839,225.744,227.247,-141.11,411.226
293.299,359.252,304.265,328.144,225.508,226.814,-159.902,345.526
278.225,342.492,288.274,288.24,222.615,223.87,-162.129,328.063
273.081,334.621,283.297,295.369,218.645,219.645,-160.04,320.964
219.831,277.423,229.613,271.926,217.13,217.528,-174.303,263.436
131.777,183.76,141.557,184.505,217.81,217.584,-200.755,169.587
71.516,120.415,82.794,96.025,217.06,216.608,-217.257,105.701
54.04,106.519,67.816,60.634,212.603,212.372,-217.097,89.22
59.815,120.108,75.736,60.316,205.956,206.297,-208.065,99.453
110.909,177.365,127.471,85.217,197.435,198.638,-184.766,155.204
226.319,293.517,241.246,179.619,186.492,188.382,-141.213,272.488
327.29,390.255,338.678,310.183,176.565,178.429,-103.261,371.854
333.582,391.752,341.323,360.875,171.268,172.645,-97.39,374.847
280.348,337.16,285.556,322.761,170.081,171.003,-112.662,317.821
212.412,269.845,215.939,259.206,170.36,170.756,-133.348,244.889
124.492,180.103,127.193,171.812,170.207,169.777,-159.023,151.147
42.86,93.82,46.214,68.497,167.779,166.391,-180.045,65.183
13.982,61.027,18.554,14.181,162.461,160.334,-182.642,34.055
18.915,63.999,23.717,25.511,157.694,155.113,-176.536,37.213
-17.318,26.027,-12.675,17.301,156.027,153.064,-185.926,-0.894
-112.639,-71.414,-107.669,-70.654,155.14,152.078,-212.993,-97.307
-199.727,-160.24,-194.42,-180.204,151.676,149.336,-234.882,-183.478
-220.87,-182.103,-215.388,-231.082,145.351,144.341,-235.049,-201.738
-152.409,-113.406,-147.546,-205.973,136.884,136.85,-207.502,-131.169
23.988,63.735,26.325,-86,123.737,123.819,-144.141,44.48
250.563,292.055,250.021,141,107.23,106.805,-62.507,269.304
378.71,422.597,377.673,346.26,95.967,94.6,-13.894,396.794
357.523,401.586,357.528,384.826,92.689,90.07,-16.295,374.863
279.266,320.179,279.864,312.074,91.497,87.726,-37.711,294.973
185.051,222.572,187.237,225.06,89.323,84.995,-62.622,201.096
60.645,97.279,66.304,111.869,87.732,83.813,-96.218,81.239
-38.476,-1.605,-31.01,-10.384,85.331,82.499,-121.989,-12.654
-58.771,-24.042,-54.24,-62.602,79.639,77.521,-123.026,-32.861
-56.305,-26.693,-57.448,-50.496,73.734,71.569,-118.286,-35.432
-121.138,-96.315,-126.352,-81.093,71.598,69.203,-136.357,-104.884
-236.335,-214.154,-242.175,-194.765,72.715,69.783,-170.759,-221.882
-309.338,-289.112,-314.077,-305.562,73.083,68.896,-191.303,-296.797
-307.041,-288.171,-312.066,-344.477,68.438,63.345,-185.829,-298.509
-231.901,-211.721,-239.811,-318.022,57.538,52.811,-154.282,-227.696
-50.167,-25.13,-61.32,-195.096,40.971,36.744,-86.059,-47.918
195.162,226.21,182.25,53.6,22.447,17.994,3.36,198.016
334.41,367.786,319.882,277.067,8.359,3.978,57.373,338.39
295.353,326.27,279.311,306.45,0.233,-3.266,53.422,300.712
179.106,206.922,163.918,206.995,-4.56,-7.458,24.609,187.373
50.434,75.969,37.989,92.416,-7.293,-10.31,-9.072,62.569
-90.99,-69.056,-101.297,-44.388,-8.997,-11.992,-47.617,-75.48
-196.563,-179.084,-206.045,-185.656,-13.377,-16.147,-73.45,-180.12
-227.014,-212.41,-237.009,-259.386,-23.178,-26.382,-72.519,-214.611
-202.456,-189.164,-214.247,-261.665,-35.38,-39.639,-53.677,-197.258
-118.728,-107.749,-132.79,-212.283,-47.153,-52.164,-18.219,-118.815
27.371,34.303,10.495,-83.519,-59.514,-64.496,35.613,24.097
135.871,139.885,115.936,65.402,-72.27,-77.032,78.777,128.868
118.573,121.843,97.311,103.858,-83.177,-88.412,84.505,108.417
16.514,17.398,-4.366,33.657,-89.521,-95.862,62.015,5.476
-124.401,-130.679,-146.001,-85.074,-90.226,-97.498,22.237,-135.813
-290.233,-306.28,-315.381,-256.346,-89.187,-96.798,-27.801,-304.51
-416.014,-439.743,-445.796,-435.561,-93.473,-101.215,-61.648,-435.445
-442.972,-470.1,-474.999,-524.063,-104.732,-113.138,-59.056,-466.042
-367.137,-394.545,-398.448,-494.946,-118.447,-128.065,-22.85,-391.285
-195.524,-222.873,-227.158,-363.047,-134.575,-145.071,43.276,-222.831
6.344,-23.098,-29.179,-154.061,-154.216,-165.092,120.248,-28.563
100.726,67.626,62.129,6.059,-171.467,-183.064,163.856,59.442
51.702,16.174,15.18,13.376,-182.005,-194.529,160.861,10.367
-57.269,-93.689,-90.036,-65.083,-186.924,-199.421,135.258,-95.516
-210.549,-248.873,-242.758,-183.489,-187.597,-199.067,91.729,-246.877
-412.173,-454.295,-445.276,-381.932,-186.634,-197.346,32.694,-446.254
-557.253,-602.051,-588.51,-584.175,-189.017,-200.045,-5.518,-586.9
-560.889,-603.713,-588.303,-651.27,-196.822,-208.566,3.003,-585.959
-450.229,-486.532,-475.024,-578.917,-207.851,-219.352,47.146,-470.855
-269.205,-298.163,-292.208,-422.741,-222.048,-232.129,114.144,-283.223
-74.18,-99.674,-94.554,-207.483,-238.312,-247.236,186.891,-82.122
30.704,3.493,12.527,-33.768,-250.141,-259.131,228.884,23.379
10.195,-19.522,-7.519,-0.247,-254.729,-264.206,227.57,-0.122
-86.895,-116.053,-104.539,-63.25,-254.615,-264.478,199.947,-100.101
-255.675,-283.279,-272.019,-193.019,-250.804,-261.587,148.233,-272.962
-466.744,-494.676,-481.036,-407.844,-244.716,-256.644,81.897,-489.891
-589.832,-619.435,-603.872,-600.744,-242.098,-254.302,43.583,-618.957
-564.689,-595.773,-581.889,-642.881,-246.843,-258.882,54.176,-600.969
-461.622,-492.61,-482.872,-573.869,-256.382,-268.919,91.885,-505.086
-318.431,-347.058,-341.217,-462.157,-268.892,-282.03,145.358,-362.48
-137.634,-163.023,-160.106,-281.072,-283.194,-295.512,212.3,-173.21
-6.761,-29.546,-28.921,-88.172,-294.282,-304.194,261.382,-29.631
-6.815,-27.448,-27.661,-18.323,-299.647,-307.233,267.021,-17.464
-119.155,-137.77,-136.57,-79.198,-300.448,-307.167,236.429,-120.277
-316.692,-334.223,-329.832,-231.603,-296.733,-303.604,177.107,-311.947
-543.5,-562.059,-553.245,-462.398,-289.635,-296.749,105.691,-535.673
-672.962,-694.245,-681.264,-662.876,-285.19,-292.444,64.49,-663.409
-657.964,-681.243,-667.372,-715.891,-289.072,-296.37,72.596,-648.703
-559.099,-581.687,-570.74,-652.735,-299.418,-306.772,111.033,-553.275
-395.878,-415.357,-408.018,-523.275,-311.818,-319.667,170.712,-394.62
-183.002,-198.829,-193.422,-309.539,-323.174,-331.894,244.508,-183.43
-38.192,-51.338,-46.091,-99.934,-330.572,-339.598,295.055,-34.468
-46.599,-58.361,-51.624,-37.143,-334.507,-342.719,298.052,-33.286
-166.527,-178.895,-169.083,-106.741,-335.166,-342.422,265.308,-144.043
-356.774,-372.344,-358.276,-255.388,-328.952,-336.545,204.708,-332.048
-572.575,-591.934,-573.861,-480.508,-317.529,-326.57,131.212,-551.738
-700.819,-721.255,-702.676,-684.607,-311.347,-321.15,87.989,-684.478
-684.621,-702.772,-689.057,-739.765,-315.96,-324.742,96.293,-671.306
-564.48,-578.801,-572.832,-656.812,-324.851,-331.789,138.131,-553.647
-367.845,-377.429,-378.844,-489.381,-333.306,-338.943,202.159,-358.331
-144.203,-147.78,-154.998,-254.893,-342.855,-347.78,276.208,-134.23
-18.053,-16.545,-26.38,-60.632,-351.693,-356.166,322.255,-7.023
-39.108,-36.576,-45.126,-18.604,-355.708,-360.293,321.313,-27.319
-146.712,-146.142,-152.74,-83.541,-352.319,-357.504,287.526,-134.699
-322.215,-323.396,-329.771,-216.843,-341.65,-347.053,225.984,-310.79
-538.734,-541.569,-547.175,-440.098,-329.111,-334.238,150.329,-529.319
-669.55,-674.826,-677.97,-647.712,-322.321,-327.909,105.544,-664.679
-647.54,-654.44,-655.948,-695.883,-322.822,-329.991,112.759,-648.648
-531.829,-538.232,-540.503,-610.015,-326.098,-334.327,149.785,-536.315
-361.124,-364.554,-370.227,-466.763,-331.668,-339.208,204.584,-364.9
-157.283,-155.302,-167.286,-263.676,-340.484,-346.582,272.185,-159.566
-17.768,-10.473,-29.743,-66.121,-346.661,-351.881,318.647,-20.794
-7.39,1.735,-21.599,9.57,-345.173,-349.967,319.364,-12.372
-95.834,-88.039,-109.619,-31.269,-336.931,-341.497,281.503,-100.915
-270.423,-264.481,-280.273,-163.383,-324.114,-329.162,210.303,-273.72
-489.415,-485.623,-496.189,-389.791,-309.878,-316.056,129.739,-492.991
-615.07,-614.019,-622.912,-590.18,-299.514,-306.46,91.575,-621.544
-586.211,-586.035,-595.819,-624.82,-295.42,-302.035,98.658,-592.676
-477.239,-474.565,-485.847,-534.681,-294.874,-300.137,104.799,-478.461
-327.608,-321.202,-334.848,-406.716,-297.08,-300.841,119.955,-323.797
-136.283,-127.362,-144.124,-223.476,-301.009,-304.456,190.007,-133.026
14.309,24.094,5.617,-25.818,-300.627,-305.115,275.011,12.379
43.535,52.951,35.233,64.216,-294.256,-299.541,294.511,36.487
-35.321,-27.165,-42.585,30.712,-285.163,-290.213,232.85,-44.59
-203.272,-196.23,-209.608,-97.194,-272.909,-277.862,118.074,-213.002
-411.736,-404.171,-417.688,-309.519,-257.27,-262.668,19.286,-421.395
-533.036,-523.815,-539.108,-497.691,-244.209,-249.567,10.955,-540.699
-512.338,-502.933,-519.049,-541.06,-238.494,-243.34,46.125,-517.264
-410.579,-403.763,-419.203,-470.511,-237.607,-242.251,25.287,-416.614
-254.491,-251.274,-265.371,-345.659,-239.577,-244.069,-0.939,-264.727
-51.809,-50.247,-63.104,-147.089,-243.524,-247.703,84.879,-64.555
98.375,100.988,87.28,57.889,-244.288,-248.588,222.253,84.036
113.653,117.867,101.553,132.144,-239.135,-244.043,257.862,96.131
22.693,27.572,10.988,78.357,-229.511,-235.279,165.331,3.302
-141.794,-136.662,-150.533,-49.133,-215.954,-222.738,8.257,-159.648
-337.588,-332.917,-345.01,-244.426,-200.326,-207.46,-113.057,-353.447
-454.625,-451.639,-464.364,-423.754,-188.496,-194.752,-106.369,-470.25
-442.964,-441.642,-455.495,-475.148,-184.63,-189.857,-47.459,-460.685
-355.052,-353.756,-367.723,-416.689,-185.975,-191.195,-82.708,-376.645
-210.684,-206.572,-219.692,-300.111,-189.501,-195.368,-137.212,-232.949
-14.094,-4.681,-17.728,-106.475,-194.232,-200.26,-32.33,-30.735
134.068,147.766,133.041,97.931,-195.98,-201.384,154.905,123.995
146.202,159.651,144.449,172.783,-191.351,-196.114,207.198,138.778
55.915,65.315,53.217,120.105,-180.97,-185.478,95.014,49.613
-98.412,-93.394,-102.242,-0.146,-166.611,-170.734,-87.594,-103.475
-285.925,-283.565,-293.316,-187.619,-150.802,-154.233,-239.255,-293.176
-407.138,-405.193,-418.233,-368.614,-137.813,-140.762,-263.267,-419.096
-403.99,-400.081,-414.669,-424.571,-130.754,-133.477,-213.892,-416.154
-316.945,-309.705,-325.388,-362.843,-127.976,-130.208,-230.493,-324.582
-169.215,-158.604,-177.174,-243.954,-128.138,-129.757,-249.72,-172.8
22.278,35.596,16.187,-61.51,-130.835,-132.474,-118.939,22.528
157.209,172.081,156.038,127.781,-131.44,-133.7,67.22,161.768
163.793,179.567,165.611,199.233,-126.601,-129.158,108.538,169.494
86.027,102.379,85.463,155.768,-117.248,-119.421,-1.665,88.348
-50.136,-34.905,-56.155,47.183,-104.392,-106.141,-181.038,-53.416
-237.717,-225.041,-248.085,-139.491,-89.496,-91.297,-370.176,-246.218
-376.552,-364.608,-387.523,-332.638,-76.311,-78.498,-478.605,-387.507
-380.288,-366.291,-388.257,-398.794,-67.861,-70.549,-474.917,-390.407
-275.721,-260.28,-280.694,-332.091,-64.044,-66.927,-418.74,-284.465
-103.589,-89.152,-109.21,-194.545,-65.806,-67.883,-312.832,-111.869
99.706,113.234,91.161,8.044,-71.59,-72.224,-136.481,93.432
236.243,250.204,226.044,207.577,-72.95,-72.94,7.785,233.877
248.198,261.278,238.004,281.518,-65.667,-66.357,17.297,247.237
180.752,190.944,170.437,241.435,-53.324,-55.122,-71.112,175.639
49.029,58.472,37.986,137.741,-39.014,-41.18,-215.078,37.645
-140.146,-126.986,-150.774,-43.812,-23.847,-25.568,-406.105,-153.79
-274.686,-257.705,-282.955,-228.819,-10.24,-11.853,-560.505,-287.076
-269.67,-252.998,-275.748,-287.083,-0.998,-3.69,-592.483,-283.685
-171.882,-157.37,-177.878,-225.472,3.814,-0.307,-511.764,-191.63
-23.852,-10.514,-32.142,-111.131,4.019,-0.286,-356.274,-48.367
169.432,180.941,157.851,71.235,1.086,-2.065,-176.565,144.465
323.975,332.529,311.396,277.598,1.756,-0.299,-71.804,303.367
351.023,358.372,340.906,370.537,8.593,6.996,-75.066,339.324
275.469,283.351,268.61,334.638,18.325,16.963,-119.459,274.503
135.966,143.032,131.767,230.149,31.232,29.697,-208.732,142.667
-40.864,-35.73,-42,61.909,48.613,46.304,-387.55,-32.358
-160.748,-155.609,-158.767,-108.028,64.906,62.087,-568.996,-154.254
-162.643,-155.543,-158.526,-168.486,73.411,70.895,-623.349,-157.492
-91.429,-83.672,-85.757,-122.625,76.072,73.926,-536.657,-85.018
27.235,33.055,33.606,-30.395,77.05,74.843,-370.319,35.49
202.861,207.026,208.225,127.937,77.165,75.103,-203.011,211.411
354.892,360.415,359.799,321.872,79.281,77.871,-124.404,363.582
386.918,395.021,394.713,417.919,85.874,84.994,-136.41,398.231
324.041,332.117,336.403,394.327,96.596,95.646,-155.352,339.353
210.158,215.827,225.603,312.666,111.571,110.019,-202.09,227.177
57.005,61.664,73.5,169.743,129.561,127.397,-357.413,72.366
-58.474,-52.919,-42.804,8.059,145.278,143.056,-543.984,-47.225
-62.692,-57.237,-50.2,-55.408,154.521,152.517,-602.904,-57.418
12.278,16.754,20.497,-2.949,160.207,158.176,-506.212,11.989
121.621,126.947,127.694,88.432,165.489,163.344,-343.945,119.314
270.965,278.449,277.858,216.04,169.076,166.907,-202.406,269.654
415.509,423.03,422.352,383.219,172.6,170.399,-133.108,414.186
473.562,478.039,476.531,490.338,179.936,177.782,-124.492,468.622
447.879,449.086,446.115,497.112,192.027,190.136,-115.973,437.283
364.275,364.375,361.261,441.716,208.078,206.331,-139.633,349.244
224.653,225.437,223.731,315.154,225.953,223.633,-278.765,208.437
101.317,103.867,102.587,154.432,240.984,237.625,-459.472,87.613
84.224,88.218,84.681,82.374,250.286,246.482,-514.472,73.833
156.471,159.158,152.687,132.345,257.477,254.218,-414.581,145.842
252.485,252.986,245.769,216.423,264.908,262.524,-270.696,240.392
362.352,363.795,358.164,310.097,269.622,267.7,-167.334,352.871
475.884,478.804,474.939,440.323,272.983,271.048,-115.037,469.406
541.608,542.017,538.974,545.75,280.574,278.71,-86.115,532.928
543.382,539.699,538.304,576.307,293.309,291.858,-48.296,532.074
480.817,475.041,477.221,541.926,307.267,306.085,-53.02,471.221
353.826,346.426,351.673,431.594,320.627,319.089,-176.561,344.726
240.478,230.746,236.582,287.243,334.34,331.864,-338.734,225.867
230.071,219.469,224.492,225.862,346.823,343.228,-380.211,207.99
285.413,275.819,279.625,276.948,356.559,352.245,-299.423,258.829
281.83,272.985,275.353,316.854,365.575,361.247,-260.439,254.345
182.06,173.432,175.601,243.987,376.58,372.591,-356.766,157.29
86.155,78.53,82.884,124.932,389.638,385.775,-486.721,67.617
77.508,71.737,78.989,76.8,400.987,397.184,-515.52,66.042
145.668,141.448,150.147,112.484,407.038,403.796,-426.093,138.469
282.16,278.008,286.659,203.517,406.401,403.934,-262.761,274.774
490.016,484.695,491.889,385.572,401.047,398.962,-70.183,479.447
677.271,671.03,675.523,623.364,398.422,396.576,73.936,663.769
732.408,726.246,729.191,750.383,403.447,402.12,119.213,718.356
688.566,682.947,687.1,727.812,413.049,412.185,115.518,676.152
623.055,616.98,623.48,665.905,422.793,421.591,88.146,612.188
539.116,530.606,538.977,594.925,432.199,430.003,-1.245,527.332
459.283,448.048,457.81,502.426,441.937,439.391,-108.284,445.584
437.108,425.285,435.952,444.326,450.017,448.156,-133.06,424.579
457.453,446.448,457.169,457.226,455.768,454.227,-83.493,448.98
444.003,432.49,442.856,473.67,462.118,459.447,-71.636,437.171
372.155,358.034,368.906,419.423,470.873,466.407,-147.369,361.956
303.327,286.891,298.94,327.638,479.713,474.485,-234.199,288.794
285.635,270.036,281.645,276.621,485.103,480.652,-255.102,270.012
314.937,302.748,311.427,285.083,487.817,484.404,-210.137,299.712
400.13,390.623,396.045,338.46,488.8,485.701,-114.091,383.268
556.136,547.089,550.738,465.706,485.532,482.714,29.059,536.693
709.183,699.749,702.831,648.475,480.311,478.445,161.08,689.601
750.359,740.786,744.207,750.791,479.753,478.73,207.568,732.417
701.754,691.483,696.046,726.202,485.489,484.319,189.474,683.257
644.839,633.367,638.818,669.303,493.618,491.858,150.624,624.488
576.433,565.41,570.919,610.338,500.504,498.772,77.404,559.094
489.471,480.34,486.096,520.748,504.877,503.852,-11.63,479.92
436.707,427.406,434.67,441.853,506.416,505.972,-49.925,432.229
442.301,430.143,439.451,435.083,507.316,506.948,-24.862,437.941
446.695,433.073,442.75,462.055,510.433,510.265,-7.767,442.151
391.151,379.519,387.43,431.228,515.258,515.756,-55.685,387.268
309.885,299.699,306.835,341.832,520.101,520.726,-131.65,304.087
272.173,259.663,269.955,275.875,524.194,523.643,-166.419,262.901
298.32,283.013,298.641,276.194,527.155,525.335,-136.256,289.819
385.387,370.112,389.064,327.543,526.109,524.371,-45.306,382.229
532.896,518.896,538.081,445.003,518.013,516.987,98.172,533.134
678.407,665.014,683.869,619.152,507.911,506.781,236.447,677.149
725.801,712.513,732.725,729.266,503.813,502.067,293.381,722.514
688.913,676.003,698.565,719.233,505.523,503.769,283.413,686.999
636.191,624.558,648.427,667.086,507.546,506.225,247.82,636.93
564.635,554.321,578.531,604.24,508.271,506.811,172.045,564.808
476.905,466.11,490.799,512.301,509.428,507.055,77.699,472.668
428.765,416.651,440.584,434.847,509.958,506.793,37.907,420.357
432.934,421.774,441.987,423.592,508.062,505.054,58.726,423.733
420.356,412.022,427.46,432.381,504.567,502.677,55.687,412.054
341.793,335.237,347.211,379.581,501.061,501.012,-17.649,334.376
245.006,239.665,248.551,278.922,497.961,500.215,-102.617,241.017
193.947,190.996,197.547,204.857,494.13,497.99,-139.489,197.364
200.852,199.042,207.829,182.447,488.831,492.185,-127.076,210.515
279.806,275.209,290.724,210.362,480.173,481.458,-51.695,289.366
446.77,438.168,458.81,338.071,465.91,465.721,112.514,452.794
616.707,606.654,626.919,546.186,450.317,450.304,288.519,620.909
658.924,649.103,666.153,662.912,439.579,440.605,344.939,662.123
586.775,576.307,591.307,617.42,433.166,435.16,287.049,586.976
495.525,483.886,497.925,523.171,427.848,430.593,203.312,491.824
401.692,389.832,402.42,438.011,423.903,427.07,114.091,396.421
303.826,291.998,304.709,336.208,421.681,424.587,25.444,301.089
239.258,227.259,244.042,243.398,417.058,419.133,-24.981,241.666
222.922,212.217,233.376,205.301,407.703,409.066,-29.331,229.222
247.214,238.466,259.393,211.626,395.93,397.139,-1.756,253.088
326.808,317.448,335.321,263.353,383.02,384.2,75.637,327.879
436.903,425.076,441.512,372.684,370.025,370.742,186.027,431.679
483.653,471.224,486.554,457.158,359.121,359.399,237.552,473.66
441.647,431.048,441.402,446.152,350.977,351.615,201.193,428.83
364.494,354.969,358.816,382.263,345.054,346.248,131.428,350.038
266.208,254.894,257.547,294.653,341.305,342.031,49.096,251.07
153.884,140.46,147.185,173.761,338.521,338.085,-43.438,138.563
77.99,65.395,74.813,64.824,332.78,331.654,-111.809,62.025
76.949,66.482,74.753,30.515,322.625,321.362,-119.472,59.38
153.004,142.94,149.471,74.251,310.137,308.977,-47.778,134.066
289.076,278.575,284.626,187.862,296.039,295.569,97.354,271.448
413.349,403.017,409.131,338.241,281.533,282.227,238.051,400.564
435.393,424.638,431.235,414.317,269.674,271.057,274.734,428.819
375.495,363.385,370.958,382.338,261.964,263.299,225.82,373.949
297.247,284.768,293.625,320.014,257.537,258.675,158.815,299.521
186.847,174.999,186.083,232.386,255.012,256.034,66.022,191.828
53.775,41.025,55.261,91.056,252.233,252.918,-48.425,57.726
-22.662,-37.476,-20.958,-30.792,245.54,245.481,-119.34,-23.768
-8.239,-22.608,-5.845,-53.77,234.596,233.693,-110.645,-13.242
66.942,55.957,71.352,-2.448,221.628,220.375,-35.979,61.887
179.577,171.346,183.869,91.905,206.066,205.116,85.51,174.117
287.893,279.721,288.146,218.676,189.282,189.025,200.334,278.789
323.31,313.359,319.044,299.699,176.245,177.026,237.513,311.235
287.773,275.802,283.123,293.616,168.974,170.846,209.435,277.701
212.384,198.82,211.81,241.55,165.114,167.274,150.945,207.289
82.166,67.048,85.96,135.916,161.786,163.209,42.584,80.083
-65.034,-81.312,-59.887,-24.662,157.333,157.805,-87.026,-66.75
-134.802,-151.152,-130.794,-143.4,149.926,149.958,-154.745,-136.239
-111.884,-127.897,-109.607,-156.119,139.1,139.351,-141.505,-112.811
-48.379,-63.473,-46.65,-113.823,125.342,126.298,-78.641,-49.084
46.178,34.221,49.802,-38.405,108.637,110.03,32.113,46.285
158.745,151.08,165.176,90.966,92.485,93.285,161.203,159.551
211.578,205.539,218.43,191.538,80.864,80.655,221.572,211.246
171.569,163.215,177.035,184.021,72.435,71.76,188.39,169.415
66.488,54.465,72.569,102.133,65.041,64.025,94.036,63.983
-90.641,-105.075,-82.399,-32.385,59.576,57.856,-48.184,-92.855
-248.467,-264.124,-240.731,-206.774,55.437,53.316,-191.571,-251.991
-322.86,-340.244,-318.798,-336.371,48.098,46.324,-266.365,-329.72
-297.613,-316.891,-297.079,-358.306,35.535,34.353,-256.68,-307.877
-200.004,-218.813,-201.244,-295.079,19.201,18.505,-166.771,-211.42
-44.303,-60.324,-46.305,-157.26,0.847,0.479,0.546,-55.09
102.306,88.344,100.709,24.495,-14.273,-14.851,162.701,91.841
139.341,124.962,139.997,121.38,-22.516,-23.916,207.877,128.828
75.14,58.594,78.518,88.481,-27.433,-29.405,150.187,65.209
-31.063,-50.067,-26.377,7.109,-31.433,-32.996,56.39,-39.46
-178.896,-199.94,-174.513,-113.088,-32.605,-33,-70.763,-184.133
-331.983,-354.637,-329.363,-284.969,-32.452,-31.538,-204.355,-332.2
-402.577,-425.57,-402.363,-415.871,-36.71,-34.923,-272.161,-397.884
-367.069,-387.744,-367.36,-426.666,-46.526,-44.636,-247.431,-359.722
-250.354,-266.329,-247.977,-339.529,-58.987,-57.52,-135.448,-241.56
-74.838,-86.427,-68.968,-176.731,-73.172,-72.168,47.632,-64.09
79.934,69.542,87.089,16.016,-86.719,-86.106,210.891,91.117
119.975,108.055,126.487,113.466,-96.305,-96.14,255.781,127.731
68.451,54.92,75.076,91.02,-101.344,-102.027,209.864,70.354
-23.099,-37.854,-14.692,25.794,-101.664,-103.882,125.301,-26.984
-170.807,-187.132,-161.108,-97.346,-98.628,-102.096,-12.328,-178.629
-331.148,-348.802,-323.14,-286.237,-97.576,-100.619,-160.322,-339.89
-397.232,-415.714,-393.623,-415.635,-102.742,-104.249,-221.405,-404.542
-358.566,-377.91,-359.253,-407.586,-111.488,-111.957,-186.33,-363.182
-280.146,-299.547,-282.678,-339.546,-120.489,-120.692,-108.033,-281.017
-173.433,-190.405,-174.597,-255.692,-131.426,-131.612,6.028,-170.585
-48.322,-61.046,-45.063,-123.049,-143.463,-143.94,137.929,-43.381
20.885,10.931,28.839,-2.082,-152.252,-153.231,210.949,26.015
3.969,-6.804,11.746,28.078,-156.622,-157.412,198.058,7.205
-80.677,-94.743,-78.814,-25.175,-157.488,-157.287,117.814,-82.16
-234.939,-252.576,-238.854,-163.285,-155.738,-154.928,-29.479,-241.413
-398.515,-418.171,-403.522,-355.623,-154.49,-153.862,-182.314,-405.217
-462.799,-481.492,-466.161,-476.343,-157.685,-157.21,-238.724,-465.37
-418.987,-434.759,-421.624,-463.784,-164.152,-163.384,-193.652,-418.068
-329.073,-343.885,-333.244,-392.718,-171.322,-170.135,-104.166,-326.881
-203.087,-220.459,-210.209,-294.282,-181.048,-179.813,21.57,-200.855
-59.234,-78.917,-68.251,-141.524,-192.013,-191.573,162.222,-59.489
17.329,-0.998,8.574,-14.783,-198.597,-199.516,235.561,10.98
-5.055,-20.224,-13.643,4.224,-199.967,-201.554,215.666,-17.956
-98.075,-112.09,-108.13,-57.428,-198.895,-200.002,129.766,-114.11
-251.439,-266.52,-262.25,-185.876,-196.073,-196.627,-14.936,-267.168
-403.848,-419.465,-412.771,-358.243,-192.81,-193.285,-158.214,-417.779
-457.614,-473.008,-464.46,-467.057,-193.484,-193.736,-204.562,-469.453
-413.429,-430.096,-420.724,-456.161,-198.854,-198.686,-156.718,-423.122
-332.293,-351.309,-341.231,-391.59,-205.665,-205.396,-75.645,-339.126
-213.823,-233.797,-223.267,-296.773,-213.786,-213.508,39.664,-217.084
-66.657,-85.587,-75.35,-141.174,-222.769,-222.179,183.036,-67.894
18.751,1.909,11.451,-6.739,-229.174,-228.294,269.56,16.179
-0.329,-15.347,-5.963,16.392,-231.702,-230.901,257.342,-6.507
-91.359,-106.083,-95.908,-44.236,-230.63,-230.097,173.302,-101.569
-236.418,-252.07,-240.653,-165.585,-225.417,-225.024,34.785,-248.867
-383.522,-399.992,-387.041,-330.218,-218.575,-218.073,-102.237,-393.807
-445.976,-463.26,-448.038,-445.015,-216.664,-215.904,-152.593,-450.523
-417.03,-434.804,-417.147,-448.445,-221.298,-220.106,-113.629,-414.564
-344.841,-359.868,-341.129,-387.725,-228.077,-225.998,-34.467,-332.841
-229.3,-237.916,-220.853,-286.645,-235.365,-232.128,81.953,-207.479
-86.612,-90.072,-77.877,-132.529,-242.292,-238.447,216.807,-63.355
-8.927,-12,-5.356,-12.338,-245.98,-242.467,287.237,6.559
-30.096,-35.094,-31.533,-0.412,-245.704,-243.053,269.087,-23.136
-106.991,-112.165,-110.503,-53.004,-242.092,-240.223,198.95,-106.852
-228.156,-231.388,-233.111,-152.988,-235.602,-233.957,79.463,-235.454
-362.178,-363.689,-369.057,-305.896,-229.307,-227.293,-53.897,-373.98
-429.015,-428.911,-435.921,-426.532,-227.896,-225.378,-113.612,-437.503
-406.819,-402.292,-409.911,-436.44,-230.403,-227.709,-80.278,-407.191
-333.014,-321.154,-331.577,-372.745,-232.467,-229.753,-1.703,-328.204
-219.291,-200.677,-216.769,-273.992,-235.409,-231.954,107.058,-213.458
-94.222,-71.155,-91.928,-136.745,-240.998,-235.858,227.706,-85.39
-39.062,-12.475,-34.347,-32.645,-245.796,-239.062,288.655,-23.435
-69.951,-39.867,-61.841,-23.053,-247.098,-239.475,268.118,-49.382
-143.285,-110.916,-135.079,-69.739,-245.088,-236.795,197.881,-124.156
-261.209,-229.04,-256.593,-165.744,-240.122,-231.135,75.97,-248.466
-400.291,-370.15,-399.309,-319.808,-233.7,-224.523,-65.58,-394.584
-472.666,-444.459,-472.403,-443.44,-229.881,-221.356,-135.88,-471.48
-446.563,-418.535,-443.669,-454.186,-229.842,-222.271,-105.802,-444.973
-362.922,-332.831,-355.237,-388.584,-231.506,-224.4,-19.027,-354.908
-241.029,-207.354,-229.514,-285.165,-236.665,-229.148,103.136,-223.921
-106.531,-69.384,-94.941,-136.059,-245.273,-236.393,236.172,-82.441
-34.641,2.995,-25.324,-11.738,-249.98,-239.495,310.152,-6.226
-44.704,-11.226,-36.48,16.419,-246.764,-235.791,306.796,-12.845
-102.831,-75.489,-93.923,-21.736,-239.959,-229.873,254.628,-68.324
-216.25,-193.299,-206.814,-115.388,-233.87,-224.941,144.492,-180.58
-355.256,-334.262,-346.065,-265.693,-228.601,-220.507,8.368,-320.205
-422.562,-401.876,-413.721,-382.36,-224.509,-217.315,-57.443,-390.609
-391.063,-370.084,-383.084,-388.783,-222.57,-216.481,-29.131,-364.492
-319.584,-299.393,-313.329,-334.479,-222.932,-217.794,35.08,-297.672
-228.577,-209.867,-222.891,-265.516,-226.456,-221.9,119.545,-207.145
-116.695,-97.597,-108.422,-153.088,-231.392,-227.092,229.839,-91.927
-47.581,-26.881,-35.47,-42.055,-233.662,-229.475,303.043,-19.09
-63.087,-43.615,-49.86,-17.789,-233.043,-228.962,293.297,-32.551
-135.832,-121.31,-125.364,-68.297,-231.731,-227.414,222.608,-105.206
-253.449,-243.954,-247.067,-166.736,-229.622,-224.211,103.503,-224.347
-389.111,-381.426,-384.952,-308.986,-226.26,-219.227,-33.312,-361.474
-470.364,-460.909,-465.443,-431.394,-224.439,-216.377,-113.392,-442.538
-467.294,-454.23,-459.277,-467.42,-226.196,-218.255,-106.559,-436.784
-398.723,-382.456,-385.737,-428.406,-230.335,-223.428,-33.269,-362.947
-265.335,-248.345,-246.539,-320.997,-236.502,-231.535,101.442,-225.974
-106.17,-92.646,-84.243,-147.617,-243.046,-240.599,256.224,-71.045
-28.041,-20.633,-8.621,-18.354,-246.325,-245.259,327.654,-3.56
-57.22,-54.294,-44.528,-15.451,-245.993,-244.075,292.63,-42.529
-133.243,-132.018,-126.815,-75.517,-243.417,-239.854,213.181,-123.144
-246.812,-245.836,-241.364,-163.071,-237.985,-233.913,103.476,-234.958
-386.936,-384.81,-376.327,-301.72,-230.208,-227.048,-24.995,-368.68
-475.142,-471.32,-458.501,-432.292,-224.878,-223.03,-103.283,-451.622
-465.637,-461.536,-448.033,-467.101,-225.106,-223.887,-93.638,-442.396
-377.445,-374.708,-363.028,-411.146,-228.519,-227.392,-13.314,-357.865
-226.503,-225.564,-213.978,-288.944,-233.038,-232.344,127.729,-209.217
-60.434,-60.888,-47.401,-111.952,-237.353,-237.192,286.1,-43.159
20.392,18.923,32.924,22.088,-239.313,-238.911,364.537,38.272
-1.47,-4.201,8.241,38.504,-238.637,-237.524,344.61,16.016
-64.967,-69.435,-58.872,-7.846,-235.462,-234.102,281.681,-50.953
-167.791,-173.88,-164.44,-92.074,-228.979,-228.134,177.537,-160.243
-305.566,-312.81,-303.004,-239.34,-221.071,-221.522,41.24,-303.791
-398.267,-406.072,-394.82,-380.916,-216.987,-218.933,-47.702,-397.363
-398.663,-406.227,-393.982,-420.015,-218.221,-220.423,-47.404,-393.722
-336.063,-343.538,-330.4,-373.646,-221.815,-222.942,10.041,-328.138
-227.737,-236.341,-221.726,-285.962,-228.483,-228.429,109.106,-221.235
-94.367,-103.943,-89.642,-149.874,-238.871,-237.393,234.09,-88.868
-18.411,-27.196,-15.727,-26.783,-247.472,-244.068,307.778,-10.335
-36.451,-44.495,-33.854,-1.252,-249.128,-245.312,292.124,-27.038
-108.062,-117.448,-104.215,-51.722,-244.354,-242.807,221.034,-102.935
-229.603,-239.941,-226.411,-155.281,-237.243,-238.131,98.64,-230.725
-387.101,-395.612,-385.652,-319.225,-231.973,-233.167,-55.854,-389.77
-488.44,-495.77,-486.405,-464.964,-230.832,-231.482,-153.591,-488.35
-476.868,-486.348,-472.314,-496.737,-232.491,-233.466,-145.134,-475.909
-385.937,-396.764,-379.073,-434.269,-235.057,-236.629,-61.498,-386.309
-247.928,-256.353,-238.816,-320.877,-240.39,-241.984,71.214,-247.479
-96.298,-102.816,-85.813,-158.23,-247.785,-249.298,216.491,-96.106
-14.639,-23.822,-6.89,-26.289,-251.892,-253.671,287.218,-21.953
-34.094,-47.991,-33.139,-11.171,-250.896,-253.036,258.369,-52.509
-112.249,-128.464,-117.311,-74.415,-246.418,-248.975,179.058,-136.718
-237.686,-254.493,-245.793,-180.084,-238.912,-242.083,58.04,-262.16
-381.866,-400.572,-392.812,-332.428,-230.084,-233.49,-84.45,-406.105
-459.246,-479.584,-472.957,-460.818,-224.909,-227.599,-165.142,-484.062
-438.71,-457.408,-451.136,-483.764,-225.019,-226.637,-146.57,-458.906
-352.93,-369.233,-360.592,-419.611,-226.738,-227.783,-60.73,-363.853
-203.287,-220.228,-209.257,-292.914,-228.41,-229.245,79.861,-213.199
-14.568,-32.706,-24.285,-98.825,-229.219,-229.798,248.109,-37.483
101.611,85.914,88.348,66.996,-226.767,-227.072,349.508,66.166
96.661,84.312,84.048,106.352,-221.365,-221.406,346.063,62.02
31.154,16.73,19.033,64.778,-213.933,-213.879,286.611,2.375
-66.202,-88.186,-82.934,-13.986,-202.948,-203.446,187.471,-96.859
-180.294,-208.769,-202.686,-141.196,-189.181,-190.803,67.321,-217.133
-245.398,-274.603,-266.962,-255.447,-178.47,-180.904,0.448,-281.474
-235.195,-260.321,-251.055,-272.216,-173.821,-176.005,12.243,-264.496
-201.316,-220.751,-214.154,-225.381,-170.822,-171.755,44.232,-227.627
-165.404,-180.431,-177.964,-189.537,-166.432,-165.828,75.783,-190.368
-95.021,-108.899,-105.22,-137.057,-162.651,-160.962,146.202,-110.23
-14.482,-30.019,-21.971,-45.003,-160.364,-158.43,229.748,-17.87
16.934,-0.262,7.999,21.351,-156.896,-155.454,258.624,12.053
-4.371,-21.317,-17.133,29.736,-149.125,-148.213,228.747,-20.213
-66.039,-82.412,-80.637,-10.419,-136.374,-135.658,161.735,-86.934
-151.57,-170.026,-165.926,-101.613,-121.429,-121.353,77.687,-170.988
-210.237,-232.949,-224.935,-204.009,-110.733,-112.311,20.052,-231.065
-210.755,-235.906,-227.457,-240.3,-107.211,-110.59,14.36,-237.994
-193.931,-218.491,-212.9,-207.766,-103.873,-108.323,23.738,-228.377
-222.952,-246.509,-242.64,-198.183,-93.473,-98.563,-7.904,-261.506
-291.384,-313.083,-310.233,-261.548,-79.025,-84.452,-73.662,-328.756
-338.462,-355.177,-356.293,-339.807,-69.129,-73.967,-119.456,-371.193
-326.524,-338.377,-343.751,-363.186,-66.382,-69.668,-113.419,-355.649
-231.532,-242.938,-248.001,-309.62,-67.044,-68.579,-29.854,-258.226
-32.834,-46.44,-48.129,-150.841,-69.969,-70.223,157.583,-54.501
192.557,177.394,178.561,95.956,-74.298,-74.188,375.832,178.143
289.341,273.265,276.359,269.134,-75.645,-76.235,471.828,279.043
240.364,223.376,227.716,264.145,-72.297,-74.063,426.727,229.027
166.645,149.08,154.518,191.933,-66.366,-68.858,356.645,154.239
109.976,92.024,99.795,145.883,-58.832,-61.152,301.679,100.58
47.592,29.179,38.925,89.606,-49.9,-51.411,238.742,40.895
7.479,-11.242,-3,19.049,-43.093,-44.106,194.864,-2.773
14.078,-5.043,0.021,-4.804,-40.722,-42.259,196.983,-3.137
24.258,3.905,8.547,19.98,-37.956,-40.476,205.601,3.994
-10.651,-32.876,-26.638,18.676,-29.951,-32.885,170.891,-28.679
-65.312,-88.49,-83.297,-36.538,-19.241,-21.767,113.682,-80.015
-89.53,-112.548,-110.771,-94.308,-12.367,-14.485,83.193,-104.007
-83.243,-107.063,-106.083,-115.897,-11.21,-13.89,81.364,-103.332
-51.046,-76.222,-73.787,-106.378,-11.945,-15.885,102.889,-81.242
47.277,23.718,24.767,-44.963,-12.907,-17.661,188.292,10.638
207.932,189.021,186.366,105.541,-14.872,-19.384,340.728,175.282
312.068,296.169,292.373,259.289,-17.34,-20.907,448.26,287.864
285.657,268.539,266.446,283.94,-18.811,-21.74,429.247,261.626
204.949,185.525,184.188,213.929,-17.364,-20.414,344.816,171.665
140.746,121.718,119.519,152.446,-12.24,-15.368,268.146,100.673
89.729,72.387,71.472,106.244,-4.963,-7.707,210.705,51.866
52.486,35.107,39.053,54.546,0.032,-2.482,176.132,21.063
38.902,21.25,29.364,23.948,0.083,-2.316,167.359,14.235
32.212,16.802,24.727,30.094,0.06,-1.737,164.618,14.761
8.128,-4.257,0.577,33.487,6.3,5.139,141.448,-5.531
-21.231,-34.622,-31.573,4.552,18.268,16.758,103.495,-40.582
-34.436,-53.814,-48.104,-36.722,28.997,26.284,75.271,-64.338
-36.899,-59.938,-50.119,-56.376,34.298,30.794,67.321,-67.558
-39.815,-58,-48.645,-45.225,38.284,35.07,73.6,-58.56
-47.551,-58.89,-52.602,-30.704,45.678,43.041,75.064,-58.09
-54.885,-68.023,-61.091,-37.111,55.43,52.674,63.298,-71.739
-59.469,-82.962,-72.693,-62.175,62.922,59.511,45.162,-87.635
-59.291,-92.33,-81.055,-90.275,66.54,62.626,36.485,-91.937
-8.92,-45.057,-35.453,-84.557,68.056,63.762,82.79,-42.495
154.813,118.12,125.644,24.145,66.31,61.468,227.474,111.977
386.414,347.764,353.197,252.285,62.027,56.666,420.717,325.623
525.784,484.845,488.814,454.666,61.1,55.428,537.309,452.541
520.796,476.5,481.54,496.855,65.965,60.013,543.828,447.253
481.095,430.544,439.263,452.689,73.544,67.011,516.42,410.773
460.999,403.943,415.94,423.362,80.526,72.691,483.703,389.958
427.722,367.732,379.708,388.145,86.255,76.25,431.187,352.251
385.456,325.918,335.998,327.806,89.824,77.771,388.094,304.196
364.907,305.799,316.282,287.904,89.924,77.406,381.004,279.705
349.338,287.263,302.476,280.123,88.235,76.373,370.296,263.879
287.662,219.375,241.582,239.064,86.285,74.406,302.063,203.21
185.736,113.073,140.062,137.979,83.612,71.087,199.115,102.714
104.521,32.686,60.666,39.605,79.417,67.02,124.781,25.923
69.595,0.518,28.414,-7.044,73.794,62.36,90.734,-3.171
65.172,-1.818,27.069,-24.268,66.814,56.179,79.127,-2.58
94.623,30.579,61.632,-24.907,55.658,45.356,107.766,34.763
163.272,103.096,136.629,36.151,40.503,30.497,186.781,115.157
206.359,149.272,184.209,128.656,27.636,17.971,242.502,167.677
162.237,106.683,141.81,137.216,20.132,10.391,205.473,126.871
58.137,2.849,38.567,44.453,13.703,3.466,102.264,23.802
-74.086,-128.393,-91.033,-86.749,3.656,-6.816,-23.903,-104.164
-219.911,-270.127,-232.113,-225.385,-8.795,-18.781,-153.231,-241.945
-336.826,-380.458,-344.284,-351.496,-21.403,-30.234,-260.54,-349.942
-378.442,-416.572,-382.773,-434.872,-36.193,-43.64,-311.098,-383.984
-296.638,-332.784,-299.329,-428.973,-57.166,-63.628,-241.42,-296.292
-79.888,-115.75,-81.484,-264.469,-85.377,-91.379,-24.001,-74.952
146.374,112.425,145.646,15.501,-111.843,-117.715,207.77,152.809
208.046,176.964,207.627,184.633,-125.659,-131.984,266.051,210.573
108.128,78.386,107.864,129.023,-129.691,-137.103,155.288,104.204
-40.135,-68.617,-39.674,-20.645,-133.872,-142.138,2.02,-47.408
-223.133,-248.576,-220.906,-186.47,-141.345,-149.496,-167.183,-228.921
-435.471,-458.286,-430.04,-394.388,-149.454,-156.832,-355.143,-436.686
-580.825,-602.93,-571.551,-581.595,-158.758,-165.321,-492.099,-576.084
-594.243,-615.632,-582.136,-655.975,-173.428,-179.2,-519.194,-583.339
-475.658,-495.468,-462.355,-602.074,-195.715,-200.52,-414.091,-460.307
-257.246,-276.167,-244.059,-418.711,-224.402,-228.203,-195.784,-241.201
-55.663,-75.084,-43.304,-163,-251.166,-254.213,6.838,-42.107
-2.556,-21.98,9.442,-11.95,-267.113,-269.562,50.688,8.53
-81.906,-97.96,-68.544,-38.912,-274.269,-276.127,-40.159,-70.756
-216.792,-226.228,-199.902,-145.465,-277.836,-279.356,-173.14,-202.28
-409.092,-412.135,-386.566,-303.722,-278.037,-279.412,-345.525,-387.362
-607.705,-606.609,-578.492,-515.733,-275.464,-276.373,-521.151,-575.794
-676.808,-674.43,-643.244,-650.257,-274.328,-274.539,-584.675,-635.618
-592.632,-592.764,-560.256,-612.639,-276.204,-276.113,-512.856,-546.104
-438.932,-441.943,-411.117,-479.515,-278.843,-278.753,-371.409,-389.691
-248.234,-249.705,-223.142,-311.843,-283.45,-282.724,-183.825,-196.248
-33.654,-31.681,-8.727,-86.75,-289.796,-287.61,27.883,21.331
131.793,135.519,156.909,133.445,-292.044,-288.691,185.192,189.228
206.862,212.336,232.587,261.932,-286.821,-283.212,253.313,265.687
201.366,208.558,228.6,302.122,-274.656,-271.405,247.123,259.143
107.835,114.229,136.658,238.326,-258.135,-256.039,157.318,161.788
-4.928,0.214,25.164,91.626,-242.022,-241.927,46.829,44.911
1.172,8.351,31.945,21.985,-230.86,-232.41,49.312,48.018
119.149,129.621,148.872,121.889,-223.583,-225.124,159.666,162.921
178.437,189.334,205.063,246.026,-212.908,-212.965,212.604,219.186
83.496,93.53,106.565,204.015,-196.071,-194.616,115.069,122.736
-46.274,-33.939,-24.911,42.26,-178.771,-176.755,-16.221,-6.656
-55.825,-38.469,-33.196,-33.025,-166.284,-164.33,-29.302,-15.179
24.673,45.373,50.072,39.283,-156.181,-154.419,46.338,64.819
45.549,66.361,72.899,112.886,-142.594,-141.047,64.722,84.338
-53.445,-33.314,-25.741,50.487,-126.494,-124.935,-31.799,-14.312
-170.314,-149.371,-143.221,-91.532,-112.929,-111.02,-145.553,-130.159
-195.088,-171.7,-168.066,-161.248,-103.254,-100.868,-170.878,-154.227
-160.229,-134.179,-131.942,-128.458,-94.926,-92.013,-136.482,-116.772
-169.253,-142.002,-139.837,-99.866,-84.553,-81.282,-142.973,-122.717
-255.114,-228.086,-226.492,-164.262,-72.963,-70.022,-227.122,-210.405
-346.597,-319.611,-320.578,-277.295,-63.637,-61.418,-322.516,-308.982
-374.916,-347.107,-352.072,-337.634,-57.517,-55.177,-359.66,-343.866
-356.276,-328.135,-336.643,-334.856,-52.935,-49.53,-349.567,-328.522
-300.326,-274.049,-284.666,-313.065,-49.923,-46.043,-301.567,-276.262
-154.056,-131.35,-143.247,-229.478,-52.877,-49.787,-168.938,-135.763
60.828,80.123,67.823,-24.465,-60.293,-58.262,26.582,75.309
191.114,208.967,197.22,178.361,-62.622,-60.886,144.745,206.361
163.148,184.141,170.534,215.668,-57.643,-55.02,119.709,181.553
66.936,95.243,75.09,132.089,-51.52,-47.197,30.429,87.595
-34.078,-0.951,-26.845,30.735,-46.709,-41.083,-71.044,-13.501
-135.929,-104.384,-129.652,-75.322,-40.441,-34.679,-176.947,-116.302
-203.429,-174.667,-196.448,-166.446,-33.104,-28.167,-243.743,-183.818
-212.801,-183.175,-203.068,-198.353,-27.864,-24.298,-247.747,-193.319
-179.355,-148.15,-165.766,-177.036,-24.581,-22.391,-211.973,-162.451
-100.056,-70.649,-85.455,-124.589,-23.774,-22.394,-140.727,-90.191
31.864,58.594,43.21,-12.784,-25.261,-24.106,-24.195,32.145
147.317,174.825,157.434,132.172,-23.737,-22.55,83.737,143.423
175.831,205.179,189.397,207.358,-16.267,-14.905,116.643,175.73
148.744,177.652,164.375,202.807,-5.895,-3.872,90.672,153.89
109.692,139.394,124.324,177.63,4.519,8.08,44.469,120.126
69.796,103.511,84.539,144.439,16.091,21.568,-0.469,89.051
58.419,93.648,74.556,113.026,28.969,35.577,-10.073,86.552
94.437,125.308,110.636,124.392,40.674,47.213,29.168,124.652
137.238,163.47,152.258,176.008,51.465,57.426,70.213,162.609
119.044,145.628,133.718,187.937,63.084,68.639,47.63,139.092
50.202,79.568,65.789,125.508,76.313,81.587,-22.193,68.774
14.104,44.556,29.586,62.043,90.381,95.17,-56.646,32.017
40.058,70.353,54.098,63.072,103.628,107.396,-29.784,54.601
75.763,106.687,90.011,104.587,116.539,118.624,4.236,86.397
66.214,98.594,82.646,116.046,129.501,130.107,-11.014,75.78
26.714,60.202,44.676,81.286,142.532,142.848,-58.113,38.299
15.512,48.64,33.585,53.609,155.808,156.392,-71.849,29.661
50.244,81.296,67.437,72.337,167.999,168.323,-34.071,64.665
96.751,125.647,112.182,120.014,178.99,178.894,11.429,110.162
110.789,139.682,124.797,146.081,189.645,189.865,17.373,125.716
95.58,126.598,109.49,137.361,200.586,201.705,-6.404,114.518
94.527,127.714,108.476,131.71,211.948,213.784,-8.844,115.959
124.395,158.232,137.53,153.857,223.318,225.457,28.607,145.587
164.65,197.143,177.421,191.791,235.401,237.574,73.304,185.414
184.579,214.233,199.184,215.981,247.375,249.418,84.067,206.768
185.023,211.698,203.075,223.048,257.614,259.597,71.085,210.521
195.517,219.875,215.877,235.829,266.705,268.652,82.027,224.013
226.557,250.588,246.359,261.612,275.738,277.55,130.223,255.596
267.838,295.138,285.958,296.886,285.067,287.189,183.808,297.608
300.561,332.686,319.824,332.815,293.357,296.317,204.427,335.484
319.277,354.183,343.438,362.774,300.273,303.643,192.773,361.129
335.219,370.237,363.667,386.18,307.472,310.523,185.834,379.495
352.415,386.133,381.305,400.297,315.198,317.995,213.304,395.38
373.15,405.976,400.832,413.315,322.052,325.191,266.114,416.478
394.856,427.99,422.267,431.827,326.223,329.828,288.073,439.728
416.661,449.951,443.788,456.828,329.275,332.754,243.63,459.45
439.423,473.115,464.381,483.526,333.815,337.08,178.799,476.739
451.999,487.935,473.918,494.713,338.168,342.166,181.9,486.447
456.242,494.073,477.054,492.835,340.933,346.119,274.134,493.784
458.329,495.454,479.398,490.791,342.087,347.649,340.873,499.9
448.568,484.941,468.22,483.602,341.323,346.52,272.171,488.366
416.509,454.546,433.447,456.984,339.435,344.417,126.73,450.059
371.415,411.295,387.038,411.123,337.667,342.642,60.664,400.032
342.538,380.695,358.587,372.461,337.145,341.513,125.116,368.97
331.8,364.428,348.504,352.147,336.646,339.618,191.872,356.735
313.661,341.305,330.408,335.257,334.168,336.077,141.39,337.298
277.259,304.028,294.018,308.147,330.554,332.599,21.638,301.276
234.578,262.629,252.088,269.231,327.636,330.447,-40.923,260.892
211.333,239.931,229.443,238.076,325.498,328.899,-1.681,239.489
208.707,238.01,225.723,225.82,321.713,325.445,51.359,236.133
202.777,233.975,217.37,220.674,316.015,319.878,27.143,227.556
180.81,212.772,193.572,206.904,311.512,315.257,-54.651,203.196
153.08,183.551,165.614,181.403,309.336,312.861,-107.742,174.443
146.66,177.009,160.183,167.48,308.27,311.639,-79.832,167.437
164.062,196.724,178.903,177.822,306.445,309.507,-23.665,182.803
181.91,214.987,197.483,197.327,304.157,306.531,-26.27,196.74
186.088,216.733,201.742,208.043,303.547,305.27,-93.012,197.502
180.757,209.583,196.186,204.489,304.074,305.929,-144.076,191.511
188.531,217.339,202.943,205.765,303.923,306.747,-106.44,200.023
213.798,243.967,226.475,224.446,302.478,306.391,-28.316,225.558
235.033,268.513,246.082,249.757,301.032,306.028,-25.374,248.04
238.719,276.312,247.538,265.353,300.932,307.583,-114.867,254.361
229.426,268.962,235.339,261.322,301.39,309.588,-189.636,246.502
225.608,264.286,231.165,250.625,301.893,309.983,-154.233,243.133
230.118,266.931,238.755,245.946,301.771,308.337,-65.066,248.328
232.368,267.801,242.801,245.628,300.778,305.915,-58.217,248.815
227.171,262,235.286,242.163,300.184,304.456,-156.746,238.903
210.436,244.516,215.455,224.903,299.619,303.343,-246.198,219.012
192.322,224.209,196.714,202.248,297.064,300.744,-228.139,201.257
181.029,209.554,185.809,186.787,290.981,295.36,-150.795,191.174
169.901,196.114,174.278,177.162,283.515,288.88,-135.591,179.544
149.194,174.89,154.069,162.136,277.846,283.394,-210.129,156.127
114.03,139.124,121.126,128.478,272.218,276.643,-290.547,117.317
79.453,103.431,87.155,86.897,264.209,267.205,-302.11,80.08
55.232,78.853,60.258,54.028,254.6,256.983,-265.711,55.279
33.522,56.925,36.522,31.595,245.509,247.772,-246.406,35.644
4.814,26.209,9.352,8.798,237.343,239.014,-270.854,10.519
-35.134,-17.178,-28.763,-32.982,228.105,228.638,-321.488,-28.876
-50.106,-32.803,-45.412,-79.5,216.163,216.056,-353.045,-48.722
24.711,47.059,25.74,-62.334,199.045,199.763,-318.754,20.488
182.55,211.221,181.263,76.246,177.266,179.715,-225.969,177.115
296.09,325.814,294.232,247.291,157.928,161.365,-158.851,292.17
270.243,295.289,268.575,283.221,145.199,148.259,-181.407,265.5
174.964,194.357,173.867,193.549,136.089,138.321,-242.517,165.724
94.362,111.002,93.458,101.051,126.631,128.318,-264.678,80.094
19.651,36.329,17.592,26.932,116.192,117.332,-251.927,2.285
-55.933,-37.513,-60.033,-57.164,104.868,105.539,-251.131,-74.271
-107.093,-86.102,-112.605,-128.163,91.96,93.052,-285.994,-124.163
-114.987,-92.657,-120.726,-155.004,78.537,80.97,-339.453,-128.824
-72.12,-49.529,-77.759,-137.909,63.185,67.11,-355.259,-82.188
11.917,35.591,5.248,-66.824,43.933,48.733,-288.587,3.509
77.753,101.641,67.995,28.984,25.494,30.16,-193.978,66.677
67.93,89.262,54.175,57.642,12.287,16.493,-179.757,52.278
5.986,24.074,-10.193,8.011,2.532,6.758,-254.726,-10.683
-81.28,-65.607,-97.023,-69.811,-6.439,-2.216,-327.529,-94.041
-196.548,-182.871,-208.892,-173.1,-14.405,-10.579,-332.042,-203.007
-298.181,-284.586,-304.405,-285.046,-22.694,-18.658,-291.711,-296.963
-336.009,-318.15,-335.012,-347.522,-34.737,-29.58,-285.077,-326.461
-304.076,-279.792,-298.401,-341.215,-49.492,-44.128,-339.744,-289.647
-210.111,-184.191,-205.193,-283.461,-65.426,-61.814,-370.7,-197.749
-78.105,-57.886,-77.423,-166.412,-82.91,-81.11,-290.084,-71.915
12.883,26.344,10.996,-34.843,-98.519,-97.182,-162.671,14.709
7.179,19.676,6.129,7.046,-109.653,-108.437,-129.301,8.764
-58.357,-41.876,-58.12,-39.233,-118.613,-117.545,-206.552,-54.958
-164.367,-144.92,-163.924,-124.125,-127.019,-125.436,-295.276,-159.754
-314.998,-296.202,-313.565,-260.658,-133.27,-131.103,-318.38,-310.235
-437.625,-420.937,-434.63,-413.921,-138.773,-136.984,-284.579,-433.469
-463.934,-448.982,-461.585,-491.166,-148.658,-147.689,-271.565,-461.136
-412.647,-399.112,-413.508,-475.192,-163.752,-162.979,-325.338,-411.586
-314.037,-301.952,-318.913,-404.353,-182.9,-181.513,-364.732,-315.499
-186.805,-175.424,-195.412,-279.388,-204.371,-202.028,-282.499,-191.317
-101.96,-88.983,-113.227,-150.85,-222.199,-219.505,-139.396,-107.115
-116.358,-100.02,-128.082,-122.194,-233.766,-231.957,-95.22,-118.559
-200.485,-182.136,-209.378,-183.599,-241.912,-241.488,-186.124,-199.537
-339.713,-322.486,-343.538,-290.799,-248.01,-248.453,-314.817,-339.619
-525.265,-510.814,-525.923,-463.361,-252.181,-252.87,-366.759,-530.774
-666.294,-654.627,-668.304,-650.448,-257.673,-258.166,-317.208,-678.438
-689.688,-680.501,-695.548,-741.94,-268.733,-268.779,-277.208,-705.681
-603.665,-595.791,-612.853,-709.657,-285.574,-285.422,-329.418,-620.848
-431.461,-422.801,-442.197,-573.379,-307.025,-306.992,-361.335,-448.053
-237.259,-227.383,-248.119,-359.863,-329.438,-329.301,-241.305,-251.153
-146.789,-138.547,-157.965,-195.844,-346.099,-345.533,-70.923,-157.667
-198.514,-194.349,-210.582,-196.734,-356.596,-355.667,-37.617,-208.863
-301.526,-299.981,-313.422,-294.378,-365.352,-364.177,-150.14,-312.463
-388.197,-387.273,-398.333,-392.454,-374.529,-373.163,-274.015,-396.854
-435.449,-435.128,-443.702,-461.346,-384.623,-383.447,-277.024,-439.821
-430.4,-429.887,-438.016,-472.36,-395.602,-394.819,-162.189,-433.435
-412.924,-411.2,-420.893,-444.762,-406.597,-405.485,-90.739,-418.176
-427.401,-425.671,-435.486,-438.741,-415.693,-413.796,-168.322,-435.161
-456.295,-455.336,-464.2,-470.868,-423.755,-421.921,-287.308,-465.71
-455.097,-453.64,-463.734,-489.8,-433.569,-432.159,-268.857,-464.743
-425.361,-422.567,-435.748,-461.635,-444.068,-442.113,-127.646,-432.555
-408.14,-403.244,-418.797,-426.272,-452.412,-449.777,-54.749,-410.888
-419.337,-411.055,-426.562,-415.592,-457.009,-454.864,-135.234,-416.94
-450.22,-439.989,-452.512,-435.625,-459.05,-457.782,-252.706,-442.793
-472.148,-463.249,-471.6,-469.12,-461.686,-460.865,-248.937,-461.708
-452.91,-446.064,-451.454,-469.528,-466.022,-466.051,-127.903,-443.211
-404.666,-398.817,-402.957,-423.322,-470.817,-472.123,-48.039,-399.146
-389.031,-383.537,-388.62,-367.232,-472.463,-474.016,-108.052,-389.56
-492.116,-486.606,-493.712,-399.73,-467.404,-468.133,-266.845,-497.975
-701.638,-695.848,-701.187,-586.488,-457.139,-457.394,-387.846,-708.381
-850.177,-842.679,-842.591,-798.518,-448.609,-449.103,-367.622,-853.205
-821.428,-810.614,-808.9,-847.385,-447.457,-448.01,-294.947,-821.424
-673.883,-661.383,-663.148,-731.083,-451.701,-451.556,-295.952,-672.511
-499.283,-488.036,-491.912,-562.931,-458.048,-456.877,-288.376,-492.919
-334.485,-324.783,-328.114,-385.427,-465.019,-463.07,-154.563,-320.075
-221.126,-211.464,-215.802,-231.804,-469.152,-466.51,-2.493,-201.48
-184.081,-172.375,-181.308,-160.968,-469.096,-465.653,32.277,-162.935
-206.178,-189.342,-206.214,-153.535,-465.449,-461.364,-5.841,-185.072
-312.926,-289.393,-315.208,-209.874,-457.618,-452.915,-82.201,-293.427
-498.239,-470.229,-502.471,-377.844,-446.955,-441.149,-202.104,-482.345
-625.1,-595.854,-630.987,-565.259,-438.565,-431.567,-275.072,-613.325
-605.09,-575.855,-610.79,-610.639,-436.226,-428.933,-256.454,-595.974
-518.113,-488.995,-521.024,-527.597,-436.68,-430.009,-230.812,-510.5
-445.518,-418.058,-446.107,-448.976,-436.679,-431.038,-224.471,-442.144
-358.959,-335.298,-360.901,-382.776,-437.223,-432.831,-163.447,-365.114
-251.314,-229.509,-255.598,-273.373,-436.997,-433.27,-62.801,-265.761
-193.855,-168.616,-195.925,-177.699,-434.002,-429.474,-14.563,-205.203
-222.912,-192.626,-218.19,-158.031,-428.053,-422.285,-30.071,-220.964
-334.782,-302.838,-324.419,-224.086,-418.576,-412.871,-104.347,-321.276
-495.508,-465.514,-484.819,-377.575,-406.042,-401.279,-233.872,-478.942
-605.197,-579.541,-598.109,-540.026,-394.788,-390.224,-330.089,-590.165
-601.938,-582.749,-598.352,-596.091,-389.171,-384.19,-336.26,-588.469
-525.084,-512.254,-522.916,-543.42,-387.03,-382.153,-295.618,-513.38
-412.515,-401.893,-410.355,-449.388,-385.86,-381.315,-222.051,-402.786
-268.881,-255.301,-265.689,-315.493,-385.962,-381.273,-103.012,-259.922
-152.267,-134.584,-146.656,-163.78,-384.498,-379.877,-12.143,-143.646
-130.698,-112.216,-122.774,-94.906,-379.965,-376.201,-5.398,-123.328
-182.801,-167.015,-174.897,-119.644,-373.534,-370.729,-25.276,-175.785
-283.918,-272.714,-277.456,-192.366,-363.781,-361.492,-73.155,-273.305
-431.863,-426.286,-425.691,-328.165,-350.367,-348.166,-207.963,-413.465
-553.899,-553.162,-547.313,-489.107,-338.868,-336.403,-357.457,-527.579
-579.17,-580.117,-573.451,-568.58,-334.285,-331.489,-406.067,-549.872
-521.049,-519.53,-516.511,-539.667,-333.551,-330.278,-349.313,-493.333
-403.466,-397.271,-398.237,-446.124,-333.401,-329.129,-229.937,-376.927
-242.814,-234.113,-235.692,-294.202,-334.581,-329.534,-89.537,-215.604
-121.3,-113.591,-112.753,-131.724,-334.811,-330.477,-8.468,-94.467
-112.141,-106.232,-102.725,-72.126,-330.621,-328.248,-18.717,-88.628
-174.953,-170.382,-165.815,-111.898,-321.385,-320.801,-51.648,-157.584
-273.48,-270.104,-266.215,-189.092,-308.497,-308.826,-107.243,-263.051
-416.252,-412.938,-409.597,-320.746,-293.914,-294.407,-251.474,-408.962
-540.283,-535.989,-530.532,-477.309,-280.508,-280.598,-420.259,-530.722
-566.497,-563.092,-552.665,-555.495,-271.616,-271.302,-476.981,-555.215
-488.541,-488.688,-473.736,-521.621,-266.924,-267,-384.748,-481.096
-321.946,-325.097,-309.303,-399.297,-265.917,-266.879,-198.067,-320.197
-109.727,-113.76,-99.96,-194.081,-268.452,-269.584,-11.753,-110.788
32.1,27.875,39.16,9.467,-269.048,-269.306,70.398,29.895
35.953,31.96,40.708,76.927,-263.343,-262.812,49.411,32.432
-35.559,-38.401,-31.697,29.146,-252.64,-252.481,18.62,-39.655
-145.828,-147.532,-141.549,-59.627,-239.252,-240.015,-40.564,-149.83
-305.269,-306.363,-300.489,-207.804,-224.8,-225.501,-207.874,-309.282
-438.02,-438.311,-433.338,-377.146,-212.136,-211.56,-400.145,-441.034
-464.107,-463.899,-460.12,-456.256,-204.734,-202.733,-464.038,-464.704
-398.736,-399.788,-394.859,-426.096,-202.117,-199.564,-374.36,-397.427
-266.189,-269.601,-260.406,-329.977,-202.954,-201.31,-202.554,-264.475
-84.765,-90.922,-76.579,-162.209,-206.31,-206.749,-36.522,-83.845
50.915,39.997,58.904,21.825,-206.813,-209.16,38.266,49.437
56.024,40.315,61.271,86.566,-201.407,-204.308,17.544,51.482
-33.871,-49.464,-31.307,26.902,-192.916,-195.204,-29.201,-39.133
-178.379,-190.61,-177,-89.743,-182.809,-184.387,-121.297,-181.23
-366.691,-376.499,-364.99,-268.04,-170.685,-172.044,-313.773,-366.111
-512.826,-520.377,-509.726,-457.683,-159.7,-161.14,-513.173,-509.259
-534.302,-540.938,-530.137,-542.301,-154.471,-156.058,-574.162,-529.286
-437.171,-447.998,-434.331,-496.187,-154.486,-156.138,-463.729,-433.563
-242.837,-258.82,-244.406,-349.535,-158.324,-159.667,-239.636,-242.391
3.353,-11.406,-3.881,-107.892,-164.531,-165.32,-11.831,0.986
174.901,164.651,163.653,129.259,-166.805,-167.709,98.957,169.553
191.442,180.38,178.724,210.093,-162.228,-164.351,88.42,181.785
108.953,91.061,95.485,155.567,-153.661,-157.067,43.537,94.479
-27.508,-51.795,-42.364,47.639,-141.831,-145.537,-47.497,-45.855
-203.81,-229.397,-219.486,-121.274,-126.564,-129.929,-227.545,-223.561
-326.595,-349.009,-340.876,-294.601,-112.671,-115.607,-391.483,-343.497
-327.214,-345.13,-338.16,-352.378,-106.187,-108.347,-415.376,-337.137
-244.782,-258.915,-252.578,-291.939,-105.185,-106.192,-312.019,-247.917
-106.758,-118.429,-114.885,-178.065,-105.437,-105.631,-149.14,-110.364
84.472,73.423,71.944,-5.105,-106.896,-107.141,19.303,72.498
241.086,229.174,226.096,189.703,-107.32,-108.201,124.903,223.818
269.845,257.065,258.647,281.214,-103.198,-104.508,139.874,257.427
198.945,185.929,192.543,254.202,-93.754,-94.752,104.478,193.523
69.871,56.714,64.504,161.102,-79.762,-80.163,10.09,66.263
-99.384,-112.862,-104.485,-2.737,-63.394,-63.934,-161.369,-103.19
-216.731,-230.161,-220.241,-173.722,-49.292,-50.731,-305.082,-220.064
-213.653,-226.12,-216.975,-229.414,-41.661,-43.671,-317.151,-217.981
-135.958,-147.289,-142.036,-170.939,-37.823,-39.784,-229.086,-143.985
-22.736,-33.98,-32.356,-78.268,-34.289,-36.326,-105.39,-36.053
139.563,127.222,127.658,60.273,-32.519,-34.669,36.798,120.571
300.159,285.869,285.947,246.925,-30.91,-32.619,159.038,276.112
365.028,348.854,346.956,365.928,-25.136,-26.298,210.483,339.018
327.052,310.979,306.004,367.788,-13.721,-14.846,195.793,304.188
214.136,200.437,194.171,290.132,1.833,0.567,108.893,197.392
54.048,42.455,37.487,141.128,18.271,17.205,-52.538,42.399
-55.69,-67.522,-71.005,-13.321,32.403,31.88,-182.743,-64.724
-47.096,-60.637,-64.173,-58.068,42.915,43.074,-184.651,-55.206
24.625,9.23,5.554,1.718,52.398,53.207,-103.701,16.579
103.02,85.29,83.534,70.419,61.996,63.011,-17.288,94.903
213.955,194.46,195.483,154.953,68.81,69.17,81.033,206.526
348.264,329.814,331.69,299.045,73.901,72.984,194.709,341.987
420.42,403.458,405.641,416.895,81.434,79.454,264.756,414.08
400.268,381.505,386.335,435.836,93.041,90.813,260.477,392.412
308.74,288.768,295.376,375.263,107.868,106.003,179.554,299.711
168.439,151.747,156.096,245.819,124.106,122.469,34.613,159.113
57.686,42.988,45.857,98.381,139.172,137.144,-85.675,47.256
43.748,26.654,31.119,32.813,150.036,147.125,-102.043,30.24
97.887,79.989,84.168,64.46,157.248,153.46,-43.984,80.911
179.997,163.942,165.424,128.679,161.965,158.234,36.714,162.121
300.88,284.137,284.529,228.267,163.25,161.036,144.04,284.926
428.503,408.773,408.959,375.693,164.722,164.244,256.964,413.644
476.623,454.547,453.479,469.246,170.911,170.684,305.398,458.856
438.808,414.542,413.5,458.339,180.853,179.612,278.925,416.395
355.35,329.995,330.386,397.277,192.547,190.634,200.73,331.545
235.096,211.808,211.021,294.017,206.378,204.832,74.934,212.671
128.515,108.642,103.062,161.731,220.827,220.033,-40.08,104.433
102.427,85.254,74.241,85.208,230.779,230.417,-70.789,71.97
153.049,138.253,124.465,106.641,235.875,235.376,-22.043,116.774
251.808,238.545,226.084,185.11,239.415,238.273,70.675,214.011
392.488,377.422,369.03,309.097,241.492,239.552,197.618,354.4
525.616,504.689,500.437,464.96,243.948,241.429,318.589,485.22
571.727,545.516,543.182,553.183,250.055,247.259,366.929,529.533
542.282,515.469,513.203,545.376,259.636,256.418,348.744,501.618
481.081,454.838,454.201,503.995,271.361,267.171,292.515,442.851
382.043,353.957,356.885,424.12,284.72,279.733,192.13,344.269
283.131,254.352,258.482,305.728,297.805,293.189,95.597,245.193
257.73,232.441,234.208,236.896,307.355,303.93,77.357,221.309
306.14,284.807,285.164,267.488,314.793,312.315,129.022,272.543
378.034,356.64,359.462,337.196,322.751,320.47,194.143,346.592
461.656,436.444,443.766,409.146,328.377,325.576,265.143,431.201
552.865,523.236,535.025,505.287,330.659,326.987,350.299,524.407
604.422,574.209,587.806,585.602,333.671,329.481,410.401,580.524
603.605,578.143,587.883,609.832,340.401,336.524,422.103,584.307
565.547,544.632,548.14,593.002,349.998,346.83,386,547.793
478.795,458.453,459.369,522.49,360.363,357.44,295.449,460.672
379.344,359.027,360.311,407.732,369.818,366.789,197.291,360.974
343.369,323.88,325.054,333.623,375.893,373.458,165.523,324.373
373.243,352.528,353.878,353.054,379.217,378.166,195.978,353.455
379.435,356.232,359.583,390.706,383.722,383.411,201.785,360.204
304.14,280.211,286.803,342.649,390.527,389.363,131.541,286.263
208.936,184.361,195.346,233.544,397.542,394.686,44.389,190.998
174.652,147.381,163.105,163.735,402.291,398.266,13.872,155.176
217.746,188.608,206.928,171.467,404.124,400.048,54.157,198.161
341.507,313.201,331.985,248.121,401.28,397.843,170.206,324.755
535.721,509.29,527.885,417.236,392.237,389.45,354.345,522.486
702.286,678.585,695.699,635.776,383.768,381.419,515.804,691.159
735.574,715.021,729.474,742.749,383.076,380.837,555.929,724.897
678.233,658.08,670.399,702.207,387.252,384.723,507.519,665.61
611.557,588.687,599.151,627.961,390.234,387.414,438.708,594.757
523.25,498.439,506.238,547.849,391.628,388.793,345.014,502.194
419.716,395.704,401.038,437.253,393.755,390.845,243.875,395.843
360.885,338.579,342.807,346.622,395.274,392.183,189.395,335.425
352.515,331.078,334.581,327.668,395.387,392.366,179.606,325.404
324.022,302.639,305.101,326.973,396.564,393.732,150.172,294.726
234.035,212.048,214.616,260.489,399.487,396.588,68.723,203.932
138.512,115.354,119.236,150.718,402.263,399.15,-15.442,109.977
99.074,75.271,79.044,75.622,402.128,399.017,-54.338,72.138
134.904,111.341,113.864,64.282,397.779,394.925,-28.677,108.278
281.68,257.831,261.754,143.245,388.543,385.794,107.83,255.897
532.503,507.791,516.289,365.501,375.332,372.077,353.119,509.353
739.408,714.311,727.618,644.561,364.894,360.677,559.807,719.758
764.193,738.566,755.225,761.692,361.778,357.122,592.062,747.359
669.892,643.685,661.687,692.485,362.788,358.749,507.474,654.513
566.759,541.985,559.166,590.51,364.868,361.645,409.137,552.346
453.108,432.304,447.852,491.452,368.563,365.625,302.039,440.943
338.417,321.87,336.58,367.177,372.835,369.974,199.873,329.769
280.079,265.221,280.553,272.875,373.284,370.271,149.061,273.241
284.468,268.583,285.891,254.234,369.526,365.832,150.319,276.592
325.496,308.832,327.937,277.303,364.425,360.372,187.017,317.131
408.408,392.834,411.522,337.456,357.124,353.909,270.517,401.581
507.639,493.321,509.557,447.785,347.804,345.641,371.417,501.076
537.015,522.332,536.807,519.872,340.748,338.383,402.881,528.512
478.159,461.722,476.764,492.498,339.125,335.689,347.868,468.645
377.258,359.131,374.927,411.519,341.213,337.436,251.34,368.388
248.566,230.086,244.622,294.837,343.42,340.428,128.831,239.989
124.256,106.917,119.406,150.857,344.54,342.466,11.888,116.483
59.964,44.599,55.716,45.577,342.896,341.469,-48.555,56.601
76.534,62.763,73.002,25.803,336.816,336.097,-32.884,79.788
182.393,168.386,178.839,89.086,326.683,326.43,70.549,189.04
360.14,344.809,356.703,242.98,314.144,313.671,246.154,365.289
505.069,490.067,502.519,433.312,303.681,302.573,388.811,506.623
520.657,507.3,518.929,516.393,298.19,296.435,402.589,518.109
452.232,438.96,450.095,474.593,296.168,294.01,332.955,445.058
358.761,344.644,354.92,396.362,296.334,294.214,240.657,347.759
218.465,204.719,212.425,272.131,298.415,296.629,107.24,205.547
72.535,59.344,64.907,100.608,300.309,298.621,-30.871,58.074
13.43,0.198,5.89,-13.541,298.065,295.868,-89.762,-3.773
53.817,41.216,48.055,-13.812,290.898,287.829,-55.123,34.724
168.26,156.372,164.74,64.021,279.816,276.061,56.028,151.285
341.105,328.403,339.14,215.652,265.099,261.124,229.795,329.219
495.805,481.294,494.551,412.306,251.691,247.991,386.135,488.462
537.24,521.574,536.619,521.992,244.403,241.328,431.353,533.296
479.096,464.613,480.135,501.637,241.673,239.146,381.856,478.902
362.924,351.624,366.286,414.735,241.354,238.787,277.609,365.623
189.029,179.431,192.739,260.241,243.118,239.969,115.165,189.965
29.826,19.303,30.673,65.554,243.988,240.539,-38.925,23.74
-19.782,-31.007,-21.965,-47.887,239.167,235.947,-92.673,-33.989
24.289,13.724,22.442,-37.174,229.922,226.683,-55.479,5.17
113.494,103.666,114.718,31.977,219.681,216.337,31.748,94.052
251.736,241.718,255.483,152.148,207.256,204.737,169.731,234.75
397.501,385.894,402.502,327.345,194.633,193.436,312.069,383.965
449.508,437.493,456.848,441.104,186.317,185.608,364.02,441.825
393.696,385.69,404.199,428.973,182.59,181.451,316.495,393.82
273.344,269.512,284.364,341.521,183.168,181.309,207.495,277.497
105.208,100.155,114.204,188.389,188.444,185.547,50.314,106.621
-38.46,-47.421,-30.53,3.683,194.89,190.741,-84.637,-41.833
-71.004,-82.931,-62.91,-95.312,196.104,191.354,-115.865,-76.202
-9.386,-24.164,-2.079,-67.199,191.26,186.869,-60.691,-14.694
97.605,80.931,104.023,22.144,183.328,179.588,39.05,91.352
246.211,231.782,254.369,156.974,172.733,169.533,184.839,240.593
396.501,387.207,407.291,336.477,162.616,159.855,335.819,394.917
466.915,459.88,476.462,458.3,157.779,155.082,407.243,468.039
451.851,442.591,456.848,474.557,158.791,155.827,391.638,450.64
377.15,365.511,378.056,430.349,164.221,161.213,315.813,371.456
241.665,230.188,238.896,315.389,172.426,169.671,180.59,233.43
117.606,107.532,111.184,155.46,180.219,177.837,57.467,110.328
101.185,91.979,93.26,79.529,183.346,181.572,41.091,97.029
155.465,145.72,148.456,134.579,183.169,181.837,95.555,153.178
146.981,136.052,141.428,186.128,186.171,184.691,91.103,144.182
32.195,21.805,28.474,104.672,193.388,191.9,-14.332,28.935
-77.694,-85.4,-77.993,-39.685,199.819,198.837,-114.907,-79.446
-87.351,-93.046,-83.274,-97.822,201.975,201.03,-120.426,-85.836
