EEG 1,EEG 2,EEG 3,EEG 4,EEG 5,EEG 6,EEG 7,EEG 8
-8.751,0.294,-4.177,-5.403,-5.211,-6.593,-7.128,-13.438
-9.87,-3.339,-5.008,-6.608,-4.295,-8.111,-9.502,-15.265
-10.087,-6.72,-9.403,-10.301,-9.204,-11.55,-15.999,-20.201
-9.768,-5.79,-14.248,-13.02,-15.702,-13.451,-22.016,-24.158
-8.976,-0.899,-16.623,-13.337,-18.403,-13.068,-23.212,-24.669
-10.351,2.63,-18.689,-14.921,-19.642,-14.695,-23.065,-25.676
-10.095,5.664,-17.83,-15.11,-18.636,-15.781,-21.168,-25.539
-5.772,9.539,-13.503,-12.101,-15.494,-14.204,-17.255,-22.91
-0.524,11.911,-10.338,-9.277,-14.017,-12.52,-14.897,-20.671
1.187,9.224,-11.666,-10.003,-16.347,-13.143,-16.446,-21.177
-2.269,0.974,-16.745,-14.702,-21.501,-16.671,-21.187,-24.742
-5.937,-5.614,-19.931,-17.561,-24.781,-18.441,-23.556,-26.475
-9.561,-8.287,-20.25,-16.454,-25.677,-16.686,-21.71,-24.331
-13.563,-8.973,-17.78,-12.674,-23.542,-12.015,-16.623,-18.699
-14.796,-8.474,-12.893,-8.758,-18.508,-6.881,-12.134,-12.724
-15.033,-9.082,-10.363,-8.903,-16.131,-6.355,-13.933,-12.449
-15.142,-9.449,-9.662,-10.544,-15.864,-8.241,-17.878,-15.158
-14.023,-9.599,-9.518,-11.944,-15.239,-10.224,-19.747,-17.231
-10.956,-10.781,-9.629,-13.979,-13.928,-12.852,-19.733,-18.735
-8.766,-12.581,-8.404,-15.965,-11.865,-15.578,-17.288,-19.46
-10.596,-14.023,-6.69,-17.77,-10.24,-17.988,-13.82,-20.088
-12.085,-12.918,-5.956,-18.605,-9.273,-18.746,-11.689,-20.041
-11.869,-13.352,-9.907,-21.213,-12.472,-20.734,-14.179,-21.013
-10.706,-16.379,-16.175,-24.728,-18.806,-23.74,-18.171,-21.899
-9.77,-15.889,-19.254,-25.145,-22.973,-24.004,-19.805,-20.418
-13.41,-11.658,-21.479,-24.623,-25.441,-23.651,-22.283,-19.284
-17.58,-7.759,-23.647,-23.989,-25.932,-23.444,-23.624,-17.856
-17.699,-7.89,-24.93,-23.223,-25.041,-22.942,-21.144,-15.891
-16.407,-10.002,-24.718,-22.031,-23.598,-21.489,-17.015,-14.042
-16.068,-11.056,-22.915,-19.952,-21.237,-18.742,-14.152,-11.511
-15.401,-11.901,-21.186,-17.65,-19.49,-15.72,-12.6,-8.824
-12.561,-11.481,-18.119,-13.254,-17.183,-11.112,-7.998,-5.112
-12.039,-12.247,-14.651,-9.229,-14.228,-7.653,-2.388,-2.482
-14.455,-14.577,-11.973,-7.791,-10.93,-6.893,-0.147,-1.878
-15.192,-14.746,-10.346,-7.405,-8.602,-6.669,-1.253,-1.918
-14.741,-13.987,-11.308,-8.234,-10.039,-7.518,-4.332,-3.374
-15.339,-14.521,-12.424,-9.589,-12.11,-8.851,-6.534,-4.792
-20.505,-19.206,-14.47,-14.128,-14.046,-12.699,-10.351,-7.961
-27.001,-26.202,-18.745,-22.07,-17.164,-19.716,-17.172,-14.468
-27.254,-30.183,-22.704,-28.644,-20.148,-26.315,-23.239,-21.343
-23.229,-31.183,-25.299,-32.838,-22.169,-31.113,-26.693,-26.198
-20.629,-30.61,-26.16,-35.764,-22.033,-33.839,-26.304,-27.388
-23.163,-31.286,-28.962,-40.287,-23.799,-37.593,-25.508,-28.751
-28.02,-32.279,-34.021,-44.152,-29.05,-41.586,-26.675,-31.539
-31.298,-31.212,-37.179,-43.051,-32.82,-41.273,-27.813,-31.054
-34.337,-31.419,-39.296,-40.322,-34.436,-38.421,-29.048,-27.355
-35.704,-33.022,-41.328,-39.05,-35.758,-36.29,-30.455,-24.073
-35.986,-34.113,-42.894,-39.988,-37.432,-37.063,-33.266,-24.934
-37.443,-33.596,-41.443,-40.822,-35.914,-38.571,-35.665,-27.782
-39.34,-33.29,-38.638,-40.808,-32.682,-39.206,-36.327,-30.301
-39.621,-35.9,-40.681,-42.154,-35.427,-40.843,-37.465,-33.66
-35.748,-37.189,-43.173,-40.764,-39.697,-39.656,-35.367,-33.094
-31.912,-36.027,-39.611,-35.287,-36.942,-34.433,-29.21,-27.265
-30.969,-34.607,-30.965,-28.602,-27.369,-27.781,-22.456,-19.626
-31.163,-33.402,-23.104,-22.521,-18.33,-21.227,-16.703,-12.556
-33.048,-32.378,-20.027,-18.42,-15.214,-16.427,-12.805,-8.116
-33.815,-28.592,-17.574,-14.594,-13.695,-12.381,-9.398,-5.243
-31.806,-24.39,-15.278,-12.976,-12.138,-11.205,-8.7,-5.733
-29.015,-23.695,-15.726,-15.573,-12.202,-14.322,-11.464,-10.361
-28.092,-26.162,-17.956,-20.035,-13.716,-18.839,-14.46,-15.528
-28.712,-30.012,-19.62,-22.896,-16.082,-21.111,-16.057,-17.821
-25.543,-31.169,-17.677,-20.834,-15.57,-17.935,-14.576,-14.809
-20.182,-30.501,-15.823,-18.966,-13.341,-15.054,-13.477,-12.315
-15.909,-28.96,-17.092,-21.594,-12.459,-17.474,-14.908,-15.123
-11.902,-25.098,-19.065,-25.473,-12.648,-21.8,-16.711,-20.231
-9.285,-21.146,-20.282,-27.972,-12.812,-24.699,-18.945,-24.446
-8.139,-18.051,-19.366,-27.508,-10.978,-24.423,-20.038,-24.678
-9.983,-17.856,-20.173,-27.248,-12.021,-24.545,-21.155,-23.327
-13.404,-20.331,-23.589,-27.716,-17.229,-25.9,-22.747,-22.473
-15.643,-22.058,-23.332,-24.349,-18.494,-23.754,-20.709,-19.035
-18.377,-22.163,-18.047,-17.505,-13.694,-17.967,-13.451,-12.142
-19.111,-20.162,-13.039,-12.269,-9.098,-13.134,-5.134,-5.605
-17.325,-19.89,-16.059,-15.18,-12.495,-15.551,-5.177,-7.236
-17.113,-22.815,-23.038,-21.259,-19.428,-20.553,-10.967,-13.239
-20.222,-26.391,-24.572,-21.659,-20.871,-19.921,-12.5,-13.849
-24.124,-31.118,-23.542,-20.943,-19.77,-18.519,-12.361,-12.542
-24.708,-35.495,-23.76,-23.274,-19.926,-20.571,-14.311,-13.751
-25.328,-38.726,-24.687,-26.033,-21.403,-23.603,-17.141,-16.047
-26.521,-39.172,-24.332,-25.381,-22.092,-23.565,-18.661,-16.158
-23.886,-36.282,-23.763,-23.377,-21.895,-21.843,-20.053,-15.095
-20.637,-34.802,-26.938,-25.806,-24.503,-24.192,-24.275,-17.639
-20.976,-35.382,-31.175,-29.383,-28.054,-28.133,-27.039,-21.116
-24.865,-36.91,-34.389,-30.165,-30.634,-29.664,-26.061,-22.376
-26.24,-37.036,-36.716,-28.941,-32.038,-28.45,-23.324,-21.544
-21.494,-34.562,-38.415,-29.171,-32.89,-27.814,-21.675,-20.979
-16.137,-33.011,-40.814,-33.264,-35.078,-31.357,-23.76,-23.546
-13.282,-31.943,-40.416,-35.059,-34.986,-33.449,-25.197,-24.644
-13.578,-30.66,-36.13,-31.701,-31.492,-30.568,-23.916,-21.912
-14.838,-28.437,-30.007,-26.407,-26.903,-25.525,-22.213,-17.972
-16.114,-26.112,-25.522,-23.516,-23.844,-23.018,-22.352,-16.984
-21.353,-28.576,-26.439,-26.726,-24.221,-27.221,-26.113,-22.952
-27.801,-33.419,-27.877,-31.503,-22.356,-33.406,-29.451,-30.757
-31.932,-36.245,-26.581,-32.986,-17.401,-35.474,-29.348,-33.463
-34.064,-37.065,-25.113,-30.542,-15.96,-32.036,-25.122,-28.833
-35.256,-39.577,-25.845,-27.88,-20.226,-28.087,-19.439,-22.083
-36.696,-45.837,-28.974,-29.977,-26.013,-30.176,-18.489,-21.466
-37.264,-49.657,-30.77,-33.262,-28.059,-34.394,-20.891,-24.247
-39.537,-49.847,-31.848,-34.965,-29.016,-36.788,-23.403,-25.927
-43.101,-49.887,-32.942,-35.899,-30.098,-37.942,-24.378,-26.178
-44.496,-50.954,-33.619,-37.348,-29.883,-39.333,-24.645,-26.263
-45.745,-52.807,-37.21,-40.409,-32.424,-41.66,-28.184,-27.997
-46.382,-51.072,-42.932,-41.615,-38.201,-41.259,-33.384,-28.964
-46.184,-47.359,-50.109,-42.972,-45.823,-40.981,-39.809,-30.881
-45.96,-46.035,-57.108,-47.55,-52.237,-44.922,-47.49,-35.917
-45.502,-46.032,-59.442,-51.974,-52.982,-49.823,-52.959,-41.209
-45.546,-45.449,-57.147,-54.024,-49.453,-52.919,-55.55,-45.496
-44.541,-43.016,-52.32,-53,-45.176,-52.965,-54.793,-47.45
-44.953,-43.469,-48.844,-51.606,-44.058,-52.236,-51.532,-47.718
-48.673,-48.705,-46.68,-50.348,-44.31,-51.112,-46.697,-45.901
-52.752,-52.57,-43.321,-46.958,-41.936,-47.594,-42.542,-41.575
-54.766,-51.239,-39.494,-41.733,-38.248,-42.225,-40.919,-37.098
-51.686,-44.982,-33.388,-34.01,-32.633,-34.465,-36.815,-31.405
-46.914,-39.841,-27.071,-27.886,-27.07,-28.692,-31.975,-27.725
-45.06,-38.861,-24.265,-26.52,-24.583,-28.233,-32.498,-29.67
-44.847,-39.319,-24.566,-27.091,-24.788,-29.726,-36.92,-33.471
-44.98,-40.521,-27.245,-28.289,-27.641,-31.013,-40.935,-35.159
-44.714,-40.632,-29.649,-28.952,-30.679,-31.146,-41.463,-33.977
-45.131,-38.827,-31.364,-29.931,-32.731,-32.196,-40.832,-34.365
-42.88,-33.877,-30.78,-29.939,-31.348,-33.037,-38.628,-35.513
-35.656,-26.85,-26.001,-26.712,-24.655,-30.151,-32.303,-32.362
-30.176,-23.424,-21.321,-22.991,-18.384,-25.945,-26.952,-27.809
-29.257,-23.344,-20.245,-20.559,-17.599,-23.056,-26.568,-25.728
-31.265,-24.708,-24.685,-21.875,-23.321,-23.972,-30.866,-27.794
-32.288,-25.625,-31.366,-25.888,-30.091,-27.211,-35.275,-31.294
-30.635,-24.09,-35.127,-28.543,-32.904,-29.306,-35.889,-32.292
-30.214,-21.741,-36.029,-29.74,-33.711,-30.804,-34.304,-31.267
-29.429,-19.585,-32.785,-28.233,-31.417,-30.138,-30.461,-27.474
-26.492,-20.041,-26.51,-25.008,-25.802,-27.694,-26.061,-23.044
-23.434,-21.473,-19.207,-20.924,-18.807,-23.999,-22.359,-20.061
-21.943,-20.28,-11.376,-15.135,-11.976,-18.307,-18.204,-17.205
-22.216,-18.92,-5.524,-9.802,-7.576,-13.165,-14.635,-14.572
-20.774,-17.263,-0.763,-5.01,-2.999,-8.483,-11.168,-11.181
-17.678,-13.95,3.399,-1.649,3.133,-4.937,-9.409,-8.922
-14.1,-8.869,6.085,-0.095,8.107,-3.563,-10.29,-9.684
-10.826,-4.664,5.643,0.543,7.331,-3.577,-12.236,-12.335
-10.658,-4.866,1.443,0.137,0.404,-4.263,-14.487,-14.816
-11.202,-4.744,-0.959,1.506,-3.929,-2.519,-14.532,-13.121
-9.686,-1.001,-0.897,4.087,-4.128,0.96,-13.829,-8.764
-4.635,5.14,-0.582,7.09,-4.277,5.221,-12.756,-3.705
2.566,11.266,0.5,10.702,-3.964,9.813,-9.242,1.711
6.677,13.833,0.873,11.429,-2.973,10.762,-5.796,3.712
7.937,14.047,0.508,9.626,-1.269,8.626,-3.968,2.573
7.463,12.634,-1.422,6.544,-1.319,5.104,-5.345,0.055
6.93,11.253,-3.792,3.689,-2.896,2.27,-8.345,-1.294
8.1,11.801,-5.044,1.977,-4.132,1.325,-9.995,-0.405
9.503,12.152,-6.839,-0.055,-6.401,0.226,-11.454,-0.006
12.294,13.836,-6.52,0.233,-6.755,0.892,-10.88,1.562
14.105,17.21,-3.532,2.499,-3.794,2.935,-8.327,3.929
13.055,20.336,0.433,4.44,1.16,4.235,-5.432,5.059
13.076,21.326,5.084,5.773,6.561,4.539,-2.37,5.347
15.736,19.741,9.528,6.416,9.927,4.065,0.129,5
19.971,20.684,15.963,9.888,13.704,7.124,5.003,7.071
22.502,23.498,23.654,15.836,19.064,13.686,12.602,11.696
24.415,25.265,30.423,22.288,25.229,20.916,20.568,17.743
27.614,27.898,34.615,28.434,30.005,27.178,25.176,23.546
28.875,31.456,34.247,31.314,30.034,29.902,23.17,25.021
29.582,34.821,32.844,32.012,28.5,30.745,20.097,23.971
30.673,34.688,31.364,31.475,26.822,30.289,19.494,22.546
30.432,31.669,29.184,30.612,24.739,29.165,19.942,21.589
27.934,29.413,27.229,29.897,23.415,28.453,19.946,20.965
24.191,28.135,24.771,27.53,21.967,26.65,18.283,18.617
24.447,29.015,23.45,25.948,21.212,25.687,16.954,17.078
26.587,29.247,21.395,24.281,18.694,24.255,13.475,15.958
25.391,26.863,17.653,20.789,13.926,20.587,7.485,14.046
21.462,24.158,15.365,17.88,10.855,17.381,5.325,13.366
17.683,21.259,14.066,15.998,9.514,15.496,7.745,13.106
18.253,18.73,12.655,14.423,9.085,14.118,9.269,12.019
20.494,14.992,9.596,10.49,7.258,9.893,4.549,8.003
21.059,12.286,8.229,7.179,6.028,5.597,-0.074,4.264
22.41,15.269,12.307,8.911,9.555,6.417,3.133,5.027
25.794,20.88,17.532,11.725,14.835,9.003,8.69,6.486
30.895,25.363,21.845,14.238,19.523,11.56,12.829,7.546
33.664,26.174,24.682,17.018,22.063,13.967,16.223,9.149
33.627,24.935,26.188,20.169,22.769,16.534,19.365,11.574
33.273,24.403,26.845,23.04,23.262,19.463,21.437,14.162
30.946,22.997,25.404,23.568,22.653,20.601,21.039,15.186
28.933,22.779,24.544,24.17,22.377,21.301,20.715,16.555
29.372,25.207,24.472,25.268,21.683,21.854,19.55,17.268
32.91,30.396,25.721,27.663,21.889,24.007,18.076,18.022
38.698,36.632,29.89,32.577,25.529,29.177,19.069,21.224
40.915,38.582,31.756,34.774,27.558,31.186,18.359,22.146
38.939,37.837,29.093,32.941,26.15,28.43,14.301,19.106
36.219,37.845,25.394,30.696,24.076,25.654,10.981,15.903
36.574,39.603,26.275,32.225,24.624,27.684,14.868,17.906
40.075,41.987,32.113,37.176,28.247,33.417,25.174,25.163
41.521,42.09,36.427,40.299,31.224,37.041,32.093,31.163
41.328,42.185,38.626,41.596,33.534,38.812,34.233,34.74
41.27,42.856,40.131,41.337,34.764,39.117,35.396,36.03
41.967,43.33,41.455,39.563,35.243,37.721,36.515,34.933
43.87,44.496,43.142,37.759,36.9,35.896,35.552,32.185
45.3,45.337,44.573,36.388,38.838,34.045,31.856,28.212
47.089,46.176,47.65,38.329,41.627,35.402,31.804,27.844
48.659,45.883,50.247,42.121,43.658,39.326,35.784,31.409
49.714,45.706,50.105,45.123,43.97,43.218,38.736,35.385
48.975,46.886,47.252,46.39,42.073,45.069,38.265,37.287
43.868,46.011,41.131,44.024,36.154,42.529,34.584,35.716
39.902,44.289,37.353,41.777,32.024,40.204,33.462,35.539
39.511,42.624,37.971,41.463,32.709,40.376,35.675,37.717
39.172,41.23,39.056,41.315,34.508,40.435,36.877,38.683
37.377,41.424,38.579,40.541,34.88,39.134,35.378,37.736
35.807,42.459,37.741,39.336,34.493,37.496,33.438,36.672
39.122,45.075,39.894,40.532,36.687,38.903,36.514,39.042
43.027,44.987,39.978,40.138,36.811,38.965,39.594,40.082
41.576,40.176,34.005,34.826,31.241,34.001,35.405,35.147
38.446,36.597,28.696,30.406,26.579,29.663,28.957,29.486
37.334,36.253,29.082,30.784,27.272,29.386,27.663,28.061
37.961,37.581,33.795,34.596,31.876,31.806,31.887,31.179
37.073,38.044,36.849,36.223,35.077,32.275,33.705,33.36
36.791,39.277,37.992,35.466,36.719,31.125,31.892,33.434
40.256,43.085,40.402,36.16,38.859,31.839,32.346,35.029
42.91,45.512,42.297,36.987,39.086,32.936,34.42,36.293
42.491,45.702,44.792,38.258,39.903,34.756,36.913,36.364
39.562,43.667,47.856,40.135,42.714,37.163,39.033,36.066
38.537,41.474,50.039,43.023,45.404,40.063,40.792,37.387
43.362,42.022,51.262,47.43,46.869,43.885,42.4,40.689
49.566,43.625,50.495,50.721,46.352,46.822,42.154,42.835
53.447,46.724,49.78,53.101,46.061,49.872,42.501,45.07
54.193,50.63,49.76,54.429,46.132,52.311,45.236,48.344
55.498,55.502,52.133,56.266,48.52,54.52,51.653,53.318
60.19,62.283,57.382,59.642,54.529,57.509,58.875,57.938
63.307,66.412,58.692,59.98,56.855,57.537,56.824,55.179
62.439,65.545,53.506,56.944,51.471,54.663,45.087,47.069
57.57,60.436,45.194,52.296,41.566,50.529,33,40.292
50.346,54.932,40.719,48.589,35.79,47.371,29.642,38.001
42.824,50.974,43.668,47.572,39.618,46.63,35.519,39.209
36.099,45.928,48.864,46.87,47.538,45.949,43.188,41.339
35.543,42.605,52.275,46.679,52.658,45.59,48.89,45.313
40.678,42.607,51.743,45.923,51.303,44.334,49.509,47.854
46.438,44.661,50.204,45.025,48.402,42.93,46.946,47.887
50.97,47.913,51.522,46.575,49.402,44.661,48.264,50.629
54.107,51.518,53.324,49.772,50.957,48.523,53.373,56.383
57.928,58.884,56.556,55.672,53.654,54.582,58.202,61.254
60.072,67.793,60.788,62.245,57.831,60.467,57.916,59.878
59.687,71.522,62.528,66.237,59.433,63.636,53.476,54.493
59.09,67.919,60.094,67.102,55.984,64.301,49.673,51.783
56.234,60.752,53.901,64.92,49.039,62.43,46.395,51.135
52.731,58.288,49.867,63.929,45.829,61.832,44.614,51.182
52.027,60.154,50.327,64.621,47.762,63,44.94,51.041
55.604,61.954,53.114,65.007,50.96,63.832,47.39,51.645
60.774,63.024,55.292,64.744,52.267,63.625,50.077,52.977
62.19,62.47,54.476,62.82,50.064,61.4,49.405,51.545
61.581,62.37,54.845,61.64,49.415,59.864,49.506,50.217
60.915,62.803,57.99,61.543,52.471,59.533,53.192,52.154
61.646,63.605,62.134,62.435,56.758,60.369,57.866,56.481
64.833,65.308,65.465,63.798,59.487,61.749,59.732,59.038
66.987,65.709,65.466,62.043,58.856,59.871,57.294,56.005
68.255,66.238,65.011,59.499,58.938,57.142,56.482,52.993
68.635,66.36,64.915,58.017,59.939,55.717,57.844,52.933
67.52,65.094,64.455,57.122,59.761,55.163,57.675,53.326
65.854,64.087,64.453,56.895,59.336,55.529,57.09,53.741
64.552,63.898,64.496,56.936,59.49,56.402,58.301,54.872
67.172,67.196,66.69,60.18,62.704,60.098,63.079,58.524
70.561,71.474,67.662,63.775,64.49,62.925,66.069,60.013
70.273,73.092,64.148,63.697,60.65,61.38,63.435,56.758
69.157,73.483,61.329,63.232,56.91,60.466,60.487,55.182
70.371,73.803,63.367,65.35,58.314,63.552,61.877,58.51
74.547,75.894,69.227,70.342,63.713,69.434,67.523,64.374
75.941,76.974,71.403,73.129,64.97,72.26,70.447,66.428
73.017,74.65,68.154,71.972,60.611,70.976,68.95,64.481
72.022,71.577,65.755,70.887,57.906,69.882,68.566,63.9
73.734,68.98,65.527,69.915,58.133,68.637,68.523,64.238
74.507,67.299,66.006,68.117,59.056,66.426,66.259,63.689
70.637,63.93,63.906,63.576,57.381,61.969,60.143,59.709
65.499,60.963,60.025,58.543,54.014,57.562,52.62,53.598
63.697,63.753,58.78,57.441,53.031,56.701,48.225,49.824
62.313,68.783,59.326,57.777,53.473,56.23,46.639,47.825
61.199,71.56,60.191,57.459,53.936,54.783,47.435,47.144
60.971,70.19,59.252,55.279,52.855,52.482,48.383,46.501
61.734,66.066,57.229,52.061,52.055,50.275,49.271,46.052
62.763,61.128,55.711,49.489,52.765,48.709,50.913,46.572
60.261,54.748,52.155,46.253,50.672,45.74,49.605,45.333
57.613,50.863,49.468,44.93,48.18,44.136,47.483,44.424
60.804,53.127,52.181,48.495,50.461,47.165,50.787,47.893
70.599,62.816,61.619,58.607,59.019,56.551,62.166,57.726
79.625,74.733,72.433,70.777,68.714,67.998,73.76,68.224
78.9,77.314,74.317,74.036,69.798,70.99,73.787,68.395
72.828,70.863,68.147,68.756,63.306,66.014,65.84,60.532
67.732,63.452,60.522,62.426,55.585,60.046,57.569,53.026
63.265,59.512,54.616,58.858,49.631,56.524,49.978,48.586
57.22,57.236,49.397,55.983,44.62,53.698,42.565,44.924
48.752,52.29,42.257,49.702,37.874,47.886,35.491,39.111
42.071,46.87,36.325,43.1,31.779,41.95,30.75,33.593
37.407,42.019,32.207,37.876,27.045,36.977,26.129,28.48
32.514,37.183,27.726,32.385,22.627,31.241,20.54,22.684
27.677,33.508,22.591,26.563,18.143,25.252,15.335,16.858
24.982,31.715,18.497,22.593,14.107,21.438,11.554,12.691
28.404,33.511,20.103,24.066,15.781,23.024,13.729,13.956
31.943,33.554,23.191,25.189,20.788,24.098,17.766,15.521
27.807,27.462,20.676,20.397,21.083,19.327,16.397,12.18
18.62,18.995,13.758,13.663,14.705,12.606,11.749,7.71
11.545,12.481,8.173,10.352,7.193,9.065,9.434,6.005
12.357,12.225,9.683,13.345,7.208,11.918,12.863,8.709
15.347,14.707,12.581,15.875,10.351,14.897,15.5,9.969
13.739,13.443,9.436,12.138,8.14,11.821,12.052,5.779
9.733,8.629,3.614,6.205,3.341,6.015,7.746,0.88
6.307,4.411,0.522,2.916,1.168,2.409,7.178,-0.378
5.153,3.836,1.107,3.718,1.738,3.195,9.204,2.956
1.006,-0.583,-2.018,1.405,-2.309,1.448,5.57,3.347
-10.285,-12.826,-11.819,-8.3,-13.03,-7.583,-5.976,-4.772
-23.39,-24.96,-21.794,-19.651,-23.847,-18.67,-18.121,-17.346
-32.184,-31.975,-27.837,-27.649,-30.859,-26.795,-26.277,-28.574
-35.237,-33.769,-29.287,-29.987,-33.042,-29.158,-28.398,-32.392
-38.053,-34.169,-30.407,-30.305,-34.445,-29.079,-27.649,-30.527
-40.584,-33.85,-32.481,-31.07,-36.237,-29.225,-26.703,-28.046
-38.045,-31.844,-32.822,-30.909,-35.402,-28.277,-24.502,-25.832
-33.756,-31.49,-32.622,-31.002,-33.553,-27.432,-21.896,-24.173
-31.821,-31.732,-31.951,-30.465,-31.993,-26.499,-18.65,-21.91
-34.382,-32.186,-32.71,-30.673,-32.988,-27.259,-17.734,-21.89
-36.965,-32.605,-33.93,-31.734,-34.388,-29.245,-19.24,-24.401
-32.635,-30.515,-31.703,-30.79,-31.347,-29.037,-18.792,-24.951
-26.763,-29.232,-31.634,-31.853,-30.39,-30.65,-20.039,-26.526
-29.093,-32.838,-40.188,-39.178,-39.036,-38.359,-27.885,-33.785
-40.42,-41.489,-53.573,-50.043,-52.726,-49.221,-38.935,-44.582
-48.327,-47.807,-58.98,-54.364,-57.94,-53.121,-42.588,-49.374
-46.409,-46.601,-53.447,-49.297,-52.353,-47.474,-38.695,-45.938
-44.963,-44.153,-49.094,-45.221,-48.101,-42.976,-39.787,-44.012
-47.802,-44.258,-49.635,-45.376,-48.34,-42.955,-45.066,-44.601
-50.09,-46.09,-50.22,-45.791,-48.818,-43.143,-44.884,-42.853
-48.806,-46.603,-47.262,-43.643,-46.398,-40.824,-37.74,-38.506
-46.318,-44.796,-42.619,-40.487,-41.966,-38.04,-31.115,-35.168
-47.26,-45.087,-41.79,-40.455,-40.456,-38.552,-30.739,-34.853
-49.667,-47.579,-42.957,-40.722,-41.102,-38.837,-30.729,-32.554
-53.281,-51.206,-44.182,-39.785,-42.916,-37.699,-28.946,-29.444
-57.41,-54.682,-45.985,-39.751,-45.637,-37.909,-29.924,-31.188
-57.108,-56.778,-48.022,-41.868,-47.63,-40.543,-34.037,-36.706
-53.074,-57.672,-49.955,-45.649,-48.556,-44.325,-37.174,-40.631
-48.943,-53.692,-48.677,-46.106,-46.149,-44.007,-35.266,-38.676
-48.28,-47.915,-46.746,-44.754,-43.467,-41.788,-33.886,-36.408
-50.471,-46.426,-48.227,-46.198,-44.7,-42.911,-37.452,-38.475
-54.106,-49.576,-52.846,-50.497,-49.511,-47.227,-43.233,-42.921
-59.98,-57.082,-59.425,-56.552,-56.155,-53.29,-50.113,-49.417
-62.466,-64.465,-62.436,-59.605,-58.525,-56.682,-54.538,-54.293
-59.334,-67.867,-60.405,-58.332,-56.046,-56.577,-55.204,-54.822
-54.99,-65.721,-56.087,-53.673,-53.126,-53.258,-52.873,-50.162
-53.557,-59.295,-51.663,-46.727,-51.424,-46.472,-47.611,-41.31
-55.963,-54.809,-49.17,-42.33,-50.728,-41.251,-42.033,-34.637
-55.238,-52.137,-45.263,-40.399,-46.83,-39.078,-36.173,-32.155
-48.657,-48.794,-39.893,-39.407,-40.609,-38.675,-31.758,-32.725
-41.921,-46.464,-36.926,-39.036,-37.252,-38.592,-30.684,-34.279
-41.432,-48.695,-37.676,-39.126,-38.513,-38.403,-31.831,-35.486
-47.824,-55.38,-41.522,-40.748,-42.613,-39.811,-34.221,-37.412
-52.298,-58.808,-44.141,-41.385,-44.088,-40.293,-34.314,-36.618
-51.648,-56.798,-44.793,-40.968,-42.959,-39.424,-32.433,-32.703
-50.469,-52.106,-44.426,-40.361,-41.52,-38.452,-31.047,-29.59
-53.14,-48.147,-44.076,-40.245,-40.511,-38.382,-31.825,-30.203
-60.435,-49.75,-46.113,-42.691,-41.496,-40.69,-35.061,-33.559
-64.215,-52.381,-46.365,-42.729,-41.348,-40.041,-33.519,-31.713
-58.975,-50.314,-43.669,-38.95,-39.877,-35.761,-26.653,-25.384
-47.622,-45.381,-41.687,-37.086,-38.725,-34.253,-22.604,-22.997
-38.552,-42.578,-41.977,-39.944,-37.81,-37.755,-25.377,-26.955
-39.248,-44.126,-45.196,-45.663,-40.031,-43.505,-33.536,-34.654
-45.421,-45.712,-48.151,-49.111,-43.91,-46.443,-40.631,-40.917
-51.045,-47.692,-49.27,-50.078,-45.579,-46.95,-43.609,-44.28
-53.05,-51.235,-48.173,-48.488,-43.191,-44.974,-42.02,-42.761
-50.395,-52.341,-45.206,-43.127,-39.627,-38.956,-35.944,-35.068
-46.984,-50.764,-43.667,-38.189,-40.074,-33.387,-29.816,-27.881
-44.602,-48.68,-42.319,-35.431,-41.356,-30.693,-26.271,-25.232
-44.024,-48.72,-39.802,-34.622,-39.987,-30.592,-25.687,-25.957
-42.95,-48.351,-35.348,-33.312,-35.992,-29.988,-24.007,-25.366
-38.311,-44.004,-29.607,-29.941,-31.415,-27.054,-19.046,-21.968
-32.895,-39.344,-26.919,-28.248,-30.083,-25.845,-16.668,-21.101
-28.096,-35.948,-25.709,-27.082,-29.255,-25.133,-17.269,-21.56
-25.242,-33.427,-23.502,-24.492,-26.354,-22.297,-16.947,-19.303
-24.529,-30.632,-20.442,-21.701,-21.823,-18.705,-13.162,-14.112
-24.501,-27.782,-18.076,-21.269,-17.348,-17.878,-8.04,-9.794
-24.442,-28.289,-18.98,-25.789,-16.036,-22.602,-7.954,-11.479
-22.747,-30.735,-21.231,-31.905,-16.774,-28.801,-12.609,-16.706
-24.267,-32.999,-24.694,-36.746,-20.246,-33.277,-19.256,-21.965
-30,-33.119,-28.576,-38.649,-25.882,-34.926,-24.455,-25.075
-33.827,-32.151,-31.052,-37.933,-30.489,-34.561,-26.25,-25.553
-35.944,-34.876,-34.191,-37.929,-34.368,-35.087,-27.629,-26.028
-37.437,-38.747,-36.354,-36.905,-35.549,-34.001,-27.967,-25.294
-39.731,-42.144,-36.859,-35.602,-34.219,-32.129,-27.339,-24.031
-43.701,-46.362,-36.276,-35.604,-32.302,-31.849,-25.941,-22.736
-47.491,-50.363,-34.708,-35.048,-30.993,-31.492,-23.801,-20.797
-49.07,-52.509,-34.085,-34.027,-31.847,-30.729,-23.988,-21.089
-45.687,-49.757,-32.252,-31.349,-31.192,-28.445,-23.889,-21.941
-41.115,-45.716,-29.736,-28.739,-28.876,-26.485,-21.942,-22.045
-38.604,-44.911,-29.151,-27.909,-28.211,-25.686,-20.396,-21.714
-37.202,-46.042,-30.189,-27.588,-29.349,-24.274,-20.704,-20.661
-37.917,-46.079,-30.952,-27.389,-29.773,-23.042,-22.712,-19.699
-37.624,-40.686,-27.237,-25.545,-24.704,-21.135,-21.877,-17.108
-34.806,-33.059,-22.481,-24.97,-18.28,-20.888,-18.998,-16.193
-31.267,-28.733,-21.401,-27.202,-16.317,-23.349,-16.902,-19.387
-29.027,-29.444,-22.224,-29.255,-16.734,-25.728,-15.545,-22.869
-29.511,-34.596,-24.033,-31.537,-17.909,-28.451,-17.375,-25.802
-28.001,-37.095,-25.491,-33.168,-19.115,-30.352,-21.125,-27.283
-23.761,-35.199,-27.356,-34.447,-21.71,-31.627,-24.287,-27.455
-20.288,-32.172,-28.77,-34.56,-24.146,-31.562,-24.605,-25.825
-18.652,-28.786,-26.973,-31.156,-22.821,-28.024,-20.794,-21.624
-18.185,-25.9,-23.072,-26.041,-18.943,-23.211,-15.125,-17.726
-15.284,-22.147,-17.399,-19.755,-13.188,-17.693,-9.136,-14.425
-12.487,-20.554,-13.544,-15.185,-9.004,-13.807,-7.732,-13.115
-13.065,-23.288,-13.164,-13.715,-8.29,-12.657,-10.372,-12.817
-14.547,-25.391,-11.815,-11.85,-6.957,-10.949,-8.695,-9.187
-15.055,-23.215,-7.287,-8.524,-2.284,-7.81,-2.23,-3.445
-13.287,-17.261,-0.487,-4.019,4.845,-3.544,3.388,1.97
-13.798,-15,2.551,-2.486,7.588,-2.088,3.76,3.772
-17.567,-18.777,1.368,-4.208,5.707,-3.756,2.485,1.977
-17.438,-21.48,2.092,-4.344,5.896,-4.117,4.193,0.212
-12.68,-19.957,3.952,-3.426,6.862,-3.505,6.055,-0.272
-7.442,-15.763,4.215,-2.47,5.834,-2.385,6.81,1.997
-5.779,-13.255,1.304,-2.252,2.362,-1.808,5.135,4.216
-5.157,-10.09,-1.149,-0.198,0.41,0.187,2.116,5.421
-0.862,-1.955,1.226,5.814,3.515,5.886,0.783,7.868
3.166,3.769,3.578,8.973,6.484,9.032,-0.589,8.339
2.52,1.525,1.965,5.074,5.822,5.479,-1.512,5.425
-3.159,-5.102,-2.737,-3.682,2.46,-3.005,-2.699,-0.706
-7.633,-8.29,-5.66,-10.768,0.767,-10.398,-4.988,-7.835
-6.874,-6.595,-5.691,-13.695,1.712,-14.195,-7.048,-13.372
-6.649,-6.277,-8.626,-17.335,-0.724,-18.552,-9.034,-18.471
-7.681,-6.764,-11.97,-19.2,-4.931,-20.385,-7.195,-19.398
-7.839,-6.618,-10.789,-15.119,-6.014,-15.624,-1.074,-13.721
-7.138,-6.857,-6.337,-7.368,-3.678,-7.037,4.726,-4.901
-6.736,-7.806,-3.146,-1.624,-1.513,-0.913,6.337,1.797
-9.131,-10.981,-3.638,-0.631,-2.838,-0.372,3.064,3.645
-11.884,-14.359,-3.365,0.919,-3.965,0.308,0.13,4.553
-14.441,-17.415,-2.747,2.56,-4.622,1.353,-2.674,3.063
-17.208,-19.136,-4.16,0.322,-6.325,-1.111,-8.465,-4.103
-18.36,-17.461,-5.366,-3.693,-6.907,-5.148,-14.849,-12.266
-18.427,-14.962,-5.866,-6.503,-6.514,-7.875,-17.831,-15.474
-16.781,-12.302,-5.041,-5.775,-4.933,-7.002,-14.318,-11.958
-16.11,-10.955,-4.553,-4.526,-3.55,-5.489,-8.898,-8.11
-16.949,-11.536,-4.476,-4.666,-2.448,-5.404,-5.612,-6.498
-14.969,-12.862,-4.181,-4.974,-2.216,-5.665,-3.835,-4.35
-12.424,-15.843,-6.605,-7.291,-6.219,-7.859,-4.878,-4.634
-12.901,-17.399,-8.675,-9.518,-9.494,-9.687,-6.533,-7.38
-15.623,-17.105,-8.349,-10.295,-8.752,-9.822,-8.477,-9.408
-16.458,-17.463,-8.472,-10.806,-8.01,-9.51,-11.606,-8.376
-16.987,-19.467,-11.618,-12.443,-10.635,-10.422,-14.609,-6.769
-22.74,-23.428,-18.157,-16.951,-16.107,-14.849,-17.891,-11.066
-27.474,-24.573,-21.963,-20.009,-18.244,-18.795,-19.378,-18.691
-25.529,-22.557,-21.618,-19.804,-17.564,-20.11,-20.186,-24.945
-21.243,-21.796,-21.051,-19.127,-18.799,-20.646,-22.063,-28.166
-20.482,-23.16,-21.059,-19.495,-20.492,-21.112,-22.737,-27.693
-22.885,-23.579,-20.529,-19.91,-20.205,-20.575,-22.12,-25.314
-20.769,-19.129,-17.729,-16.705,-17.926,-16.107,-21.526,-21.324
-15.733,-15.989,-16.217,-13.588,-17.897,-12.157,-23.684,-18.653
-15.008,-19.136,-17.22,-14.305,-19.482,-12.742,-25.189,-17.837
-18.298,-23.16,-17.347,-16.21,-18.256,-14.966,-21.558,-16.869
-21.533,-24.724,-16.741,-18.102,-15.701,-17.257,-17.682,-17.979
-20.977,-23.906,-15.257,-18.581,-13.197,-17.996,-16.005,-19.915
-19.131,-23.009,-14.817,-19.491,-12.376,-18.985,-15.723,-21.6
-16.571,-20.808,-15.472,-21.654,-12.361,-21.144,-15.931,-23.56
-12.044,-16.206,-15.441,-23.157,-11.506,-22.629,-17.073,-26.107
-11.168,-14.527,-16.364,-24.462,-11.919,-23.918,-19.875,-28.745
-13.725,-15.757,-16.605,-23.699,-11.948,-23.112,-18.851,-25.912
-13.967,-16.188,-16.299,-22.089,-11.712,-21.517,-13.914,-18.959
-9.683,-12.531,-15.944,-20.572,-11.783,-20.44,-9.936,-13.295
-5.102,-5.954,-14.391,-16.794,-10.821,-17.62,-8.489,-9.777
-5.091,-4.039,-13.764,-12.776,-10.468,-14.523,-9.686,-9.394
-6.011,-8.076,-13.479,-10.681,-9.772,-12.813,-10.746,-10.665
-7.365,-14.509,-13.406,-11.648,-9.189,-13.707,-11.808,-12.575
-10.357,-17.695,-11.892,-11.513,-8.236,-13.151,-10.682,-11.36
-11.176,-14.952,-6.016,-6.081,-3.612,-6.726,-3.316,-2.807
-9.751,-12.644,0.415,-1.218,2.67,-0.598,4.293,6.864
-8.994,-14.549,3.165,-1.709,6.505,-0.733,5.044,9.393
-11.572,-18.636,0.652,-6.599,4.373,-6.56,-1.136,2.804
-12.469,-17.843,-1.979,-9.388,0.441,-10.358,-6.104,-4.284
-6.103,-9.323,0.128,-6.724,0.668,-7.871,-5.421,-4.772
1.225,-1.692,2.168,-4.709,1.529,-5.682,-5.119,-4.144
3.814,-0.234,1.906,-5.181,1.084,-6.242,-5.638,-5.23
1.675,-4.429,-0.023,-7.421,-0.172,-8.7,-4.971,-7.504
-0.971,-9.286,-2.089,-10.482,-1.072,-11.758,-4.219,-10.411
-1.819,-9.661,-2.19,-11.719,-0.288,-12.669,-4.003,-11.965
-3.043,-7.108,-0.703,-10.529,1.234,-10.973,-4.292,-11.307
-1.023,-2.169,3.769,-5.995,5.321,-6.081,-2.288,-6.686
4.521,4.122,8.628,-1.263,9.921,-1.293,1.485,-0.48
8.782,10.293,11.142,1.899,11.981,1.939,5.625,4.802
10.497,14.593,12.567,4.863,12.624,5.183,8.163,7.706
10.087,13.91,12.443,5.492,11.958,5.652,5.79,5.117
9.972,10.932,11.378,4.11,11.033,3.147,2.254,0.241
8.762,6.709,7.706,0.71,7.983,-1.513,-1.376,-4.802
4.896,0.417,2.094,-3.661,2.81,-6.227,-6.312,-9.841
-0.074,-6.566,-1.665,-6.381,-0.914,-8.333,-9.652,-12.535
-5.436,-12.91,-4.464,-8.459,-3.883,-9.349,-10.969,-13.303
-8.69,-15.275,-7.24,-9.998,-7.083,-9.829,-12.422,-14.016
-11.96,-16.037,-12.185,-13.448,-12.268,-12.375,-18.845,-19.074
-16.81,-18.299,-17.804,-18.456,-16.971,-16.788,-27.528,-26.311
-20.447,-20.829,-20.336,-21.286,-17.83,-19.61,-31.02,-29.148
-24.669,-23.46,-23.087,-23.725,-20.174,-22.419,-31.96,-29.807
-30.469,-23.615,-27.448,-26.456,-26.017,-25.341,-33.84,-31.367
-34.841,-23.124,-32.131,-29.931,-31.948,-28.639,-36.63,-35.059
-32.447,-25.856,-34.524,-33.42,-33.731,-31.807,-37.447,-38.41
-24.507,-29.579,-32.705,-34.193,-30.59,-32.478,-32.672,-36.598
-17.979,-29.089,-28.585,-31.499,-26.288,-29.903,-22.869,-28.937
-11.641,-20.424,-22.544,-24.28,-21.407,-22.376,-12.425,-16.81
-6.63,-10.872,-18.249,-18.153,-18.123,-15.232,-11.39,-8.417
-7.112,-8.953,-17.273,-18.19,-16.45,-14.42,-19.04,-8.625
-9.701,-12.452,-16.754,-21.682,-14.406,-18.039,-24.666,-13.256
-9.185,-15.003,-17.007,-25.679,-14.805,-22.851,-27.508,-19.194
-4.691,-11.646,-15.518,-26.178,-14.748,-24.331,-27.02,-21.016
-4.32,-7.92,-11.419,-23.404,-10.87,-22.562,-20.295,-17.451
-12.682,-10.411,-7.121,-19.713,-5.731,-19.638,-10.258,-13.199
-22.69,-15.494,-5.969,-17.261,-4.187,-17.244,-5.99,-12.496
-25.854,-17.628,-10.922,-19.355,-8.933,-18.591,-12.267,-16.638
-19.844,-14.933,-16.033,-20.873,-14.128,-19.061,-17.929,-18.422
-12.627,-11.605,-17.014,-17.109,-16.796,-14.668,-15.769,-14.496
-7.668,-6.84,-15.34,-10.232,-17.493,-7.824,-11.52,-9.326
-1.197,4.083,-12.116,-3.749,-14.742,-1.515,-9.683,-6.236
5.84,16.148,-8.15,0.357,-9.64,2.759,-8.311,-4.889
13.542,23.123,-1.527,4.604,-2.707,7.187,-2.351,-1.244
20.062,24.412,5.349,8.14,3.38,10.403,4.87,2.992
23.036,25.504,9.574,10.196,7.303,11.674,9.061,6.22
24.595,28.873,11.839,12.503,10.278,13.064,12.051,10.858
27.312,30.719,12.16,13.772,11.783,13.619,13.897,14.72
32.874,33.584,14.16,15.103,15.359,14.512,15.151,16.294
35.538,38.591,17.989,16.152,20.987,15.12,15.509,15.847
31.703,42.765,20.478,16.697,24.041,15.254,16.309,16.31
25.798,43.146,20.051,17.01,21.939,15.402,18.027,17.379
21.452,36.552,16.91,15.27,16.08,13.412,16.986,14.172
21.993,28.597,17.12,15.847,14.262,13.509,16.651,11.936
24.099,25.854,21.723,20.278,18.225,17.769,20.654,15.457
23.765,28.063,26.803,25.062,23.77,22.79,27.198,21.291
23.688,30.378,31.124,28.961,28.89,26.786,33.51,26.233
24.738,29.28,34.771,32.451,33.332,29.974,38.244,30.658
25.511,28.993,39.206,37.567,38.385,34.699,43.215,37.749
23.292,29.907,40.519,40.252,39.574,37.569,44.636,43.367
21.922,29.986,37.831,38.766,36.259,37.238,41.437,44.358
26.762,30.586,36.664,38.441,34.964,38.431,39.234,44.618
32.18,32.502,37.623,40.279,36.658,41.053,38.551,44.614
32.811,37.495,39.201,42.676,39.793,43.105,38.431,43.882
28.877,41.019,36.734,41.391,38.878,41.112,35.941,40.681
24.941,38.007,29.208,35.755,31.208,35.39,30.659,35.735
22.356,30.473,23.037,29.556,23.449,29.473,26.871,31.466
16.473,22.053,20.343,22.823,20.155,22.441,25.153,25.763
9.324,16.822,18.119,16.243,19.188,15.348,23.957,19.255
4.219,13.466,11.148,8.985,13.444,8.497,19.077,12.408
2.497,11.547,1.75,2.097,3.408,2.671,11.285,6.249
2.522,11.645,-3.562,-1.054,-3.913,0.157,5.873,3.172
-1.825,8.711,-5.527,-1.566,-7.709,-0.378,3.456,2.62
-7.928,3.687,-4.608,0.278,-7.566,1.041,5.593,5.877
-10.204,0.046,-1.776,1.955,-4.106,2.008,10.232,9.87
-8.935,-2.098,1.55,1.672,0.459,1.012,12.523,10.159
-9.305,-4.655,3.002,0.098,2.193,-0.721,9.593,6.991
-15.479,-9.576,-1.661,-4.656,-2.991,-4.793,0.574,1.472
-21.186,-13.179,-7.927,-10.112,-9.444,-9.18,-7.637,-2.967
-21.911,-14.387,-10.171,-13.078,-11.812,-11.523,-10.677,-6.757
-19.428,-13.136,-7.516,-11.666,-9.474,-10.31,-9.661,-9.619
-16.687,-9.524,-2.968,-7.648,-4.431,-6.835,-6.747,-9.094
-17.667,-9.477,-3.206,-8.134,-3.324,-7.298,-6.713,-9.216
-22.291,-14.642,-8.768,-13.008,-8.398,-11.114,-11.011,-12.674
-29.508,-22.104,-16.524,-18.114,-17.16,-14.78,-18.32,-18.309
-33.232,-25.685,-21.021,-19.199,-22.375,-15.366,-22.398,-20.828
-27.992,-22.218,-20.004,-15.577,-20.939,-12.456,-19.725,-17.899
-20.866,-16.805,-19.236,-13.011,-20.33,-10.562,-16.631,-15.536
-17.685,-10.264,-18.58,-11.873,-20.83,-9.244,-14.448,-14.88
-17,-4.074,-15.593,-11.167,-18.385,-8.386,-12.198,-15.382
-13.573,-2.128,-10.83,-10.612,-13.622,-8.606,-10.382,-16.634
-7.845,-3.655,-6.557,-9.634,-9.925,-8.77,-9.204,-17.158
-7.794,-6.102,-6.573,-11.025,-10.454,-10.847,-10.886,-19.054
-11.728,-7.267,-8.813,-13.943,-12.051,-13.801,-13.911,-21.839
-14.152,-9.891,-11.207,-17.684,-13.329,-16.932,-18.092,-25.658
-14.967,-12.24,-12.513,-20.972,-14.183,-19.445,-22.105,-28.957
-15.834,-9.549,-11.614,-21.131,-13.008,-19.332,-21.497,-27.57
-16.393,-7.001,-10.794,-19.653,-11.269,-17.98,-17.565,-23.38
-13.31,-8.14,-9.275,-16.7,-9.015,-15.098,-13.157,-19.071
-9.998,-9.954,-8.319,-14.291,-8.706,-12.658,-11.892,-17.117
-8.611,-7.755,-9.034,-13.625,-10.868,-11.877,-14.126,-17.122
-7.072,-3.528,-10.004,-13.364,-12.784,-11.207,-18.489,-18.17
-8.305,-5.105,-12.919,-14.629,-16.242,-11.907,-26.497,-22.51
-10.565,-9.595,-15.739,-14.567,-19.819,-11.431,-31.968,-24.884
-10.834,-11.653,-17.599,-12.801,-22.322,-9.449,-30.986,-22.497
-11.736,-12.429,-21.188,-13.888,-25.588,-10.619,-30.451,-22.234
-16.834,-14.548,-27.273,-19.916,-30.046,-16.84,-35.421,-28.273
-23.277,-18.168,-33.263,-27.388,-34.287,-24.157,-41.089,-35.123
-21.535,-18.324,-33.269,-28.912,-33.922,-25.581,-40.369,-34.835
-15.007,-16.326,-30.141,-27.417,-31.189,-24.79,-39.169,-33.073
-13.729,-16.502,-29.217,-28.716,-29.987,-27.363,-42.121,-35.882
-16.349,-17.201,-28.586,-30.213,-28.862,-29.809,-43.223,-37.933
-17.14,-16.156,-26.697,-29.691,-27.549,-29.567,-41.446,-36.962
-13.959,-13.067,-22.775,-27.44,-24.728,-27.454,-39.012,-35.201
-12.452,-13.096,-19.521,-26.8,-21.366,-27.132,-37.216,-35.055
-14.599,-16.334,-18.503,-26.891,-18.896,-27.307,-34.733,-34.214
-14.434,-15.93,-17.77,-23.898,-16.928,-23.988,-31.138,-30.496
-10.759,-12.056,-17.408,-20.292,-16.742,-20.077,-29.72,-27.414
-6.461,-8.688,-16.58,-17.899,-17.229,-17.692,-29.036,-24.918
-5.759,-8.819,-17.214,-17.511,-18.879,-17.385,-28.108,-22.848
-7.454,-9.101,-19.352,-17.35,-20.777,-16.961,-27.101,-21.277
-7.45,-6.113,-19.554,-15.509,-20.015,-14.409,-25.873,-19.474
-7.749,-4.616,-18.743,-15.252,-18.248,-13.423,-27.174,-19.584
-8.822,-5.09,-17.844,-16.11,-16.506,-14.051,-30.455,-20.423
-8.714,-5.281,-18.058,-16.141,-16.368,-14.224,-34.224,-20.561
-4.906,-4.307,-18.026,-14.411,-16.693,-12.709,-35.511,-19.476
0.452,-2.093,-16.216,-12.31,-14.935,-11.065,-33.317,-18.895
0.822,-1.429,-15.634,-13.355,-13.807,-12.783,-31.498,-21.883
-2.911,-3.143,-15.375,-15.349,-13.649,-15.26,-28.473,-24.143
-9.192,-7.831,-14.851,-16.997,-13.905,-17.069,-23.684,-23.066
-15.672,-11.595,-13.807,-16.646,-13.329,-16.495,-18.557,-18.466
-16.614,-9.983,-11.901,-13.263,-11.799,-12.374,-13.893,-11.284
-12.017,-7.741,-12.513,-12.954,-13.072,-11.358,-13.352,-7.914
-6.309,-8.723,-14.582,-16.472,-15.43,-14.949,-15.687,-9.287
-5.215,-12.283,-16.219,-19.423,-16.806,-18.429,-18.27,-12.075
-7.228,-13.502,-15.984,-18.436,-16.651,-17.862,-19.136,-12.541
-8.484,-10.693,-13.715,-14.674,-14.99,-14.627,-18.328,-9.889
-10.868,-9.314,-12.962,-12.942,-14.327,-13.603,-19.523,-8.728
-11.317,-8.703,-11.805,-11.713,-12.094,-12.749,-19.674,-8.685
-7.895,-7.677,-8.855,-10.201,-7.379,-10.771,-16.326,-8.227
-3.528,-8.08,-5.964,-9.937,-2.871,-9.256,-13.454,-8.182
-1.503,-10.489,-4.65,-11.285,-0.352,-9.54,-15.294,-10.304
-4.13,-14.233,-5.904,-14.1,-0.724,-12.457,-19.295,-14.015
-7.139,-14.76,-6.693,-13.992,-1.209,-12.966,-15.731,-11.823
-8.74,-12.762,-8.071,-12.215,-2.755,-10.93,-7.384,-4.947
-10.809,-11.628,-11.972,-13.056,-6.898,-10.818,-5.892,-2.497
-13.128,-11.369,-16.268,-15.368,-11.838,-12.742,-12.452,-6.379
-13.503,-10.824,-18.415,-15.946,-15.085,-13.858,-18.184,-10.437
-8.809,-7.374,-14.983,-12.027,-12.095,-10.756,-16.785,-8.407
-5.235,-6.053,-10.669,-9.17,-7.098,-8.48,-15.914,-6.272
-7.841,-10.942,-10.469,-11.013,-6.649,-10.721,-18.433,-8.394
-11.853,-17.171,-10.989,-12.556,-8.482,-12.423,-15.813,-8.269
-13.576,-20.472,-9.847,-12.025,-8.632,-11.64,-8.802,-4.52
-12.285,-18.728,-8.294,-11.104,-6.836,-10.556,-6.187,-2.884
-13.079,-16.218,-12.008,-13.859,-9.856,-13.701,-12.858,-8.601
-16.813,-15.493,-19.169,-18.837,-17.464,-19.02,-20.149,-15.843
-17.092,-14.215,-21.081,-20.636,-20.635,-20.519,-18.757,-16.591
-14.223,-14.437,-17.7,-19.63,-17.664,-19.087,-13.676,-13.838
-11.475,-16.272,-13.063,-16.672,-12.147,-16.366,-9.979,-11.009
-11.174,-18.672,-11.954,-15.302,-10.472,-15.981,-9.247,-10.87
-10.566,-19.654,-13.331,-16.307,-12.55,-18.12,-9.347,-12.391
-6.35,-17.832,-11.867,-15.597,-11.537,-18.034,-6.871,-11.303
-3.296,-15.265,-8.63,-13.101,-7.141,-15.587,-4.203,-9.183
-3.811,-9.837,-5.243,-9.303,-2.356,-11.54,-2.106,-7.368
-5.913,-3.027,-4.052,-7.748,-1.367,-9.609,-1.669,-7.555
-4.878,0.089,-5.17,-9.935,-3.626,-11.497,-3.986,-9.585
-0.977,-2.218,-6.687,-12.897,-5.497,-14.282,-8.346,-11.384
-2.07,-8.325,-9.607,-16.273,-7.673,-17.46,-12.787,-13.581
-6.661,-11.538,-10.475,-17.56,-7.484,-18.599,-11.061,-13.558
-9.104,-11.563,-7.702,-16.454,-4.187,-17.545,-4.829,-11.366
-7.563,-11.231,-2.84,-13.403,0.337,-14.81,0.794,-8.206
-3.543,-9.205,2.793,-7.461,5.062,-9.551,6.125,-3.369
-0.769,-6.01,5.903,-1.116,6.798,-3.861,10.315,1.481
3.021,-0.979,7.971,5.936,7.098,3.415,13.958,8.08
7.363,4.519,10.207,12.654,7.943,10.986,15.778,14.622
8.609,8.777,12.192,16.331,9.634,14.911,14.79,16.037
7.132,10.732,13.674,15.24,11.941,13.288,13.026,11.779
4.01,7.285,12.467,8.169,12.165,5.675,9.413,3.21
1.983,1.538,9.846,0.884,10.688,-1.726,2.36,-5.902
0.869,-3.633,5.994,-2.605,7.395,-4.817,-8.735,-13.228
0.162,-7.865,1.576,-3.159,3.502,-4.745,-17.002,-15.457
-2.01,-11.214,-3.213,-4.036,-0.892,-5.154,-17.074,-12.842
-9.228,-15.647,-10.661,-8.412,-8.804,-9.182,-15.684,-12.541
-14.078,-17.771,-14.642,-10.66,-13.905,-11.288,-14.962,-13.239
-10.7,-15.929,-10.812,-8.046,-10.718,-9.168,-12.158,-10.873
-3.283,-11.753,-1.783,-2.808,-1.005,-5.013,-5.618,-5.43
1.082,-6.732,7.971,3.984,9.95,0.941,3.113,1.138
-1.919,-3.667,12.15,8.77,13.839,5.899,7.994,4.986
-4.929,-1.172,11.239,10.518,11.345,8.682,8.699,6.813
-1.42,0.089,8.597,8.923,8.485,8.081,6.943,6.461
6.192,0.119,7.767,7.156,9.316,6.5,5.55,5.512
12.847,2.259,10.555,9.994,13.186,8.861,7.122,8.103
15.06,5.291,13.084,14.463,15.073,12.922,8.108,11.525
15.868,8.971,15.145,17.731,16.317,16.083,8.183,13.135
16.969,12.786,17.872,18.877,19.504,16.958,9.537,12.89
18.697,16.197,22.189,19.787,25.175,17.218,14.642,14.035
20.952,18.729,26.755,21.844,30.807,18.751,21.995,17.373
20.68,18.196,25.838,21.2,30.105,18.007,24.215,16.865
19.856,17.244,21.302,18.428,25.07,15.157,22.223,12.996
19.058,15.782,17.228,15.029,19.779,11.554,20.363,9.629
16.479,12.769,14.194,12.63,14.846,9.268,19.968,9.303
12.065,10.465,11.534,13.46,10.921,10.779,20.708,12.399
6.781,8.548,8.859,15.503,8.945,13.698,20.787,15.537
6.789,8.553,9.557,17.766,11.081,16.599,21.249,18.64
11.753,9.518,11.415,17.567,13.062,17.004,19.858,19.863
14.616,8.86,11.914,15.035,12.49,15.262,16.723,18.45
13.914,6.727,13.407,13.247,13.02,13.861,15.146,16.118
13.648,4.142,15.242,10.762,14.618,10.746,12.783,11.271
16.659,4.206,18.01,9.443,18.01,8.054,11.432,7.307
15.389,3.466,19.947,10.194,21.196,7.372,13.983,6.889
7.791,-0.673,19.148,11.114,21.331,7.282,18.737,8.167
4.38,-3.068,17.072,10.846,19.153,6.77,21.389,8.631
6.895,-2.951,12.977,7.783,14.229,4.156,18.349,6.221
7.423,-3.514,8.058,5.198,8.363,2.281,13.826,4.893
0.734,-8.292,2.468,3.478,1.978,1.487,8.975,5.078
-6.732,-15.007,-3.121,0.305,-4.067,-0.773,1.331,3.17
-8.639,-19.409,-6.916,-4.576,-7.594,-5.684,-6.785,-0.597
-10.297,-22.388,-10.168,-10.893,-9.618,-12.908,-11.898,-3.927
-13.401,-21.874,-10.732,-13.579,-8.224,-16.042,-11.28,-3.77
-15.621,-18.346,-8.87,-11.869,-4.219,-14.252,-8.631,-4.093
-15.334,-14.997,-8.123,-9.866,-2.2,-12.859,-8.041,-9.105
-12.687,-13.082,-10.648,-9.816,-5.165,-13.899,-9.819,-16.538
-11.462,-14.672,-15.813,-11.875,-11.452,-16.351,-12.644,-22.889
-10.957,-17.684,-16.7,-11.386,-12.702,-15.722,-9.041,-22.244
-10.19,-19.864,-12.829,-8.29,-8.984,-12.599,1.364,-14.646
-9.179,-18.728,-8.835,-5.177,-5.675,-9.204,10.621,-4.507
-8.301,-13.765,-5.925,-2.279,-3.588,-5.248,13.71,4.814
-10.65,-11.187,-5.496,-1.615,-4.309,-3.105,9.762,9.125
-14.936,-12.713,-5.902,-1.737,-6.253,-2.264,5.164,10.211
-18.807,-15.618,-5.911,-1.43,-6.688,-1.992,3.921,11.022
-19.112,-15.625,-3.832,0.205,-3.305,-0.871,4.677,13.145
-15.806,-12.14,1.286,4.087,2.772,2.902,7.182,17.432
-14.71,-10.446,5.074,7.597,5.504,6.92,12.029,21.188
-14.815,-10.096,5.608,9.46,4.193,9.419,18.306,22.034
-14.099,-9.58,2.003,7.383,-0.632,7.789,19.074,17.031
-12.052,-7.669,-2.227,4.403,-5.691,5.101,14.259,10.284
-7.007,-2.867,-0.971,6.685,-4.584,7.514,12.087,9.211
0.365,3.238,5.572,12.648,3.171,13.406,15.325,13.627
10.305,11.834,15.841,20.551,14.564,21.029,23.099,22.537
17.081,19.273,23.135,26.632,20.937,26.884,28.375,30.176
16.745,20.93,22.797,28.162,18.785,28.749,27.584,31.764
15.631,19.775,19.937,27.88,16.272,29.111,26.808,31.258
18.464,20.115,19.103,27.571,18.391,28.83,27.736,31.489
25.488,25.899,22.211,30.38,24.179,31.136,28.958,34.003
31.102,33.439,26.184,35.487,28.298,36.132,30.506,37.841
32.999,37.457,29.392,40.107,29.815,41.114,35.988,42.201
35.641,39.221,33.798,43.869,32.445,45.209,45.012,46.392
38.769,40.728,37.855,45.342,35.286,46.828,49.435,47.054
41.619,44.612,42.35,46.453,39.041,47.826,49.804,46.916
45.083,48.623,47.478,47.688,44.19,48.467,51.6,48.443
50.659,50.855,53.02,49.424,50.765,49.152,56.751,51.234
56.603,53.576,58.704,53.11,57.406,51.631,62.606,54.802
58.977,55.562,61.016,56.223,58.979,53.524,63.68,56.364
60.84,56.128,61.073,58.141,57.314,54.631,61.85,56.54
61.401,54.283,59.234,57.027,55.154,53.994,59.331,55.135
57.141,51.482,55.28,53.06,52.695,51.726,56.154,52.303
51.116,50.559,52.255,50.201,51.307,50.417,53.613,50.096
47.58,49.824,50.712,48.977,49.922,49.541,51.389,48.546
48.555,48.858,49.889,49.617,47.601,49.516,49.987,49.061
48.146,45.449,46.008,48.807,42.266,47.604,46.2,47.994
42.711,40.591,40.28,45.736,36.57,43.513,40.543,43.957
37.303,39.262,37.997,44.402,35.177,42.085,39.016,42.788
35.506,40.097,36.473,43.744,34.471,42.345,39.582,43.982
38.08,41.65,32.932,42.918,31.754,42.354,37.423,43.692
40.184,42.488,27.544,41.685,26.743,41.509,31.22,40.388
39.68,41.554,23.909,41.301,21.771,41.677,26.31,38.155
39.334,38.928,24.774,42.331,19.979,43.375,26.609,39.74
38.141,34.479,27.069,41.38,20.725,42.608,27.093,40.216
37.17,32.973,31.018,40.416,25.511,41.204,26.989,39.172
36.683,35.516,35.95,41.037,32.262,40.845,28.246,38.176
37.501,40.564,41.04,43.125,38.367,41.386,32.183,38.2
41.131,46.093,46.364,45.575,43.975,42.026,37.456,38.457
42.107,45.769,46.447,42.446,44.227,37.668,36.293,33.483
37.928,40.328,40.656,34.953,38.019,30.278,27.735,25.059
32.892,35.689,35.325,30.216,31.788,26.608,19.995,20.045
34.06,37.121,36.937,32.987,32.789,30.16,21.909,22.933
40.908,43.322,41.492,39.312,36.479,36.447,28.299,28.562
43.75,45.046,38.225,39.933,31.928,36.893,25.057,26.05
41.119,41.366,31.239,37.015,24.888,34.277,17.766,19.805
36.732,37.015,28.728,35.202,24.275,32.829,17.702,18.303
34.121,35.071,28.88,33.413,26.756,31.02,20.465,19.803
34.139,35.06,26.028,30.092,25.199,27.859,18.665,20.064
32.64,33.841,19.384,25.738,19.075,24.14,15.988,19.137
31.581,34.737,16.371,25.34,16.394,24.072,20.957,21.577
32.729,38.245,16.914,27.313,16.599,25.819,26.558,24.01
32.788,39.543,15.803,26.959,14.467,25.531,23.176,22.002
30.372,36.928,14.959,26.258,13.139,25.441,17.696,20.582
28.803,33.812,18.717,28.913,17.135,28.494,19.868,24.151
33.038,36.574,28.133,36.399,26.455,35.988,28.426,31.309
37.279,40.938,34.965,41.467,32.755,41.33,31.803,34.531
36.072,40.37,34.72,39.097,32.129,39.493,27.837,31.803
33.528,37.263,32.696,33.649,30.135,33.993,24.451,27.412
31.625,34.548,31.83,28.932,29.772,28.546,22.82,22.41
31.178,34.089,33.717,27.885,32.006,27.114,23.037,20.608
31.567,33.349,36.31,28.794,34.154,28.22,25.303,23.263
32.599,32.223,38.183,30.289,35.718,29.359,29.122,27.13
32.906,34.062,40.146,33.06,38.673,30.977,32.581,29.038
30.441,37.166,39.497,34.027,39.552,31.2,31.764,27.368
31.95,40.809,36.578,33.443,36.932,30.933,28.061,25.656
37.808,42.287,31.846,31.489,30.799,30.056,22.141,23.705
40.432,40.614,27.191,29.048,24.72,29.13,16.512,21.341
39.38,39.542,24.952,27.808,22.987,29.442,15.489,20.899
38.879,39.187,22.385,25.381,22.199,27.916,16.781,19.884
41.772,39.407,20.469,23.245,21.354,25.695,18.898,18.258
42.766,38.279,19.467,21.911,20.792,23.858,19.319,15.897
39.306,36.326,18.303,20.441,20.509,21.99,16.107,12.307
35.953,36.236,17.928,19.626,20.925,20.662,11.346,8.919
31.972,34.63,17.341,18.424,19.823,18.834,7.672,6.61
26.008,30.625,16.986,17.907,18.145,18.093,9.275,8.185
18.761,25.903,14.311,16.14,14.902,16.751,11.897,9.535
14.952,22.838,8.908,12.485,9.623,13.949,9.723,6.716
17.905,21.731,5.939,10.962,6.373,13.406,6.18,5.143
20.756,19.071,6.778,11.567,6.966,15.051,5.311,8.399
18.942,17.134,10.815,13.323,11.823,17.736,9.304,15.523
15.099,17.346,14.155,13.586,16.445,18.331,14.308,20.868
15.344,19.429,15.89,13.256,18.773,17.633,16.508,22.796
18.538,23.575,18.761,16.035,21.273,19.829,17.697,25.061
16.426,25.377,20.291,18.831,21.57,22.321,19.305,27.023
12.909,23.461,19.872,18.977,19.999,22.534,22.287,27.687
12.916,18.23,17.133,15.302,17.348,19.149,22.041,24.874
12.89,12.437,12.78,10.864,13.533,15.147,17.649,20.521
10.87,9.624,9.578,10.058,10.235,14.707,15.046,19.425
8.012,7.989,6.22,9.669,7.029,14.245,12.954,18.178
8.08,8.858,3.932,9.003,5.799,13.011,9.688,15.351
10.885,13.32,4.239,10.129,6.902,13.283,8.368,14.115
16.178,19.494,7.253,14.05,9.671,16.318,12.598,17.257
23.873,24.005,11.03,18.422,12.864,20.163,17.67,21.932
28.08,23.295,11.379,17.944,12.643,19.68,14.263,20.694
28.059,22.065,11.602,15.43,11.968,17.097,7.466,15.852
26.009,23.09,13.735,14.458,13.093,15.37,5.291,12.823
22.883,23.624,14.825,14.135,13.892,13.948,6.371,12.107
20.376,22.518,14.06,12.89,14.28,12.146,7.02,11.602
21.037,21.493,13.943,11.411,15.927,10.928,8.122,11.394
28.246,25.723,19.314,15.681,21.464,15.759,15.628,17.987
34.035,31.119,24.313,21.896,24.764,22.57,23.561,27.089
29.887,29.768,20.017,20.352,18.755,21.817,20.515,26.292
21.602,23.416,9.504,12.099,7.362,14.069,9.587,15.501
17.049,17.855,0.876,4.694,-1.443,6.162,1.707,4.952
17.814,16.817,-0.817,3.324,-2.359,3.726,1.195,2.382
16.653,14.63,-0.733,2.633,-0.608,2.446,0.044,2.632
9.705,7.164,-3.366,-1.422,-1.785,-1.646,-4.239,1.273
2.233,-0.571,-5.585,-4.625,-3.887,-4.911,-4.911,1.591
-3.265,-6.187,-7.564,-6.405,-6.979,-6.876,-3.622,2.382
-7.222,-9.861,-11.268,-8.73,-11.927,-9.399,-5.902,0.583
-11.397,-13.37,-17.59,-13.705,-18.818,-14.718,-13.127,-5.494
-12.924,-14.522,-21.522,-17.416,-23.058,-18.781,-18.529,-10.734
-9.076,-9.637,-18.44,-14.767,-20.712,-16.241,-16.303,-9.743
-5.682,-3.188,-13.2,-10.252,-16.188,-12.009,-11.923,-7.982
-5.214,-0.103,-9.331,-7.392,-12.226,-9.98,-9.473,-8.518
-6.389,-2.758,-8.289,-6.84,-10.364,-10.147,-9.492,-9.652
-6.22,-7.175,-8.245,-7.226,-9.449,-10.32,-10.264,-9.282
-3.287,-7.579,-5.663,-6.751,-6.458,-8.911,-8.552,-6.821
-1.447,-5.801,-2.772,-6.819,-3.553,-8.139,-5.322,-4.67
0.077,-2.772,-0.772,-5.635,-1.867,-6.689,-2.963,-2.785
1.908,0.239,-0.043,-3.135,-2.264,-4.703,-3.908,-2.889
3.127,1.898,1.663,0.022,-2.413,-2.854,-3.849,-3.858
4.053,2.439,5.895,3.766,0.737,-0.332,0.283,-2.016
3.953,1.498,8.32,5.226,3.974,1.214,2.3,0.787
6.331,3.026,10.342,6.663,7.71,3.821,3.585,4.912
11.606,7.582,13.993,9.832,12.042,7.822,8.195,9.644
16.974,13.969,17.021,14.255,14.072,12.192,14.131,13.643
20.318,21.772,16.851,18.983,12.639,16.672,17.622,17.876
18.464,25.191,13.011,20.77,8.944,18.375,16.497,20.704
13.999,22.256,11.05,21.211,7.825,18.666,14.873,22.022
9.571,16.756,11.673,21.463,8.118,18.916,14.51,20.973
7.474,15.333,13.111,23.026,8.597,20.938,15.376,19.755
10.526,19.265,15.525,27.092,10.794,25.502,17.025,21.55
15.608,21.659,15.744,28.735,10.398,27.209,15.74,22.68
19.529,21.807,15.183,27.73,8.397,26.137,14.499,22.828
19.805,20.549,15.082,25.516,8.354,24.117,16.047,22.677
19.285,17.991,14.176,21.906,9.227,20.599,18.322,20.989
22.655,17.134,12.595,17.512,8.344,15.652,18.354,16.686
27.319,19.742,10.814,13.821,5.274,11.019,15.183,11.361
33.166,27.542,13.231,16.94,6.35,13.797,16.506,14.391
39.851,36.235,18.709,24.756,11.716,22.292,23.638,24.862
44.398,41.417,22.346,29.148,15.682,27.465,28.398,31.265
44.837,43.617,23.975,29.588,17.087,27.915,27.29,30.492
41.973,42.82,24.544,29.574,17.306,27.574,22.931,26.377
42.63,42.757,25.785,31.322,19.08,29.352,20.556,22.02
46.17,44.316,25.756,30.639,20.432,28.723,20.239,16.145
48.586,46.32,25.584,28.305,21.618,26.004,22.625,13.776
50.999,48.733,28.454,30.832,25.117,28.503,28.499,21.181
49.717,48.481,29.022,34.867,25.294,33.687,31.981,30.712
42.205,46.721,24.326,34.52,19.991,34.825,30.494,33.347
31.944,44.709,16.743,29.122,12.948,30.299,22.756,27.809
26.244,42.412,12.021,25.819,9.196,27.77,12.693,23.108
26.837,40.01,12.92,29.383,9.403,32.291,9.696,26.081
26.48,35.889,13.789,32.539,8.019,35.509,13.412,28.324
24.345,32.621,13.554,31.608,5.853,33.25,19.189,25.584
22.62,30.221,13.977,28.276,5.67,28.33,24.297,22.534
22.696,28.731,17.149,25.887,9.569,25.148,30.573,23.593
25.348,30.95,24.508,26.631,18.684,25.725,39.546,28.054
25.984,32.93,30.736,26.672,26.961,25.483,44.949,29.853
23.226,30.816,32.44,25.254,30.225,23.657,43.89,29.112
18.412,24.831,29.666,23.247,28.172,21.968,38.151,28.375
14.985,20.141,25.949,22.16,24.226,22.027,32.244,28.71
16.091,20.426,24.52,23.102,22.132,24.083,30.218,30.086
17.962,20.809,22.649,22.568,20.43,24.389,30.235,29.674
17.248,17.894,18.998,19.64,17.971,22.338,30.099,27.621
11.753,9.583,11.418,13.345,10.928,16.588,25.827,23.083
4.244,-1.275,2.556,6.076,1.272,9.043,20.149,18.58
-0.203,-7.639,-0.327,3.216,-1.795,5.659,21.646,19.235
-3.174,-9.393,1.145,2.891,1.392,5.317,28.003,22.203
-4.082,-7.194,3.134,3.551,5.294,6.249,32.202,24.775
-3.147,-3.252,2.787,4.444,4.926,7.293,28.534,23.92
-4.045,-1.089,0,4.857,0.724,7.876,17.9,17.526
-8.535,-1.695,-3.522,4.264,-3.367,7.543,6.514,8.392
-15.139,-5.258,-8.906,0.58,-8.085,3.952,-3.292,-0.163
-17.343,-8.556,-11.806,-2.285,-10.597,1.09,-6.847,-2.446
-14.063,-11.171,-9.22,-2.235,-8.316,1.549,-2.98,0.171
-9.808,-12.532,-5.17,-1.92,-4.679,2.812,2.304,0.594
-9.36,-11.766,-4.789,-3.452,-4.667,2.195,3.916,-2.646
-15.644,-12.983,-8.628,-7.124,-8.715,-1.423,1.32,-6.472
-21.537,-14.152,-8.862,-7.229,-8.959,-2.558,0.429,-5.49
-20.291,-11.561,-3.578,-2.761,-3.845,0.359,2.99,-1.21
-13.835,-6.544,1.887,1.703,1.179,3.117,5.875,0.892
-9.656,-3.365,3.8,3.2,2.721,2.996,5.344,-1.378
-11.674,-4.461,1.44,1.72,0.128,0.828,-0.679,-6.496
-12.04,-3.815,0.369,3.416,-1.161,3.16,-4.413,-6.997
-8.876,-0.538,2.122,7.931,0.978,8.741,-1.044,-1.889
-7.999,0.503,4.133,9.281,4.68,10.632,5.53,3.941
-9.175,-0.845,5.094,6.468,7.897,7.709,10.481,6.76
-9.295,-2.68,2.433,0.894,6.285,1.71,9.249,1.963
-7.377,-3.202,-2.656,-4.256,0.776,-3.699,0.992,-8.846
-7.856,-6.221,-9.442,-9.755,-6.218,-8.976,-12.88,-20.797
-10.531,-12.186,-16.128,-15.006,-12.616,-13.786,-23.462,-27.764
-10.986,-15.537,-19.488,-16.502,-16.993,-15.221,-23.71,-27.243
-10.433,-16.051,-20.304,-15.893,-20.267,-15.356,-22.235,-26.044
-9.911,-14.324,-17.192,-13.288,-18.915,-13.965,-23.947,-26.077
-13.576,-13.399,-13.12,-11.028,-14.794,-12.476,-25.671,-26.121
-21.371,-16.283,-13.366,-12.963,-14.2,-14.542,-26.59,-27.262
-24.003,-20.628,-15.354,-16.65,-15.92,-18.146,-26.838,-27.6
-19.009,-23.124,-13.368,-17.239,-14.32,-18.432,-23.339,-23.055
-11.534,-20.907,-5.08,-12.568,-6.17,-13.306,-12.561,-12.657
-7.952,-17.256,2.058,-9.073,1.127,-9.752,-3.002,-6.26
-7.102,-14.576,3.718,-9.312,2.328,-10.443,-2.731,-9.327
-3.916,-11.992,4.765,-8.027,2.985,-9.537,-7.626,-14.386
-0.267,-11.433,6.815,-5.394,6.503,-6.901,-11.38,-15.728
1.818,-10.489,9.311,-2.837,11.603,-4.319,-7.166,-11.524
0.98,-8.191,8.925,-1.88,12.637,-3.343,2.623,-6.168
-1.043,-6.483,4.647,-2.817,8.607,-3.773,4.482,-6.442
-2.119,-6.941,-0.689,-5.494,3.918,-5.462,-8.781,-13.65
-4.615,-10.667,-6.653,-10.891,-1.799,-9.937,-25.121,-22.332
-5.619,-11.809,-10.91,-14.478,-8.308,-13.167,-27.431,-25.024
-4.507,-9.361,-14.175,-15.688,-15.073,-14.727,-23.6,-25.917
-4.644,-7.72,-15.823,-15.175,-18.267,-14.816,-24.51,-26.29
-4.609,-5.778,-10.82,-9.079,-12.451,-9.032,-19.279,-16.991
-1.948,-1.389,-1.949,-0.158,-2.36,-0.113,-4.635,-1.664
2.874,4.841,3.983,5.389,3.8,5.524,4.112,6.13
3.599,6.819,4.201,4.785,3.226,4.939,-1.8,1.591
0.708,3.884,5.04,3.445,3.019,3.347,-8.695,-5.295
0.741,0.874,10.675,5.254,8.307,4.68,-4.758,-6.801
1.973,-2.575,15.634,5.927,14.183,5.017,3.719,-5.517
2.616,-2.599,20.936,7.976,20.889,6.909,13.22,-0.108
1.955,2.503,26.743,12.643,26.747,11.269,19.037,5.335
-0.082,5.936,27.081,14.52,25.314,12.745,14.388,4.152
-1.401,3.415,22.158,12.908,18.903,11.077,8.993,3.832
-0.762,-1.531,18.706,12.415,16.128,10.918,18.388,14.663
2.834,-2.093,21.676,16.764,21.216,15.532,37.674,32.7
4.002,-0.462,22.598,18.535,23.655,17.328,37.409,36.391
2.056,0.474,13.616,11.887,14.29,10.866,6.32,16.215
0.862,0.756,-0.062,1.01,-0.76,0.234,-28.707,-11.388
-5.319,-4.846,-12.32,-11.736,-13.281,-12.965,-45.762,-33.181
-13.846,-14.791,-18.016,-21.161,-17.834,-23.255,-47.142,-45.139
-15.078,-21.629,-16.218,-22.253,-14.589,-24.578,-39.373,-43.925
-12.319,-21.295,-10.302,-16.994,-7.549,-19.06,-22.635,-30.801
-13.974,-16.793,-5.171,-12.109,-2.251,-14.095,-6.443,-18.272
-16.137,-13.556,-4.867,-11.642,-3.374,-13.239,-8.199,-17.968
-8.29,-8.229,-3.752,-8.394,-4.509,-8.538,-19.669,-19.33
4.563,0.111,3.584,1.271,1.841,2.73,-15.018,-7.815
12.935,8.019,15.952,12.632,15.33,14.226,12.391,14.871
16.903,15.079,28.563,21.906,29.378,22.542,42.474,35.811
17.676,20.554,34.961,27.035,35.486,27.15,51.924,41.098
17.567,23.769,34.704,29.068,33.527,29.47,40.402,32.417
16.431,20.164,29.76,26.849,27.7,28.014,25.803,24.319
14.646,11.521,25.807,22.605,25.362,24.591,25.506,26.649
14.209,9.052,27.671,22.067,30.282,24.511,35.96,33.582
14.096,18.054,30.695,24.066,34.814,26.668,38.329,33.755
14.57,33.035,30.932,25.185,34.108,27.431,30.495,26.742
10.241,34.073,24.24,18.641,26.498,19.642,20.573,13.339
-0.599,12.216,11.297,4.693,14.052,4.774,13.511,-0.07
-6.513,-9.898,2.287,-2.988,5.028,-1.74,14.59,1.523
-1.916,-11.57,1.065,0.323,2.257,3.931,21.052,14.765
4.514,-1.787,0.758,2.997,1.06,7.485,20.027,17.617
-1.24,-4.268,-8.42,-6.944,-7.121,-3.39,1.747,-0.91
-18.459,-20.233,-22.791,-22.333,-20.659,-19.614,-20.978,-23.486
-33.595,-32.453,-29.974,-29.707,-28.255,-27.061,-29.386,-31.419
-40.098,-39.046,-29.601,-30.908,-27.735,-28.159,-27.869,-29.677
-37.885,-45.542,-27.378,-30.776,-23.975,-27.757,-24.809,-25.355
-33.8,-49.45,-27.388,-31.119,-23.005,-27.815,-18.473,-19.417
-34.792,-45.865,-29.584,-32.382,-26.476,-29.45,-10.522,-16.478
-40.232,-40.243,-33.076,-35.169,-31.776,-33.067,-11.192,-23.232
-46.602,-44.011,-38.193,-40.272,-36.268,-38.399,-21.908,-35.988
-47.897,-52.114,-38.797,-41.233,-34.649,-38.442,-24.819,-37.197
-41.319,-49.477,-30.435,-33.423,-25.331,-29.046,-8.863,-19.916
-27.273,-30.258,-14.041,-18.539,-8.657,-13.059,19.243,6.035
-14.336,-8.356,-0.295,-7.871,6.531,-2.687,36.783,19.246
-17.764,-5.621,-7.007,-17.588,0.824,-13.735,16.516,-1.346
-34.617,-22.072,-29.382,-40.112,-22.98,-37.137,-28.215,-39.15
-48.76,-43.539,-45.707,-53.732,-41.611,-50.115,-53.729,-56.307
-53.596,-59.494,-48.075,-53.23,-44.628,-48.078,-46.897,-46.659
-55.747,-65.205,-45.656,-48.403,-41.218,-42.473,-28.208,-31.104
-59.417,-61.732,-45.851,-44.76,-40.737,-39.236,-15.151,-21.165
-59.475,-53.064,-46.754,-41.577,-41.963,-36.58,-20.01,-21.817
-59.742,-49.67,-51.52,-45.88,-46.804,-41.189,-48.162,-42
-64.437,-55.433,-61.145,-57.473,-56.21,-53.466,-74.757,-68.843
-69.378,-63.73,-70.289,-66.114,-66.275,-62.966,-80.704,-82.342
-72.597,-70.737,-76.166,-69.583,-73.918,-66.825,-78.293,-83.819
-67.579,-68.769,-70.572,-64.11,-68.748,-61.439,-65.89,-72.027
-52.373,-52.949,-51.635,-47.859,-47.981,-45.431,-37.939,-46.933
-38.567,-32.997,-34.079,-32.772,-28.494,-31.099,-19.865,-29.593
-38.835,-26.74,-32.746,-33.41,-27.718,-33.014,-33.925,-38.306
-51.751,-39.646,-43.423,-45.58,-40.873,-46.062,-57.063,-56.156
-58.656,-50.762,-45.669,-47.281,-45.136,-47.662,-49.789,-49.529
-50.262,-43.185,-34.596,-33.726,-34.549,-33.679,-18.076,-21.044
-37.156,-26.667,-23.268,-20.19,-22.364,-19.696,2.296,-0.124
-34.895,-20.648,-22.704,-18.915,-20.769,-17.655,-2.911,-2.466
-44.376,-28.328,-32.376,-28.284,-30.789,-26.264,-19.918,-20.421
-42.962,-30.054,-34.471,-29.378,-33.571,-26.851,-21.443,-26.095
-17.767,-13.73,-15.511,-10.244,-13.236,-6.933,3.63,-3.047
16.512,13.677,16.162,19.628,20.807,23.863,35.124,30.897
39.722,40.482,41.021,44.219,46.016,48.499,45.732,48.436
51.695,61.846,53.839,61.392,56.681,64.717,42.776,53.398
73.139,87.998,74.776,86.683,74.98,88.785,64.953,76.423
107.377,125.076,112.164,122.598,111.052,123.561,114.49,118.412
138.098,163.812,150.919,156.921,149.414,157.278,155.942,154.544
164.728,194.172,184.839,188.618,182.599,189.432,182.447,184.11
201.229,219.193,222.483,224.891,219.51,226.56,217.731,222.903
248.834,253.555,266.719,266.796,263.758,268.646,268.252,270.628
290.697,298.193,304.99,304.102,302.277,305.614,310.024,309.077
327.445,341.631,337.355,337.073,334.57,338.437,335.967,338.019
383.817,389.292,388.485,387.677,385.501,389.135,379.692,386.726
468.731,460.616,470.592,467.5,467.806,468.827,464.915,470.171
558.843,548.851,558.193,552.153,556.506,552.685,561.555,558.437
618.664,609.964,610.319,602.065,609.95,601.297,615.494,605.723
637.613,622.926,620.886,612.604,620.176,610.786,619.306,609.273
632.929,613.607,616.59,609.639,614.039,607.604,609.871,602.74
623.347,606.456,612.194,605.848,609.233,604.381,607.46,602.509
617.924,602.793,607.604,601.569,606.386,600.677,607.037,603.55
613.457,596.29,602.047,597.225,601.884,596.042,600.937,598.701
608.995,591.067,597.532,593.986,596.61,592.033,591.03,590.376
603.086,588.848,589.217,585.656,588.328,583.539,578.019,581
582.302,574.994,566.287,560.629,568.11,558.997,555.376,562.344
546.027,545.908,536.21,527.213,540.537,526.167,530.119,537.111
512.709,516.166,513.978,503.412,516.173,502.644,511.301,514.862
497.666,495.44,499.266,490.254,496.156,489.171,493.158,494.36
491.696,474.746,480.546,473.879,475.122,472.583,469.315,471.274
470.408,440.583,450.949,445.08,447.859,444.445,442.771,446.322
432.711,399.864,418.772,412.509,418.412,412.386,420.554,423.148
397.057,368.537,390.629,384.549,390.621,383.64,395.722,395.587
376.657,353.765,366.032,361.082,365.275,358.863,360.386,358.937
371.799,351.021,348.481,343.981,347.218,341.072,329.424,327.155
369.369,349.018,341.127,335.483,339.199,332.236,317.981,313.61
355.073,340.848,338.036,330.784,335.279,326.837,314.96,309.832
327.569,322.227,325.739,317.639,322.957,313.037,301.003,298.431
304.319,298.47,306.415,297.745,304.622,293.455,286.273,285.721
293.226,279.612,291.514,282.155,290.577,278.932,286.567,283.387
276.839,262.842,275.421,267.109,273.944,264.564,283.804,276.372
250.428,244.432,253.1,248.562,250.293,246.125,261.948,254.532
229.632,227.717,233.441,233.013,230.92,231.198,237.987,234.66
225.546,221.408,227.54,229.517,227.568,229.078,236.815,236.504
230.564,226.607,230.802,233.74,233.313,234.002,250.425,249.597
225.134,226.24,224.978,226.814,228.476,226.213,245.02,241.614
207.274,211.861,209.778,207.957,213.742,206.228,218.428,211.811
191.716,193.962,199.076,194.712,203.013,193.283,200.799,191.234
182.26,180.71,193.668,191.174,196.097,191.198,203.368,191.842
164.715,163.603,179.563,179.67,180.425,180.765,202.398,188.609
133.054,133.449,150.647,148.615,152.013,149.742,176.582,159.297
104.712,102.104,121.322,113.534,124.436,114.451,138.782,119.656
86.769,80.82,99.702,87.869,104.08,89.143,107.855,90.888
67.726,65.752,79.41,67.281,84.879,68.888,86.037,71.491
44.625,50.486,56.169,45.311,62.855,46.297,67.342,50.316
24.223,31.743,31.055,21.206,37.886,21.246,44.921,23.106
8.852,12.129,10.261,1.619,16.169,1.658,21.259,-0.187
-8.228,-6.332,-4.234,-10.505,1.005,-9.829,3.333,-12.381
-28.33,-22.943,-15.797,-19.113,-10.848,-18.466,-7.119,-18.753
-46.852,-38.035,-28.332,-30.292,-23.397,-30.228,-17.173,-28.991
-61.92,-53.116,-43.53,-46.11,-38.07,-45.994,-34.209,-45.922
-71.042,-66.698,-58.483,-61.056,-53.034,-60.2,-54.888,-62.676
-82.539,-84.352,-77.843,-78.981,-73.656,-77.701,-79.178,-81.931
-105.502,-108.859,-104.36,-104.66,-100.783,-103.594,-106.757,-108.031
-133.749,-133.58,-130.903,-130.825,-126.11,-129.979,-130.826,-133.622
-160.01,-157.612,-155.161,-153.126,-149.412,-152.443,-151.791,-154.726
-177.872,-176.389,-172.852,-168.02,-167.541,-168.031,-168.31,-169.215
-182.419,-181.092,-177.484,-171.226,-172.465,-171.977,-173.923,-173.573
-177.277,-174.705,-172.209,-166.19,-167.121,-166.845,-169.344,-169.55
-174.623,-172.18,-169.503,-165.202,-164.807,-165.54,-166.956,-167.827
-184.899,-183.205,-179.011,-177.554,-174.687,-178.251,-178.796,-178.996
-206.339,-201.923,-198.483,-199.147,-194.32,-200.438,-202.173,-201.289
-232.46,-221.382,-223.414,-224.875,-219.531,-226.267,-229.949,-230.125
-251.22,-235.712,-243.882,-246.437,-239.812,-247.526,-252.486,-255.1
-257.72,-244.439,-251.044,-255.186,-245.708,-255.867,-262.079,-263.618
-266.406,-257.036,-254.883,-259.584,-248.519,-259.975,-266.519,-263.131
-281.455,-274.664,-267.522,-271.573,-262.751,-272.105,-276.262,-270.121
-293.731,-293.884,-288.3,-291.568,-286.969,-292.451,-293.935,-288.302
-302.102,-309.918,-305.394,-307.949,-305.712,-308.876,-312.027,-304.426
-312.3,-314.187,-312.502,-313.464,-311.998,-314.295,-323.237,-310.996
-323.4,-308.979,-318.314,-316.224,-316.692,-317.056,-330.825,-317.564
-327.073,-308.306,-326.496,-321.46,-323.627,-321.925,-336.077,-326.132
-327.729,-322.761,-334.918,-329.367,-330.25,-329.108,-340.415,-333.084
-331.85,-339.418,-340.219,-336.055,-335.184,-335.928,-344.219,-337.727
-331.906,-340.152,-338.478,-335.132,-335.47,-336.353,-343.588,-338.605
-325.675,-333.591,-333.966,-330.054,-333.019,-332.149,-340.715,-337.094
-324.631,-333.764,-332.803,-328.124,-332.016,-329.7,-339.661,-335.353
-339.617,-340.416,-340.003,-335.961,-338.136,-337.315,-346.028,-341.575
-361.664,-347.449,-353.992,-352.394,-350.983,-354.915,-360.967,-359.769
-375.465,-354.974,-365.303,-366.085,-362.149,-369.401,-374.037,-376.478
-380.986,-365.743,-369.195,-370.023,-367.838,-372.444,-376.59,-378.498
-382.057,-374.483,-368.843,-368.59,-369.539,-369.821,-372.698,-370.836
-385.008,-383.485,-375.055,-375.92,-375.213,-376.958,-377.1,-372.754
-393.507,-397.876,-389.91,-393.218,-388.173,-394.252,-390.928,-387.045
-399.902,-409.663,-401.814,-405.091,-400.101,-405.338,-400.117,-397.486
-397.926,-409.522,-403.819,-405.479,-403.397,-404.929,-401.333,-398.954
-387.327,-394.612,-395.372,-397.819,-394.769,-397.923,-398.087,-395.802
-373.498,-373.106,-381.991,-387.045,-380.125,-389.085,-391.714,-389.844
-361.584,-356.419,-368.934,-374.688,-366.847,-378.234,-381.289,-378.206
-354.499,-348.912,-358.377,-362.663,-357.004,-366.505,-370.502,-364.659
-355.283,-349.7,-355.896,-359.152,-354.924,-362.777,-368.982,-362.687
-362.033,-355.285,-364.404,-367.371,-363.65,-370.649,-377.465,-374.404
-373.606,-367.909,-382.095,-383.341,-381.701,-385.951,-390.869,-391.313
-383.304,-383.539,-395.582,-393.229,-394.965,-394.804,-398.15,-398.527
-378.896,-388.238,-390.019,-384.481,-388.213,-384.608,-387.328,-383.439
-362.056,-378.97,-372.277,-365.969,-369.197,-364.896,-365.688,-357.581
-347.423,-364.205,-358.885,-353.63,-355.631,-352.844,-350.536,-343.966
-349.352,-356.132,-358.583,-354.343,-356.636,-355.147,-350.862,-351.529
-361.153,-355.514,-363.295,-359.607,-363.385,-361.761,-358.237,-365.233
-362.887,-351.944,-358.438,-355.027,-359.97,-357.504,-356.847,-363.615
-353.018,-343.673,-345.429,-341.616,-347.015,-343.683,-344.682,-346.069
-343.982,-335.111,-335.854,-331.744,-336.608,-333.006,-333.086,-329.529
-344.493,-332.071,-336.558,-333.401,-337.147,-333.83,-333.64,-328.401
-346.266,-333.875,-339.145,-337.405,-340.642,-337.652,-339.726,-334.997
-335.171,-330.555,-332.205,-331.039,-333.681,-331.899,-336.026,-332.513
-315.517,-316.774,-319.047,-317.153,-318.828,-318.707,-322.611,-320.133
-299.339,-297.667,-306.546,-303.428,-305.01,-305.314,-308.262,-305.88
-294.089,-286.278,-299.132,-296.676,-297.279,-298.698,-301.179,-297.412
-298.315,-284.177,-295.055,-295.607,-292.906,-297.494,-299.157,-293.158
-302.538,-282.713,-289.481,-292.041,-287.556,-293.52,-293.804,-287.07
-295.287,-278.285,-279.179,-280.675,-278.441,-282.196,-281.876,-276.703
-265.451,-259.8,-253.487,-252.183,-253.82,-254.286,-254.999,-250.816
-223.704,-225.838,-215.848,-211.095,-216.722,-213.037,-215.461,-209.202
-197.8,-201.441,-192.422,-184.255,-193.88,-184.972,-188.246,-178.632
-197.292,-203.125,-196.384,-186.669,-198.188,-186.946,-189.373,-178.957
-207.966,-216.279,-211.983,-203.016,-213.46,-204.708,-205.13,-197.044
-214.37,-221.233,-219.385,-211.099,-220.656,-214.233,-214.049,-207.714
-219.138,-222.021,-220.47,-211.415,-222.298,-214.223,-216.069,-208.57
-226.845,-226.117,-222.247,-212.752,-224.888,-214.477,-218.734,-209.648
-232.597,-229.087,-224.149,-215.835,-227.309,-217.212,-223.427,-214.283
-235.332,-229.428,-227.036,-220.414,-230.245,-221.726,-230.428,-221.1
-237.403,-229.8,-229.43,-224.304,-232.256,-225.011,-234.838,-224.88
-243.584,-235.811,-232.623,-229.114,-234.966,-229.011,-237.136,-227.606
-255.492,-247.616,-239.978,-238.355,-241.777,-237.941,-243.919,-235.235
-270.998,-261.599,-254.577,-254.968,-255.527,-254.84,-259.576,-251.078
-286.36,-278.496,-276.865,-278.49,-277.062,-278.848,-282.159,-273.841
-292.141,-290.837,-292.303,-294.058,-292.123,-294.928,-297.167,-289.389
-291.767,-291.446,-292.72,-294.856,-291.757,-296.444,-299.401,-292.025
-293.758,-284.723,-288.244,-291.25,-286.278,-293.493,-297.785,-290.864
-293.423,-281.59,-288.743,-291.512,-287.586,-293.609,-297.827,-292.756
-290.696,-288.971,-295.21,-296.286,-296.884,-297.408,-301.191,-298.975
-291.837,-299.081,-300.613,-299.38,-304.155,-299.563,-304.804,-302.374
-296.754,-304.621,-303.038,-298.896,-305.936,-298.877,-306.621,-299.265
-295.862,-302.665,-302.767,-295.778,-304.351,-296.439,-305.359,-293.443
-285.835,-291.101,-296.83,-289.169,-297.811,-290.926,-299.781,-287.931
-278.135,-277.287,-287.943,-281.965,-288.409,-284.188,-293.376,-283.427
-277.53,-270.898,-280.995,-276.482,-281.055,-278.164,-287.886,-277.666
-280.745,-277.475,-282.311,-277.434,-283.413,-278.66,-287.597,-276.732
-284.966,-289.501,-290.973,-284.671,-294.385,-286.335,-293.709,-285.084
-290.218,-293.784,-297.842,-290.911,-302.288,-293.463,-300.038,-295.047
-298.811,-293.131,-301.644,-296.562,-304.908,-300.103,-306.387,-304.059
-305.028,-295.975,-304.203,-302.698,-306.437,-306.848,-313.318,-312.497
-304.782,-303.293,-305.037,-306.169,-307.749,-309.688,-317.4,-316.406
-300.989,-307.811,-302.737,-305.159,-305.67,-307.506,-315.484,-312.954
-298.731,-305.915,-301.9,-306.034,-303.465,-308.245,-313.362,-310.09
-304.482,-305.514,-310.877,-316.68,-310.796,-319.711,-320.904,-318.945
-314.133,-310.555,-324.247,-329.463,-323.537,-333.028,-332.112,-332.397
-317.067,-318.542,-332.611,-336.376,-331.236,-339.453,-337.9,-338.596
-309.073,-321.748,-332.71,-338.201,-329.622,-340.079,-337.786,-336.263
-296.876,-314.949,-327.047,-336.989,-322.444,-337.918,-334.135,-331.081
-289.769,-305.325,-322.622,-334.515,-317.93,-335.079,-329.543,-327.399
-287.091,-299.752,-318.99,-328.264,-315.064,-328.564,-322.203,-320.368
-288.254,-301.779,-315.709,-321.352,-312.732,-321.467,-316.291,-312.41
-290.757,-308.148,-313.971,-317.697,-312.207,-317.873,-316.328,-309.528
-289.411,-310.21,-309.757,-312.372,-308.979,-312.07,-315.042,-305.322
-287.247,-305.764,-301.348,-302.472,-300.737,-300.65,-306.587,-294.136
-284.109,-295.353,-290.9,-290.013,-290.356,-287.009,-294.231,-279.968
-277.196,-283.057,-284.224,-281.18,-284.116,-278.863,-286.475,-272.052
-268.562,-271.965,-279.735,-275.711,-279.033,-275.049,-282.137,-268.696
-265.64,-265.885,-272.489,-270.271,-269.771,-270.291,-276.457,-263.675
-273.683,-272.373,-270.297,-271.114,-266.839,-270.776,-276.11,-263.006
-281.449,-282.427,-276.117,-276.507,-274.582,-275.784,-280.804,-266.22
-278.436,-280.221,-281.138,-276.838,-281.675,-275.995,-282.655,-266.456
-265.797,-265.595,-278.189,-269.964,-278.793,-269.124,-279.431,-263.642
-249.703,-252.791,-270.446,-262.433,-269.916,-261.339,-274.509,-259.694
-243.473,-255.349,-267.983,-262.145,-267.208,-260.656,-273.468,-256.876
-253.866,-267.613,-272.011,-267.111,-272.591,-266.115,-275.638,-256.375
-269.799,-276.001,-276.885,-271.545,-278.561,-271.766,-277.107,-258.076
-272.951,-274.646,-275.552,-269.617,-276.678,-270.067,-272.171,-254.887
-261.873,-268.005,-267.23,-260.88,-267.356,-260.081,-259.899,-242.446
-251.7,-264.512,-260.477,-254.232,-259.777,-252.237,-249.567,-230.923
-247.535,-261.911,-257.113,-251.833,-254.809,-249.754,-244.508,-226.399
-245.663,-257.319,-255.573,-250.755,-251.908,-249.017,-242.491,-225.857
-240.942,-251.487,-252.782,-245.993,-250.142,-244.637,-238.722,-222.524
-231.214,-242.556,-242.963,-232.716,-242.604,-232.483,-228.226,-212.842
-222.319,-232.304,-229.376,-217.663,-229.843,-218.93,-216.198,-204.368
-217.786,-225.145,-219.772,-210.417,-219.24,-211.986,-209.475,-203.02
-218.469,-225.694,-219.427,-214.056,-217.415,-214.391,-209.882,-207.642
-220.737,-228.695,-224.732,-220.772,-222.39,-219.808,-213.516,-212.606
-219.97,-224.13,-227.632,-221.785,-226.421,-220.694,-217.539,-215.826
-218.376,-216.353,-226.733,-220.059,-226.135,-219.589,-222.841,-220.644
-216.53,-216.12,-224.056,-220.063,-222.593,-219.661,-224.944,-223.916
-216.442,-226.915,-225.035,-223.829,-222.82,-222.474,-223.963,-224.126
-218.067,-237.183,-227.432,-226.055,-225.415,-223.597,-221.61,-221.351
-216.071,-234.858,-223.068,-219.891,-221.471,-217.151,-214.898,-213.476
-209.287,-222.723,-214.111,-209.461,-212.738,-207.232,-206.019,-203.731
-198.21,-204.681,-204.315,-198.747,-202.813,-197.067,-197.952,-194.812
-187.142,-186.886,-196.212,-190.465,-194.23,-188.859,-193.105,-189.354
-178.437,-175.22,-189.168,-184.152,-187.162,-182.414,-188.413,-185.318
-169.069,-167.44,-179.288,-175.286,-177.737,-173.649,-178.124,-176.635
-158.84,-160.973,-167.83,-164.883,-165.847,-163.677,-166.005,-165.458
-147.594,-152.021,-155.765,-153.832,-152.861,-153.397,-155.135,-154.22
-137.479,-140.021,-144.59,-143.089,-142.268,-143.682,-145.548,-143.602
-128.425,-128.846,-134.665,-133.075,-134.16,-134.68,-136.517,-133.402
-120.103,-123.142,-126.44,-123.969,-127.144,-126.016,-127.65,-122.868
-117.068,-122.563,-122.583,-118.017,-123.435,-119.531,-121.471,-114.329
-115.354,-116.144,-117.762,-112.309,-117.986,-113.131,-117.021,-108.476
-111.083,-104.339,-110.991,-107.97,-110.132,-109.371,-115.703,-108.749
-106.686,-99.636,-108.207,-107.862,-106.749,-111.1,-117.391,-114.67
-102.489,-102.918,-107.723,-107.168,-106.348,-111.649,-115.047,-116.486
-92.898,-100.607,-100.514,-98.47,-99.128,-102.128,-102.684,-105.058
-67.024,-79.377,-78.141,-75.593,-76.619,-77.153,-77.558,-76.98
-32.35,-49.546,-49.185,-47.489,-47.152,-47.411,-50.432,-45.674
-11.032,-30.021,-29.665,-29.457,-26.372,-28.841,-35.23,-27.95
-10.127,-21.818,-24.084,-24.024,-20.816,-23.593,-31.645,-24.399
-18.964,-18.225,-28.058,-25.815,-27.654,-25.743,-32.567,-27.406
-23.14,-15.727,-31.232,-26.93,-33.377,-27.116,-30.577,-28.682
-20.674,-15.878,-29.107,-25.604,-30.138,-25.868,-25.891,-27.335
-14.29,-16.562,-23.471,-22.704,-21.812,-22.728,-21.062,-24.594
-6.094,-13.531,-16.398,-17.628,-14.035,-17.298,-15.544,-19.671
-0.052,-8.587,-10.862,-12.364,-9.57,-12.113,-10.88,-15.15
10.026,-1.382,-4.5,-5.37,-4.127,-5.377,-5.747,-10.089
23.693,6.649,2.917,1.987,3.161,2.456,-0.457,-4.368
27.995,13.617,10.226,6.876,11.207,8.24,4.707,1.38
22.559,20.058,17.792,9.958,20.46,11.181,10.158,6.82
20.189,24.244,21.754,11.306,25.471,11.118,12.112,8.138
27.348,28.424,23.2,14.956,24.797,13.525,13.036,8.368
35.49,33.254,26.366,21.657,23.688,19.945,16.542,11.991
41.79,39.129,33.852,30.073,28.546,28.305,22.86,20.036
50.028,47.716,42.357,39.448,36.54,37.565,29.808,29.942
54.294,55.415,44.385,44.959,38.088,43.658,33.18,35.518
53.892,60.933,44.353,47.817,38.068,47.579,36.823,38.927
54.527,62.474,47.247,50.225,42.493,50.124,42.545,42.511
58.624,62.014,50.441,52.447,46.964,51.409,47.264,45.346
64.572,65.12,52.434,55.496,48.746,54.037,50.427,48.753
68.576,67.771,53.832,57.065,50.309,56.128,51.03,51.418
69.785,68.032,57.387,57.612,56.042,56.522,50.109,52.495
64.572,69.301,59.322,57.237,60.697,54.748,47.304,50.759
57.982,73.951,57.263,58.171,58.83,54.89,46.791,50.556
62.264,79.695,56.529,63.64,55.126,61.376,54.405,57.45
72.488,80.034,58.767,68.44,54.597,67.259,63.563,64.263
77.298,77.403,64.965,71.043,60.851,69.172,69.352,66.809
73.841,76.509,72.976,74.252,69.269,70.986,73.439,68.812
70.417,77.52,78.689,77.709,73.225,74.129,76.057,70.226
75.737,79.033,81.228,78.725,74.697,75.74,75.781,68.268
83.404,78.885,81.304,77.733,76.737,75.224,74.954,67.174
86.025,79.173,83.013,80.851,80.435,78.296,80.418,74.184
84.915,80.02,85.93,86.286,83.112,83.394,88.836,82.3
86.554,82.438,90.008,91.331,86.738,88.243,95.015,85.873
93.409,87.979,97.252,98.089,94.787,95.036,99.823,89.978
100.554,92.724,102.959,103.401,101.087,100.299,101.517,94.455
108.398,98.081,106.362,107.133,103.617,103.611,103.064,98.251
116.927,105.938,109.932,111.128,106.245,107.016,108.116,101.935
123.42,115.498,116.058,116.984,113.61,112.659,116.588,108.468
125.778,124.217,124.653,124.608,125.301,120.477,124.969,118.106
122.531,127.54,129.201,128.67,132.255,124.741,126.775,123.313
121.853,129.889,128.968,130.019,132.848,126.506,125.241,124.959
129.399,133.59,127.574,131.6,131.971,129.004,126.79,128.696
142.35,135.591,129.747,135.073,134.404,133.129,133.629,135.94
154.281,136.954,137.848,141.179,141.348,138.816,143.496,144.384
157.235,139.959,146.821,145.865,148.086,142.353,149.878,148.655
154.088,147.109,153.907,147.832,152.997,143.263,151.868,147.843
150.908,152.385,156.529,145.521,154.21,140.436,149.816,141.773
150.208,150.614,157.316,142.11,155.354,137.113,148.383,136.561
152.211,147.966,163.12,145.508,163.035,141.062,154.276,141.566
155.216,148.473,169.714,153.141,170.811,149.377,161.918,152.095
162.752,151.715,172.901,159.945,173.975,156.663,166.706,161.59
170.955,153.987,173.971,164.276,175.351,161.423,171.327,169.824
172.16,155.684,175.592,168.142,177.798,166.086,179.167,178.776
170.852,161.125,178.827,173.454,182.148,172.319,188.883,187.266
175.248,169.089,182.147,178.423,187.072,177.484,196.622,191.861
188.621,179.288,188.901,186.401,194.48,185.007,206.339,198.018
203.379,190.099,198.026,197.158,202.437,195.757,217.391,208.056
212.484,200.687,205.127,206.178,208.446,205.444,224.47,217.189
217.156,211.48,210.397,212.286,213.873,211.979,228.089,222.303
218.567,218.442,214.416,215.455,218.188,214.978,229.805,222.859
220.634,222.552,220.17,219.835,223.862,219.258,233.006,224.846
223.778,225.06,226.508,225.303,230.287,225.03,237.319,230.195
227.227,227.531,232.411,230.382,236.136,230.056,242.377,236.875
233.258,233.757,240.327,236.642,243.587,235.401,250.158,243.941
239.008,240.196,247.406,241.545,250.821,239.577,257.412,248.081
242.559,243.131,252.469,245.605,256.7,244.26,263.473,251.766
242.952,241.318,254.199,248.247,258.012,248.182,266.892,255.63
241.571,238.027,252.846,248.1,254.644,248.37,266.444,256.238
241.783,238.238,252.751,247.993,253.328,247.426,265.956,254.093
243.104,240.833,254.484,248.982,256.046,247.459,266.995,251.393
247.481,245.778,258.066,252.227,261.296,250.312,269.38,251.807
252.734,251.399,260.27,255.149,263.771,253.469,268.706,252.868
254.681,256.572,260.64,256.968,263.25,255.876,265.177,253.107
255.291,260.331,262.593,259.895,265.032,258.931,264.697,255.544
256.145,257.725,262.433,260.364,265.164,258.626,265.303,256.156
257.176,253.619,259.163,259.098,260.655,256.611,264.625,253.446
256.035,254.426,256.124,259.243,255.659,257.171,263.102,251.382
257.505,258.894,257.382,262.503,257.179,261.87,264.499,255.61
265.778,263.377,263.158,267.853,265.709,268.575,270.993,265.892
269.956,264.773,266.898,268.808,271.911,269.915,275.83,270.691
266.341,265.26,267.771,265.356,273.364,266.209,275.685,266.314
262.548,263.599,266.376,260.795,271.669,261.818,271.711,259.859
262.93,260.803,263.082,257.725,267.711,259.371,267.593,257.662
264.72,262.721,260.14,256.783,263.356,258.617,265.178,257.88
262.073,264.949,257.224,254.676,258.907,256.231,261.37,255.845
256,261.56,257.652,253.939,258.737,255.495,260.402,256.808
248.616,253.64,260.951,254.401,262.498,256.113,263.977,260.083
244.654,249.571,263.053,252.843,264.781,254.078,267.022,258.748
249.254,253.967,264.181,251.823,264.614,252.509,267.861,255.995
257.826,259.549,266.07,255.033,264.815,256.388,268.476,259.388
265.864,263.783,271.612,264.34,269.859,267.067,273.035,270.391
268.299,266.592,274.815,270.514,273.735,273.628,275.169,275.284
263.985,267.33,269.605,266.631,269.499,268.867,267.834,266.301
259.614,267.664,261.556,261.031,261.756,262.515,258.382,256.604
258.736,265.794,256.75,260.38,256.182,262.325,254.976,256.271
264.079,264.217,258.759,264.765,257.494,267.86,258.847,263.073
270.8,265.75,263.729,268.921,263.21,272.508,263.129,268.063
270.077,268.553,265.661,269.742,266.472,272.668,263.96,267.668
263.294,268.924,263.5,268.035,264.491,269.95,262.619,263.524
257.259,264.816,258.931,263.705,259.459,265.025,258.193,256.161
258.08,262.57,259.013,262.084,259.96,263.002,256.636,253.253
262.07,262.683,262.543,263.006,264.347,263.41,259.82,255.809
261.107,261.338,263.649,262.567,265.356,262.671,262.137,257.278
253.902,261.709,264.455,262.819,265.127,263.166,262.92,258.436
247.694,264.381,266.223,263.175,266.173,263.998,263.662,260.818
252.289,265.971,268.422,262.663,269.075,263.675,266.348,264.136
260.375,262.174,268.146,260.479,270.504,261.496,268.324,266.005
262.402,258.318,267.655,260.475,271.222,261.823,269.829,269.22
263.841,262.941,272.626,266.851,276.204,268.706,274.91,276.204
267.571,269.815,276.888,271.442,279.299,273.088,277.433,276.334
271.581,272.017,274.241,268.81,275.239,269.382,272.643,266.915
271.935,268.925,266.789,262.38,268.075,262.108,263.353,257.166
267.071,263.681,261.886,258.423,265.147,258.001,256.028,252.308
260.916,260.778,262.795,259.717,266.952,259.343,255.057,251.235
259.736,261.519,263.182,262.441,265.301,262.354,257.337,252.199
267.728,267.39,261.536,265.369,260.287,265.832,260.878,256.089
272.811,271.765,258.658,265.896,255.556,266.607,262.486,257.962
267.468,269.724,256.178,264.634,253.245,265.159,261.715,256.824
264.57,269.789,259.153,267.494,257.638,267.591,263.66,258.803
268.227,276.836,267.282,273.431,268.329,272.848,268.575,263.348
271.456,285.849,277.206,280.393,280.429,279.192,275.653,269.927
272.608,287.797,282.998,286.005,285.511,284.911,282.396,277.31
277.151,284.016,284.44,289.552,284.189,289.343,288.417,284.024
284.695,283.509,286.903,293.025,284.882,293.742,295.018,290.494
286.394,286.656,288.602,294.723,286.382,296.007,297.58,293.462
281.37,291.168,288.242,295.583,286.32,297.282,296.605,293.659
272.557,293.144,286.02,295.562,284.502,297.47,295.054,293.138
266.78,292.443,284.044,294.72,282.457,296.378,293.514,292.535
270.686,293.095,284.479,294.413,281.925,295.562,291.462,291.021
274.156,292.354,283.63,292.944,279.893,293.929,288.005,288.033
267.469,290.444,282.516,293.34,278.577,294.926,288.237,290.073
256.023,290.048,282.017,294.481,279.62,297.041,290.338,293.927
251.844,290.037,279.379,291.532,278.881,294.761,287.294,290.692
256.939,285.689,273.231,285.791,272.615,289.708,279.445,283.672
261.381,275.822,264.232,279.797,262.118,284.803,269.971,278.388
261.965,271.935,258.319,275.917,255.618,281.165,262.686,273.897
259.977,276.806,254.923,270.901,252.497,274.689,254.541,263.56
258.366,280.444,250.572,263.83,248.402,265.999,243.515,250.63
256.736,277.836,246.677,258.192,245.095,259.964,234.901,244.258
245.198,269.973,241.886,251.414,240.743,253.401,230.749,241.147
226.837,262.528,237.569,244.586,235.591,246.833,231.983,238.478
215.37,257.505,235.157,240.602,232.048,243.55,234.77,237.423
212.989,254.592,233.837,238.968,230.685,242.744,234.478,237.123
211.25,250.948,230.809,235.528,227.865,238.923,230.547,232.608
206.924,241.669,223.703,226.559,220.317,228.136,223.521,221.173
205.967,235.586,220.549,220.845,216.954,220.664,220.391,214.823
205.904,237.12,222.126,221.825,218.863,221.174,221.045,217.482
204.215,235.073,219.809,221.645,216.159,221.611,218.873,218.571
204.216,224.546,212.51,216.712,207.62,217.357,213.318,213.127
200.686,214.408,202.929,208.466,197.379,209.127,204.349,203.188
192.507,215.417,196.654,203.889,191.508,204.212,196.042,197.245
186.476,219.504,194.974,203.902,190.298,204.146,191.416,197.518
186.213,213.494,193.61,202.324,188.746,202.722,188.424,197.085
187.487,202.398,190.262,197.761,185.138,198.402,185.166,193.432
184.342,196.377,185.097,193.062,180.457,194.13,180.878,189.555
178.548,195.165,180.774,191.058,177.192,192.544,178.257,188.357
169.279,188.46,173.933,185.918,170.877,187.668,174.994,184.314
158.662,176.553,164.039,175.743,160.22,177.838,169.967,176.637
153.131,168.983,157.442,168.173,152.559,170.819,167.361,173.34
148.503,164.512,153.963,164.204,149.328,167.682,165.875,174.435
141.691,160.478,152.655,161.894,149.637,166.275,164.582,175.747
134.399,156.169,150.998,157.535,149.542,161.996,161.286,171.142
129.022,152.568,146.596,150.007,145.637,153.565,155.311,160.123
126.389,150.818,141.079,143.004,140.231,145.853,149.805,149.556
122.866,145.059,133.813,135.201,133.42,138.081,142.498,139.984
119.072,133.786,126.55,126.072,126.081,129.073,133.3,131.324
115.145,121.949,121.296,117.423,119.844,120.222,125.863,124.667
114.995,119.214,123.805,117.07,122.011,119.595,128.409,126.292
125.867,130.037,138.272,131.224,137.568,133.896,144.856,142.643
139.29,140.848,151.457,146.488,152.151,150.086,159.432,160.51
143.385,140.737,151.982,148.875,153.614,153.597,158.76,162.735
136.273,132.179,143.156,140.031,145.052,144.719,147.477,148.693
122.997,122.95,133.119,130.384,134.079,133.853,137.627,132.687
110.315,117.094,125.276,125.94,124.791,128.808,133.471,126.396
103.829,112.64,119.375,124.499,118.435,128.22,130.967,127.367
109.087,111.476,119.604,126.585,118.743,131.08,131.555,131.08
119.133,113.451,123.408,129.78,121.787,133.509,133.575,132.225
121.407,117.28,124.45,130.574,121.567,132.764,132.524,129.23
113.391,121.451,121.918,128.383,118.562,129.789,128.648,125.904
101.049,118.897,116.052,120.949,113.514,122.366,122.016,121.676
94.28,111.263,112.007,113.757,110.622,115.086,117.335,118.071
91.373,104.258,110.299,110.23,108.743,111.038,115.176,113.942
84.925,95.852,104.225,102.778,101.81,102.912,107.571,102.345
71.537,77.108,88.087,83.138,86.649,83.015,88.659,79.556
49.138,45.25,62.096,54.481,62.546,54.836,62.911,51.69
30.337,20.06,39.702,34.732,39.583,35.933,45.382,35.08
28.013,15.885,29.576,29.705,27.089,31.707,38.835,32.578
35.245,21.751,27.632,28.759,24.264,31.281,34.791,32.772
37.114,22.845,27.787,25.789,25.34,28.323,30.687,30.647
30.623,18.053,26.121,21.951,24.641,24.09,27.236,27.815
29.218,17.043,25.811,21.89,24.986,23.531,27.065,27.464
35.727,18.191,25.642,22.496,25.862,23.874,26.872,26.481
38.947,15.054,21.765,19.364,23.367,20.938,23.053,22.814
33.282,12.14,16.988,15.222,19.625,17.028,18.352,18.818
21.512,13.356,13.655,11.42,16.889,12.744,12.679,12.274
13.292,15.38,13.245,9.541,17.198,9.808,7.041,4.838
8.634,8.405,11.458,7.634,15.917,7.386,2.387,0.928
-0.998,-5.576,5.671,5.241,8.949,5.474,0.183,2.891
-13.88,-13.562,-0.207,4.139,-0.161,4.772,-0.719,5.162
-21.194,-17.825,-6.234,-0.846,-9.575,-1.018,-7.17,-2.819
-17.865,-25.365,-10.974,-9.112,-15.902,-10.67,-15.614,-14.941
-11.804,-32.815,-13.965,-15.623,-19.265,-17.716,-19.447,-20.39
-10.611,-30.702,-14.648,-17.559,-20.641,-19.359,-17.711,-18.368
-10.629,-19.195,-10.949,-15.249,-17.314,-16.731,-11.811,-12.76
-9.878,-13.551,-7.903,-14.468,-13.28,-15.538,-7.418,-9.396
-11.321,-19.773,-9.707,-17.139,-13.507,-17.661,-7.622,-9.955
-18.775,-29.56,-17.158,-23.514,-19.312,-23.741,-14.466,-15.629
-25.116,-33.107,-24.932,-29.669,-25.052,-29.606,-24.07,-21.168
-22.203,-30.916,-27.013,-30.095,-25.315,-29.569,-28.67,-19.043
-19.753,-31.632,-28.493,-30.057,-26.543,-29.545,-30.598,-16.642
-25.563,-34.706,-33.726,-34.696,-33.545,-34.536,-33.808,-21.845
-35.994,-39.825,-43.135,-44.455,-45.115,-43.83,-40.893,-33.205
-42.656,-48.399,-51.307,-53.337,-53.318,-51.563,-49.031,-42.018
-40.725,-54.077,-50.397,-53.52,-50.501,-51.261,-49.947,-41.27
-36.205,-52.472,-43.532,-47.371,-42.949,-45.546,-43.334,-34.835
-34.169,-46.177,-37.182,-39.847,-38.302,-38.304,-34.291,-27.027
-37.162,-44.682,-36.328,-37.012,-38.799,-35.194,-30.891,-23.787
-44.264,-49.347,-38.925,-39.898,-40.308,-38.205,-34.352,-28.22
-51.058,-54.211,-40.361,-43.845,-40.226,-43.014,-38.313,-35.909
-56.99,-61.668,-44.144,-49.277,-44.922,-48.947,-42.455,-44.028
-59.943,-68.181,-47.754,-52.817,-50.886,-52.049,-45.414,-47.529
-59.845,-66.113,-46.768,-51.563,-50.612,-50.312,-45.351,-45.767
-57.898,-57.995,-44.38,-48.863,-46.914,-47.957,-42.809,-43.332
-55.111,-53.827,-46.301,-50.072,-47.429,-50.121,-42.463,-44.84
-55.722,-57.43,-54.045,-57.927,-54.78,-58.857,-50.684,-54.339
-57.146,-57.89,-58.411,-63.629,-59.837,-64.812,-58.624,-63.133
-55.573,-53.383,-56.521,-62.387,-59.365,-63.177,-58.599,-63.37
-51.513,-53.57,-54.417,-59,-58.166,-59.342,-56.513,-59.9
-50.703,-59.303,-54.763,-57.153,-57.878,-57.313,-56.424,-58.735
-57.557,-63.274,-56.82,-57.467,-58.536,-57.612,-55.919,-59.342
-57.726,-56.996,-53.503,-53.436,-54.122,-53.82,-48.951,-53.295
-44.933,-44.974,-44.197,-44.629,-43.85,-45.587,-38.845,-42.18
-36.964,-38.028,-36.235,-37.666,-35.11,-39.105,-32.608,-35.299
-41.679,-39.196,-32.704,-34.41,-31.704,-35.369,-28.865,-32.759
-44.4,-45.781,-32.079,-33.844,-31.893,-33.238,-25.301,-30.903
-35.502,-48.352,-28.343,-31.507,-28.839,-29.719,-20.069,-26.702
-30.143,-45.329,-23.463,-28.979,-24.404,-27.505,-17.46,-23.864
-35.111,-43.556,-23.316,-30.558,-24.791,-29.918,-21.542,-26.327
-36.01,-43.524,-25.417,-32.912,-27.667,-32.224,-26.897,-29.383
-29.282,-41.492,-25.964,-32.361,-28.678,-30.776,-29.453,-29.199
-23.765,-36.218,-24.777,-30.011,-26.632,-27.553,-31.67,-28.518
-27.424,-36.021,-28.634,-33.416,-28.86,-30.632,-39.252,-33.97
-33.699,-40.948,-35.913,-40.174,-36.005,-37.703,-46.115,-39.597
-31.069,-38.902,-36.048,-39.846,-37.888,-38.295,-43.597,-36.979
-27.167,-31.337,-31.41,-36.307,-33.816,-36.182,-40.449,-35.864
-30.87,-28.24,-29.852,-36.813,-30.148,-38.214,-43.276,-41.787
-37.214,-33.274,-35.922,-42.563,-34.993,-44.735,-49.404,-49.111
-34.55,-36.767,-44.044,-47.145,-45.206,-49.014,-53.293,-51.774
-20.936,-29.11,-42.979,-42.673,-46.683,-43.936,-50.008,-46.95
-9.512,-18.144,-34.458,-33.005,-38.684,-34.207,-41.938,-38.356
-4.874,-12.237,-25.42,-24.124,-29.26,-25.943,-32.338,-29.009
-4.728,-12.942,-20.637,-19.563,-24.584,-22.058,-26.626,-23.292
-6.732,-15.877,-17.955,-17.102,-22.271,-19.882,-25.949,-22.221
-5.092,-15.127,-11.685,-11.865,-15.98,-15.101,-24.159,-21.115
-2.54,-13.488,-5.903,-7.891,-10.042,-11.839,-21.337,-20.445
-5.24,-12.319,-3.377,-6.729,-7.419,-10.175,-17.573,-18.741
-11.838,-11.74,-0.881,-5.042,-4.488,-6.362,-11.41,-13.547
-13.888,-10.824,5.809,0.094,2.637,0.436,-3.245,-5.527
-9.224,-5.815,15.205,6.509,12.278,6.793,3.253,1.621
-2.52,1.265,19.602,7.814,17.501,7.503,3.608,3.505
11.345,7.614,20.803,8.202,19.884,7.701,4.529,5.762
28.186,8.936,21.16,9.927,20.949,9.374,8.581,9.647
32.62,3.716,17.294,6.998,17.515,6.701,8.057,8.272
24.405,-3.488,8.318,-1.766,8.505,-0.916,-0.232,0.755
13.489,-10.94,-4.89,-13.966,-5.721,-11.785,-14.11,-10.62
5.915,-17.032,-17.27,-25.517,-18.612,-23.191,-27.195,-22.013
-3.066,-24.549,-28.191,-37.097,-28.064,-35.589,-37.792,-33.349
-15.433,-35.591,-39.414,-48.953,-37.433,-48.003,-46.826,-44.779
-24.151,-45.561,-48.437,-57.238,-46.178,-56.253,-53.26,-53.597
-27.339,-51.592,-53.578,-61.142,-52.063,-59.894,-57.935,-59.153
-24.86,-50.176,-50.407,-57.465,-49.455,-56.069,-56.792,-56.946
-19.232,-42.634,-39.894,-48.076,-39.368,-46.774,-49.692,-48.172
-16.474,-33.983,-28.424,-39.334,-28.551,-38.2,-41.798,-39.818
-21.651,-29.283,-20.517,-33.836,-21.243,-32.946,-35.167,-34.612
-33.528,-34.753,-20.169,-34.017,-21.27,-33.761,-32.592,-34.746
-39.817,-43.999,-24.036,-37.05,-25.903,-37.355,-33.69,-37.993
-37.809,-46.741,-27.994,-39.694,-31.347,-39.487,-37.181,-41.241
-32.528,-41.822,-28.306,-38.892,-32.733,-37.464,-38.402,-40.409
-22.321,-34.406,-22.048,-31.91,-26.279,-29.735,-31.825,-31.969
-10.231,-29.846,-15.73,-24.332,-19.494,-22.021,-22.764,-22.047
-2.801,-23.869,-12.834,-19.958,-16.467,-17.874,-16.699,-16.127
-3.144,-15.881,-12.496,-19.814,-15.722,-18.508,-15.481,-15.93
-3.541,-12.047,-13.128,-21.975,-15.807,-21.728,-16.43,-17.952
4.11,-12.524,-12.9,-22.395,-15.405,-22.634,-14.723,-16.443
9.499,-14.151,-13.895,-22.89,-16.505,-22.759,-13.455,-14.307
5.033,-12.477,-14.135,-22.575,-16.845,-21.949,-14.74,-13.886
-0.469,-8.315,-12.03,-19.745,-14.539,-19.047,-16.896,-13.596
2.608,-5.145,-8.698,-14.711,-11,-13.798,-15.557,-9.282
8.349,-4.134,-6.551,-9.663,-9.165,-7.92,-10.326,-1.296
6.267,-4.157,-8.275,-7.526,-11.202,-5.017,-7.34,4.028
4.171,0.724,-7.265,-2.568,-10.201,-0.008,-3.431,10.104
6.515,5.213,-3.563,3.528,-7.044,5.616,1.614,15.596
3.487,-0.821,-5.788,0.799,-10.05,2.32,-0.414,10.506
-7.702,-13.869,-12.841,-9.474,-16.094,-8.281,-9.054,-3.082
-20.056,-25.533,-17.686,-17.847,-18.499,-16.76,-15.389,-12.634
-26.286,-31.012,-16.617,-17.415,-17.447,-16.445,-12.234,-9.832
-29.395,-34.876,-15.667,-14.392,-20.104,-13.3,-6.706,-3.706
-32.545,-39.538,-17.582,-14.975,-25.314,-13.393,-5.971,-2.803
-34.323,-41.064,-19.294,-17.092,-27.257,-15.183,-7.623,-4.271
-39.33,-43.228,-25.318,-23.423,-31.663,-21.57,-14.359,-10.982
-49.461,-49.477,-36.34,-34.346,-41.237,-32.492,-27.605,-25.05
-59.466,-56.219,-46.294,-44.732,-50.646,-42.609,-42.038,-40.431
-58.782,-53.323,-48.056,-47.677,-52.584,-45.558,-48.629,-47.702
-48.664,-40.496,-43.724,-45.17,-48.967,-43.633,-48.437,-48.462
-46.555,-36.077,-46.302,-49.694,-52.856,-48.499,-54.997,-54.983
-50.98,-44.251,-54.62,-58.905,-62.467,-57.124,-65.756,-63.408
-48.083,-50.585,-57.696,-61.419,-65.189,-58.737,-67.907,-63.115
-37.953,-44.733,-51.058,-53.577,-55.953,-50.541,-58.79,-53.523
-27.979,-30.734,-39.442,-40.781,-41.358,-37.877,-46.99,-41.417
-21.333,-19.901,-31.723,-32.197,-31.942,-29.508,-41.868,-35.034
-15.099,-11.435,-24.716,-24.279,-23.797,-21.797,-35.841,-28.75
-11.137,-2.251,-14.551,-12.014,-12.453,-9.516,-21.8,-15.867
-11.969,2.813,-7.148,-2.17,-5.198,0.751,-9.056,-4.262
-16.125,-2.126,-8.274,-3.489,-7.921,-0.183,-8.108,-4.413
-20.2,-15.68,-15.259,-13.417,-15.575,-10.345,-15.618,-13.339
-15.42,-23.294,-16.568,-16.609,-15.996,-14.258,-17.551,-16.006
-2.872,-16.66,-8.999,-8.263,-7.513,-6.378,-11.009,-8.851
10.673,0.457,4.919,6.325,7.04,8.189,1.45,4.166
21.279,17.363,19.165,20.306,21.577,21.969,16.178,18.385
20.058,19.809,19.826,22.102,21.541,23.201,19.281,21.554
4.151,7.312,4.933,9.085,5.639,9.644,4.91,8.711
-24.116,-17.817,-22.186,-18.364,-22.11,-18.406,-25.119,-20.138
-60.069,-54.901,-60.345,-58.566,-61.12,-59.583,-66.35,-61.392
-100.568,-96.652,-103.172,-102.042,-105.162,-104,-109.197,-104.582
-151.069,-144.518,-149.771,-147.339,-153.148,-149.4,-153.529,-149.308
-209.983,-204.738,-204.128,-201.626,-208.582,-202.815,-207.043,-203.288
-270.901,-272.797,-267.191,-267.468,-271.024,-267.637,-272.27,-268.49
-326.691,-331.23,-327.74,-330.152,-329.723,-330.219,-335.396,-330.615
-367.601,-368.295,-370.723,-371.847,-372.135,-372.735,-378.844,-372.716
-391.002,-387.934,-394.029,-392.877,-396.72,-394.427,-401.21,-394.887
-399.641,-391.186,-399.566,-397.77,-403.667,-399.419,-406.335,-401.757
-402.359,-382.348,-393.914,-391.926,-398.377,-393.745,-400.302,-398.401
-401.864,-373.625,-385.758,-382.159,-390.03,-384.219,-390.314,-389.483
-388.862,-370.883,-377.638,-371.41,-382.09,-373.165,-381.011,-377.851
-362.04,-367.384,-366.978,-358.645,-372.046,-359.689,-372.349,-364.367
-332.324,-349.46,-346.057,-337.07,-351.655,-337.664,-354.237,-342.076
-314.453,-322.356,-320.401,-312.131,-325.899,-312.65,-328.72,-316.262
-305.877,-301.502,-302.475,-295.614,-306.986,-296.188,-309.24,-299.894
-291.553,-287.85,-290.902,-285.392,-294.649,-286.206,-297.705,-290.643
-272.792,-275.631,-279.773,-275.056,-284.465,-276.206,-288.241,-281.086
-259.658,-261.639,-267.09,-263.13,-273.01,-264.228,-276.401,-269.441
-257.724,-254.511,-260.301,-257.509,-265.58,-258.324,-269.625,-263.886
-261.379,-258.305,-263.295,-260.592,-267.584,-261.769,-273.164,-267.818
-261.508,-258.899,-266.971,-262.678,-271.726,-264.764,-277.305,-271.377
-258.606,-249.722,-264.146,-259.682,-269.02,-261.907,-274.524,-268.092
-250.806,-240.008,-253.28,-252.618,-255.987,-253.864,-264.527,-258.072
-238.375,-240.166,-242.702,-246.45,-243.069,-246.889,-254.698,-248.442
-228.369,-243.772,-239.183,-242.371,-240.314,-243.012,-248.869,-242.552
-225.582,-238.613,-237.417,-236.351,-240.649,-237.802,-242.599,-237.025
-226.752,-228.771,-233.474,-230.982,-236.127,-233.484,-236.422,-233.787
-218.525,-219.047,-225.845,-226.064,-226.284,-229.478,-230.298,-230.737
-203.58,-209.988,-217.028,-219.746,-216.799,-223.006,-223.846,-224.347
-198.621,-202.569,-208.614,-211.322,-208.794,-213.082,-215.799,-214.022
-202.435,-196.855,-199.423,-200.96,-199.384,-200.931,-205.194,-201.743
-202.432,-193.111,-193.691,-194.592,-192.719,-193.765,-198.753,-195.553
-194.24,-186.252,-191.201,-192.199,-189.151,-191.808,-197.204,-195.358
-184.304,-176.521,-189.273,-189.889,-187.351,-190.235,-195.452,-194.721
-173.703,-168.425,-184.819,-183.75,-185.17,-184.209,-188.311,-188.258
-161.417,-161.256,-174.633,-171.684,-177.194,-171.874,-174.362,-175.164
-155.873,-154.361,-163.238,-159.265,-165.662,-159.796,-161.26,-162.736
-154.024,-145.989,-153.589,-148.913,-155.263,-150.373,-152.07,-153.126
-143.703,-139.034,-146.387,-141.702,-148.658,-143.412,-145.651,-145.729
-124.146,-134.217,-138.978,-136.725,-141.605,-137.616,-139.206,-139.427
-107.302,-125.402,-128.262,-130.16,-129.854,-130.214,-130.16,-132.072
-101.204,-112.88,-119.716,-123.904,-120.799,-123.84,-122.582,-126.203
-96.411,-100.428,-113.889,-117.561,-115.488,-117.974,-116.192,-120.012
-88.021,-94.314,-108.256,-111.446,-109.25,-112.529,-110.275,-112.395
-81.234,-93.628,-102.846,-106.515,-102.013,-107.774,-105.877,-104.578
-79.885,-89.094,-98.176,-101.739,-96.283,-102.25,-102.072,-97.176
-84.748,-82.282,-97.741,-100.172,-96.157,-99.814,-100.46,-94.327
-84.727,-78.541,-99.876,-100.077,-99.311,-99.739,-98.742,-94.079
-76.175,-79.25,-101.884,-99.445,-102.056,-99.827,-97.178,-95.057
-72.675,-80.843,-101.235,-98.391,-100.743,-99.387,-97.455,-97.865
-80.03,-79.869,-96.326,-95.809,-94.125,-96.713,-95.943,-98.014
-86.616,-79.641,-91.52,-92.919,-88.293,-92.949,-90.857,-93.41
-79.109,-78.093,-85.021,-86.476,-81.776,-85.534,-80.363,-83.711
-65.955,-73.086,-76.428,-78.246,-73.13,-76.845,-69.9,-75.162
-59.72,-66.689,-70.979,-74.605,-67.579,-72.945,-67.426,-73.347
-56.228,-60.907,-69.665,-74.279,-66.59,-72.157,-70.758,-73.74
-51.849,-58.782,-71.284,-74.054,-68.68,-71.715,-74.343,-72.806
-49.135,-57.153,-71.571,-71.311,-69.249,-69.67,-73.695,-70.373
-53.382,-55.868,-70.146,-68.95,-67.447,-68.633,-72.104,-70.58
-62.065,-57.788,-68.607,-69.026,-64.361,-69.395,-72.322,-72.825
-66.793,-61.034,-68.104,-69.913,-62.413,-69.59,-72.466,-72.605
-68.064,-64.229,-71.89,-72.954,-66.91,-71.417,-74.905,-73.239
-67.116,-63.419,-75.27,-74.192,-72.644,-72.253,-77.087,-74.151
-67.257,-58.936,-76.859,-73.577,-76.048,-72.218,-78.114,-74.853
-69.201,-53.288,-79.195,-74.666,-78.85,-74.161,-80.218,-76.999
-65.191,-46.639,-78.078,-74.02,-77.514,-74.144,-80.136,-76.614
-55.544,-42.071,-72.431,-69.898,-71.826,-70.1,-76.526,-71.726
-48.261,-37.183,-65.551,-63.098,-65.366,-62.66,-70.071,-63.243
-49.434,-30.64,-63.721,-58.308,-63.826,-56.964,-65.3,-56.973
-52.072,-24.611,-64.948,-55.424,-64.449,-53.594,-62.006,-53.906
-46.883,-20.877,-60.625,-48.303,-59.052,-46.771,-54.451,-48.506
-42.494,-23.589,-54.318,-40.56,-52.274,-40.104,-46.628,-44.77
-47.155,-28.468,-51.004,-36.62,-48.864,-37.137,-42.345,-45.388
-56.804,-28.478,-49.056,-34.288,-46.447,-34.578,-39.605,-44.521
-58.113,-21.328,-42.861,-27.571,-39.778,-27.145,-33.26,-35.824
-43.891,-11.013,-32.496,-17.961,-29.482,-17.904,-23.263,-23.951
-27.596,-6.051,-26.599,-15.153,-23.729,-16.071,-17.625,-19.154
-20.001,-5.603,-22.178,-14.985,-18.734,-16.012,-13.943,-15.499
-18.448,-7.554,-14.901,-10.913,-11.106,-11.689,-8.618,-7.739
-13.674,-6.635,-7.998,-3.843,-6.124,-5.177,-3.147,0.205
-1.759,5.268,-1.125,5.744,-2.336,3.873,4.219,8.266
7.339,19.201,5.343,12.982,3.442,12.044,11.085,14.43
10.08,24.763,10.263,15.24,10.175,16.13,14.875,16.439
11.599,24.289,11.505,13.415,12.58,14.956,15.461,13.019
17.222,26.848,12.916,12.902,13.712,13.06,18.086,9.239
28.88,36.417,20.981,19.249,21.944,17.298,27.315,12.918
40.394,45.858,30.096,27.478,31.779,24.26,35.935,21.042
49.398,52.67,34.503,33.8,35.702,30.462,39.87,30.533
55.862,56.548,32.854,36.415,32.457,33.518,39.57,38.599
59.378,56.191,28.297,35.749,27.019,33.105,36.866,42.371
60.533,54.466,26.026,35.992,25.177,33.095,35.118,43.201
59.298,54.841,24.64,37.216,24.569,34.083,33.765,41.992
62.229,61.89,25.051,40.759,25.302,38.023,35.024,43.045
69.806,70.805,26.366,43.922,26.562,41.81,36.766,44.973
76.087,75.988,26.764,43.657,27.022,41.492,35.403,43.747
81.242,83.057,29.904,44.735,30.779,41.999,35.072,43.074
86.465,92.767,36.34,49.76,38.325,46.939,38.012,45.611
93.338,98.763,44.729,58.077,47.381,55.922,44.513,51.824
98.42,95.555,49.811,63.583,51.765,62.298,50.411,57.009
100.12,89.205,50.692,64.647,51.336,64.091,54.003,59.597
103.902,90.109,54.223,67.837,54.735,67.919,60.174,65.288
111.146,97.883,61.671,74.313,63.154,74.757,69.13,74.461
121.407,111.058,72.213,83.738,73.953,83.734,79.356,85.069
126.981,122.715,80.615,90.826,82.164,89.57,84.428,90.03
121.532,125.13,83.616,91.052,86.682,88.579,81.437,85.715
113.438,123.531,85.435,89.045,91.089,86.043,78.244,79.72
110.03,122.373,85.846,86.644,92.141,83.586,78.061,75.833
109.952,118.574,85.129,84.169,89.56,81.031,79.846,74.13
105.527,107.392,82.045,79.969,84.141,76.764,78.717,71.612
96.059,94.668,76.011,74.751,76.994,71.948,72.881,67.967
88.897,88.34,71.828,73.24,72.891,71.27,67.677,67.17
82.968,82.905,69.09,73.702,69.631,72.263,63.317,66.381
76.193,76.23,65.928,74.193,64.771,72.7,59.696,63.977
69.838,71.07,61.341,72.835,59.439,71.06,58.09,60.854
66.966,68.411,58.715,70.581,57.665,68.323,61.702,59.689
67.434,66.705,61.052,70.273,60.634,67.24,69.763,61.69
63.54,61.297,61.838,68.142,61.324,64.386,71.482,60.727
53.992,56.015,59.678,64.578,59.28,60.412,65.044,56.496
42.045,52.836,56.468,60.823,56.66,56.491,55.848,51.125
33.718,48.761,54.157,57.586,55.055,53.529,49.443,47.022
33.527,44.809,55.531,57.301,57.044,54.45,49.878,47.561
34.817,40.544,56.569,56.565,58.585,55.289,52.803,48.495
34.503,38.325,56.598,54.861,58.992,54.036,56.524,48.343
33.047,38.055,57.193,52.902,59.889,51.393,60.518,48.196
31.092,36.536,59.558,51.985,62.669,50.07,63.677,49.593
31.007,34.173,63.914,54.317,67.402,52.563,66.029,53.398
30.628,31.663,64.209,56.016,67.282,54.119,63.832,54.428
29.611,32.058,60.315,56.679,62.438,54.49,59.118,53.472
27.399,33.858,56.246,57.394,58.35,55.795,55.911,53.92
26.041,35.714,56.274,60.545,59.063,60.064,57.866,58.389
28.354,38.646,61.257,67.508,63.989,67.406,65.992,67.197
27.689,37.206,62.672,69.652,65.418,69.035,71.125,71.258
23.301,33.374,59.514,65.493,63.585,63.923,70.369,68.074
19.938,32.226,56.113,61.32,60.882,58.711,66.765,62.138
18.342,30.664,52.808,59.362,55.772,56.226,60.488,55.994
16.034,23.708,48.76,56.914,49.495,53.79,51.755,49.729
9.758,12.759,44.481,51.547,44.977,48.181,43.567,42.68
4.162,8.364,45.923,49.68,47.143,45.822,43.622,40.633
1.951,10.863,50.627,51.789,51.873,48.116,49.135,43.008
1.467,12.575,51.771,52.558,52.782,49.826,53.142,44.626
1.284,11.995,50.786,52.307,52.071,50.464,56.935,46.653
-0.846,10.004,50.406,51.718,52.353,50.265,60.016,49.628
0.401,11.641,54.463,53.716,57.559,52.487,62.581,55.352
5.71,15.146,59.275,55.961,63.762,55.365,63.145,60.9
8.978,15.214,58.894,54.646,63.688,54.909,61.732,62.535
8.707,15.335,56.442,53.264,60.266,53.669,63.21,63.313
6.608,18.037,55.381,53.715,58.521,53.266,66.942,64.242
9.303,22.155,57.366,56.262,60.874,54.721,70.247,65.274
13.637,21.434,56.888,55.874,60.863,53.533,68.166,62.35
9.429,13.294,49.782,49.931,53.32,47.242,61.106,55.497
-0.627,2.989,41.487,44.022,44.299,42.011,56.558,52.726
-6.345,-4.163,36.787,41.607,39.84,41.094,55.716,55.896
-0.688,-0.695,39.753,45.748,43.779,46.056,58.993,63.924
8.86,8.989,46.436,52.052,50.985,52.011,63.125,70.907
12.348,14.058,50.464,54.352,54.778,53.641,63.79,71.522
12.835,15.376,52.633,54.888,56.543,53.475,63.032,68.701
14.141,15.81,52.594,54.58,56.251,52.582,62.145,64.947
15.069,15.582,51.455,53.825,54.788,52.226,63.093,62.96
9.87,10.728,47.602,49.538,50.73,49.42,62.542,59.927
0.26,2.467,40.445,41.274,43.945,42.479,56.858,53.456
-5.887,-1.791,34.403,34.65,38.562,36.192,48.723,47.456
-10.04,-3.707,28.932,29.217,33.232,30.358,38.959,40.964
-11.613,-5.247,25.614,25.708,29.639,26.301,32.204,35.061
-8.263,-5.183,25.549,24.845,29.981,25.235,30.47,31.5
-2.297,-0.54,27.318,25.351,32.456,25.943,30.465,29.561
1.75,8.157,29.658,25.941,34.361,26.861,29.582,27.861
0.64,10.334,28.42,22.519,32.217,23.627,25.041,22.903
1.058,4.325,25.893,18.491,29.74,19.281,22.026,18.703
4.13,-3.037,23.855,17.32,28.337,17.168,23.043,18.113
4.425,-6.888,21.012,17.805,25.58,16.82,23.783,19.206
3.21,-5.579,18.377,19.054,22.25,18.217,22.654,21.342
0.482,-4.058,14.298,17.562,17.72,17.683,19.106,21.429
-2.004,-4.316,11.94,15.95,15.891,16.906,18.155,21.605
0.444,-3.667,15.803,19.091,20.387,20.143,23.717,25.681
10.278,3.046,25.996,27.782,30.657,28.368,34.278,33.861
20.292,13.308,36.024,35.938,40.759,36.262,43.087,40.51
18.785,14.427,36.302,34.004,41.103,34.856,41.758,37.575
12.267,9.158,32.638,28.173,37.42,30.037,37.233,32.57
11.012,8.681,32.944,27.216,38.695,29.662,37.135,33.242
13.412,14.056,34.954,29.277,42.671,31.328,38.202,35.302
14.976,18.82,36.185,31.575,45.061,32.613,38.098,35.761
13.999,17.474,35.902,32.79,44.185,33.011,36.893,35.367
14.766,16.073,36.987,34.828,43.633,34.887,37.754,37.497
14.584,17.027,38.187,35.075,43.463,35.379,39.512,39.392
9.704,15.325,37.711,31.813,42.655,32.104,39.849,37.863
7.295,10.772,36.543,28.617,41.19,28.298,38.796,34.812
11.481,5.474,32.625,24.637,35.865,23.634,34.336,29.606
19.481,4.273,30.631,22.305,32.501,21.322,32.103,26.642
23.462,6.065,32.181,22.613,34.095,22.334,34.402,27.636
22.283,8.388,33.039,23.814,35.714,24.185,36.671,28.854
21.202,14.253,34.87,27.989,37.655,28.372,39.444,30.553
19.05,20.001,38.494,32.837,40.428,32.515,42.153,31.602
19.695,21.54,42.165,34.661,43.352,33.294,42.353,30.401
25.711,19.183,41.539,31.726,42.742,29.569,37.457,25.788
31.513,17.266,38.447,29.015,39.363,26.607,32.487,23.058
33.958,19.144,39.467,31.721,39.694,29.463,33.931,27.496
32.414,20.803,41.403,34.267,42.143,32.268,35.428,31.912
28.754,21.006,40.347,33.683,42.638,31.842,32.898,31.753
21.986,17.982,34.238,28.908,37.17,27.352,27.03,26.512
15.152,12.946,25.654,21.381,27.726,20.581,20.258,18.823
15.575,13.618,21.895,18.039,22.827,18.2,17.357,15.317
20.199,20.085,23.143,20.327,23.561,21.208,18.354,16.685
24.57,27.875,27.363,26.67,27.383,28.116,22.965,22.224
27.389,31.902,30.467,31.5,29.975,33.454,26.949,27.394
32.174,33.924,32.907,33.336,32.827,35.389,28.612,29.807
42.012,38.597,39.57,37.17,40.853,38.859,32.322,33.46
48.155,39.434,45.333,40.293,47.222,41.503,35.4,36.042
45.678,34.748,47.138,41.082,48.433,41.528,36.833,36.251
39.487,30.402,46.796,40.141,47.707,39.357,37.483,34.601
38.171,29.618,45.509,37.827,46.559,36.001,37.2,31.642
42.416,31.061,43.892,35.877,44.846,33.816,37.114,29.194
41.73,31.688,40.438,33.447,41.462,31.773,35.814,26.374
37.151,34.557,38.933,33.158,40.741,32.07,35.465,26.129
35.565,36.664,39.948,34.282,42.491,33.554,35.473,27.627
38.198,33.58,40.952,34.561,43.509,33.557,34.21,27.84
43.787,30.076,42.722,35.846,44.742,34.119,34.861,28.753
47.273,28.646,43.169,36.199,44.424,33.649,36.861,29.33
47.216,30.09,42.473,35.625,43.096,32.296,39.145,29.882
41.627,29.584,38.968,33.214,39.008,29.941,38.365,29.738
32.125,23.27,32.642,28.747,31.966,26.728,34.701,28.708
26.624,17.365,29.075,25.864,28.467,24.819,33.922,28.988
25.75,16.735,28.333,25.059,28.546,23.501,35.338,29.026
28.393,22.226,29.958,28.611,29.557,26.039,37.771,30.829
30.836,25.892,31.099,32.47,28.327,29.67,38.032,33.138
28.87,21.544,28.746,29.634,24.563,27.21,34.158,32.204
23.924,14.756,24.798,22.306,21.797,20.412,29.85,29.387
18.375,9.929,20.704,15.239,20.442,14.125,26.058,25.495
18.44,9.466,21.162,13.934,23.477,13.587,25.58,24.43
23.057,11.197,25.245,16.524,28.77,16.197,28.165,26.063
25.425,14.097,28.678,18.887,31.676,17.787,31.888,28.17
25.299,19.319,31.039,21.129,32.724,19.515,36.575,31.54
23.971,19.696,29.031,19.143,29.945,17.871,36.597,30.924
24.867,14.628,24.775,13.932,25.633,13.047,31.378,24.612
26.854,9.726,20.951,9.176,21.81,8.143,23.563,15.652
26.942,6.233,16.327,5.548,16.897,4.366,15.393,7.556
24.876,2.351,11.113,2.246,11.404,1.29,10.199,2.269
17.815,-3.215,5.384,-3.014,5.877,-3.555,7.268,-2.651
10.316,-4.164,3.232,-4.989,4.325,-5.11,7.515,-4.388
6.499,-0.465,3.882,-2.403,5.49,-2.271,8.236,-3.394
5.246,1.49,3.88,-0.365,5.618,-0.326,6.332,-4.116
7.761,1.607,4.6,1.024,5.788,0.908,4.391,-5.273
12.505,1.128,5.391,2.655,5.353,2.779,2.891,-5.163
18.72,3.712,8.556,6.859,7.589,7.423,4.796,-0.712
23.85,9.275,13.791,11.248,13.279,11.896,9.336,5.781
25.83,14.791,17.368,12.519,18.485,12.767,11.994,9.637
26.445,18.927,17.953,12.455,20.021,12.264,12.577,11.395
23.896,17.408,13.808,10.208,14.663,10.046,11.414,10.942
18.08,11.322,9.175,6.793,8.34,7.022,11.846,10.331
10.061,4.765,6.769,2.457,6.461,2.915,12.941,8.417
6.26,2.564,6.284,-1.057,7.982,-0.68,12.209,4.644
13.066,6.388,7.867,-0.502,10.359,-0.378,10.883,2.655
20.739,8.762,7.48,-0.08,9.2,-0.257,6.893,0.534
21.997,8.982,6.874,0.154,7.808,0.131,2.937,-1.037
21.182,9.946,7.601,1.966,8.12,2.989,1.894,-0.866
23.283,11.939,8.224,4.665,8.091,7.022,3.653,0.772
27.021,15.624,10.547,8.373,9.895,11.455,8.753,5.009
27.413,18.228,13.847,10.811,13.776,13.816,13.821,9.215
27.716,20.808,18.927,14.002,20.49,16.262,18.911,13.939
30.227,23.823,24.057,18.333,26.627,19.418,24.021,18.849
35.172,27.109,27.118,22.432,28.351,22.412,28.224,22.118
43.434,32.942,29.737,26.353,28.674,25.806,30.704,22.74
48.8,37.951,29.238,25.594,27.808,25.127,26.272,16.897
50.311,40.713,26.138,22.16,25.5,21.703,18.453,9.421
50.512,40.617,23.12,20.9,21.946,19.848,14.193,6.881
48.148,37.081,22.439,22.149,20.535,20.587,14.437,9.345
42.419,32.862,24.832,23.662,24.149,22.629,16.652,13.648
37.121,30.584,25.921,22.147,26.602,22.116,16.935,15.226
41.125,35.073,26.497,21.335,25.942,21.576,17.879,16.548
48.423,42.055,26.703,21.849,23.778,21.61,19.315,17.584
46.428,43.437,25.419,21.198,22.03,20.234,18.888,15.972
38.447,40.162,25.085,20.421,23.112,18.535,18.118,13.753
33.264,34.522,24.739,17.644,24.321,14.962,15.755,9.98
33.992,30.291,24.614,14.357,24.8,11.724,13.666,5.76
32.436,26.639,21.804,10.533,21.182,8.698,11.216,0.523
24.484,20.527,14.787,4.527,12.775,3.22,6.346,-6.146
19.103,13.528,9.877,-0.387,7.632,-1.841,2.913,-9.329
19.496,6.943,8.757,-2.264,7.613,-3.767,1.869,-8.107
22.339,4.336,9.21,-0.245,8.958,-1.08,1.87,-4.134
22.819,5.116,7.512,1.317,7.002,1.399,-0.493,-2.456
21.665,9.297,6.482,2.07,4.981,2.707,-2.841,-2.992
22.773,17.85,10.955,6.972,8.589,8.048,-0.032,-0.407
23.478,21.747,13.435,10.578,11.057,12.319,2.344,1.573
24.336,19.143,10.97,9.153,9.827,11.316,2.411,1.283
22.682,14.775,6.955,4.045,7.681,6.022,1.123,-0.699
14.485,9.548,2.815,-2.356,4.758,-0.625,-3.054,-5.001
7.276,4.555,-0.21,-6.462,2.054,-4.698,-7.898,-9.024
7.244,0.797,-3.146,-8.985,-1.2,-7.489,-11.22,-11.42
10.463,0.113,-4.321,-8.935,-3.667,-8.077,-10.49,-10.168
6.701,-2.272,-4.422,-7.542,-5.23,-6.757,-8.551,-8.233
-1.164,-6.418,-3.361,-5.94,-4.052,-4.48,-7.108,-7.58
-0.086,-1.67,0.787,-2.961,1.575,-0.989,-3.364,-5.179
6.629,9.682,2.473,-2.802,4.263,-0.896,-1.184,-3.732
11.259,17.048,2.91,-2.894,4.655,-1.046,0.623,-1.287
15.955,19.409,8.736,2.684,10.358,5.105,7.325,6.67
26.138,25.16,18.837,12.31,20.758,15.546,17.139,17.309
36.813,33.181,24.119,18.007,26.095,21.418,21.971,22.046
36.021,32.123,18.683,14.164,20.042,17.326,16.832,15.828
29.169,26.595,12.101,9.154,12.962,12.475,10.585,8.675
25.098,24.209,8.457,6.975,9.457,10.722,6.935,5.901
21.555,22.188,2.712,3.851,3.716,7.619,1.931,3.039
16.381,19.605,-2.289,2.488,-1.759,5.826,-1.941,0.683
9.651,18.073,-3.121,4.286,-2.746,7.197,-3.887,-0.272
5.35,20.021,-1.477,6.302,-0.811,9.075,-6.299,-0.712
3.6,21.022,-4.682,2.304,-4.474,5.098,-13.656,-5.25
3.572,18.332,-10.463,-3.761,-11.869,-1.139,-20.894,-10.24
8.005,17.466,-6.549,0.058,-9.256,2.249,-15.531,-4.562
12.937,18.918,3.66,9.007,1.084,10.776,-2.471,5.667
14.9,21.599,8.816,11.965,7.105,13.29,5.129,7.837
13.307,21.521,5.307,5.91,4.392,6.559,2.304,-0.331
9.202,15.085,-0.919,-3.888,-0.881,-3.765,-5.222,-10.905
3.933,6.157,-4.234,-11.028,-2.932,-10.716,-10.352,-16.295
-2.801,-1.312,-7.938,-15.917,-5.593,-14.967,-14.226,-18.344
-4.783,-3.423,-11.959,-17.952,-9.034,-16.575,-16.39,-17.96
-2.015,-2.464,-16.113,-19.491,-12.968,-17.841,-18.051,-17.53
-1.299,-1.706,-20.234,-21.794,-17.621,-19.734,-19.917,-18.46
-2.368,0.518,-19.899,-20.679,-18.392,-18.507,-18.101,-17.647
-1.99,2.944,-15.475,-17.034,-14.624,-15.543,-13.411,-16.059
3.322,7.612,-7.548,-10.15,-7.135,-9.628,-5.168,-10.93
8.662,12.735,-0.639,-2.289,-1.079,-2.096,3.311,-2.476
8.854,12.111,-0.584,-0.24,-1.102,0.4,3.803,2.226
7.192,6.519,-5.011,-4.663,-4.063,-3.316,-4.573,0.683
3.015,-0.714,-10.035,-11.418,-7.882,-9.419,-15.594,-4.561
-3.161,-4.978,-11.876,-13.501,-10.25,-10.987,-19.295,-6.94
-9.219,-7.668,-13.696,-13.192,-13.287,-10.245,-17.394,-7.471
-13.188,-11.32,-18.996,-15.852,-19.442,-12.359,-17.593,-9.811
-13.891,-12.846,-23.444,-18.293,-24.713,-14.193,-18.602,-10.786
-15.772,-13.392,-25.89,-19.641,-27.785,-15.275,-19.372,-10.926
-17.66,-14.111,-25.789,-19.926,-27.166,-15.855,-19.788,-11.183
-17.872,-16.727,-25.227,-20.888,-25.073,-17.387,-21.937,-13.417
-18.967,-20.956,-26.81,-23.431,-25.57,-20.379,-25.617,-18.319
-22.844,-22.844,-29.195,-25.288,-28.426,-22.414,-26.529,-22.139
-29.336,-22.981,-32.217,-27.298,-33.027,-24.378,-25.329,-23.787
-27.695,-19.499,-30.312,-25.86,-32.169,-22.969,-20.647,-20.745
-16.036,-14.013,-23.028,-21.556,-24.146,-19.037,-15.048,-16.615
-8.606,-11.176,-18.434,-20.356,-17.991,-18.396,-14.15,-17.189
-9.929,-8.343,-18.188,-19.897,-17.751,-18.489,-13.921,-17.344
-12.428,-3.925,-18.271,-16.044,-19.567,-15.32,-9.669,-12.705
-12.104,0.185,-14.617,-9.403,-16.81,-9.359,-3.516,-5.43
-16.85,-1.566,-13.101,-7.702,-14.587,-7.62,-4.616,-2.683
-26.7,-8.177,-18.924,-12.392,-20.582,-11.117,-12.922,-4.921
-30.053,-11.244,-25.883,-15.398,-29.564,-12.127,-17.739,-5.293
-27.409,-11.469,-30.148,-16.753,-34.725,-11.698,-19.828,-5.44
-24.97,-12.14,-31.065,-18.868,-32.856,-13.272,-23.972,-8
-26.916,-16.979,-32.579,-23.251,-30.174,-18.005,-30.274,-13.731
-32.686,-28.053,-38.082,-30.027,-34.627,-24.806,-35.82,-21.941
-38.071,-39.979,-44.161,-36.256,-43.329,-30.762,-38.96,-29.463
-44.851,-47.718,-49.207,-41.678,-51.203,-36.31,-43.167,-36.04
-49.392,-48.367,-51.576,-44.252,-54.886,-39.193,-46.251,-39.307
-45.739,-45.705,-51.548,-45.008,-55.17,-40.239,-45.762,-39.804
-36.578,-42.515,-48.3,-44.837,-51.122,-40.87,-42.236,-38.61
-29.769,-36.676,-41.364,-41.124,-43.075,-38.455,-36.633,-34.234
-31.166,-32.32,-38.089,-37.509,-40.428,-35.66,-33.749,-30.741
-35.254,-31.338,-39.314,-36.386,-43.549,-34.24,-32.665,-29.84
-37.163,-31.279,-40.938,-37.636,-45.73,-34.817,-31.803,-31.841
-34.928,-27.18,-39.029,-37.394,-42.365,-34.947,-31.113,-34.375
-26.767,-18.408,-31.568,-32.359,-32.814,-31.484,-29.475,-33.517
-20.522,-15.222,-25.649,-30.088,-25.223,-30.782,-30.33,-34.385
-19.754,-17.345,-22.937,-31.14,-21.654,-32.677,-31.259,-37.149
-20.536,-15.486,-19.63,-28.514,-18.759,-30.453,-28.85,-36.49
-19.37,-7.904,-16.044,-21.785,-16.904,-24.265,-26.161,-32.51
-15.473,-2.245,-15.769,-17.15,-18.356,-20.243,-26.958,-29.663
-11.415,-6.477,-20.694,-18.499,-23.705,-21.351,-31.434,-29.826
-7.012,-12.205,-21.757,-16.6,-24.808,-18.31,-30.083,-24.279
-7.747,-11.001,-14.681,-7.742,-18.35,-8.888,-19.726,-12.071
-13.305,-7.033,-6.134,-0.456,-9.626,-1.973,-8.903,-3.809
-10.682,-5.316,-1.229,0.869,-2.996,-0.517,-3.919,-3.999
-0.056,-6.796,-0.511,-0.97,-0.837,-1.53,-4.771,-8.457
11.262,-4.037,2.27,1.523,1.838,1.281,-4.646,-7.565
19.532,5.625,7.604,7.069,6.593,6.692,-3.218,-1.802
22.897,16.41,12.197,11.049,11.02,10.777,-2.817,2.497
23.891,24.312,16.962,14.838,15.32,14.566,-0.742,5.159
25.005,27.876,19.153,16.31,16.078,15.53,-0.013,4.689
28.891,33.186,19.945,16.612,15.104,15.241,-1.488,3.367
34.539,40.889,21.531,17.873,16.029,16.464,-2.327,4.769
41.816,42.89,23.079,19.453,18.41,18.618,-0.218,9.413
49.927,38.281,23.788,20.386,20.281,20.062,3.361,13.704
48.436,32.911,20.989,17.044,18.246,16.839,1.669,11.162
35.084,31.318,17.67,12.119,15.5,12.198,-2.03,6.883
19.74,27.496,14.851,8.47,12.924,9.036,-1.938,5.766
14.64,20.42,11.741,7.003,9.8,7.382,2.363,6.502
22.457,20.117,11.772,9.39,10.84,8.98,9.384,9.789
29.383,24.405,12.485,10.397,14.021,9.826,13.337,12.013
29.077,25.239,11.411,8.631,14.632,8.612,14.848,12.171
27.863,22.909,9.791,8.055,12.095,8.262,17.214,12.741
31.928,26.072,12.284,13.096,12.539,13.209,21.335,16.769
38.512,35.738,19.703,23.296,19.238,23.641,26.371,24.746
35.94,37.359,22.461,28.855,22.814,29.465,26.838,29.806
26.999,28.836,19.938,28.238,20.791,28.831,24.598,31.525
22.916,20.301,17.462,25.692,17.701,26.881,23.526,32.942
21.466,16.019,15.746,22.202,15.936,25.08,23.395,34.023
12.948,13.814,13.612,17.819,15.212,22.267,23.096,33.39
-1.471,8.431,7.295,10.593,9.502,15.516,17.909,26.9
-6.882,1.695,-1.093,3.584,-0.922,8.338,8.642,16.861
-3.866,-4.602,-9.428,-2.432,-12.051,2.147,-1.664,6.38
-5.516,-10.259,-16.958,-8.622,-20.053,-4.175,-9.647,-1.719
-11.071,-11.475,-19.33,-11.351,-20.214,-7.012,-10.962,-2.73
-13.987,-9.855,-17.95,-11.69,-16.485,-7.158,-9.219,-0.948
-11.357,-7.931,-15.815,-11.774,-13.872,-6.799,-7.696,-1.005
-7.106,-7.276,-15.141,-13.359,-13.693,-8.388,-8.148,-3.532
-4.101,-6.218,-14.379,-15.018,-12.886,-10.797,-9.461,-5.682
-1.332,-2.087,-10.725,-13.227,-9.056,-10.041,-7.944,-4.944
-2.986,0.184,-10.017,-12.101,-9.226,-9.861,-8.099,-6.92
-8.125,0.222,-14.234,-13.356,-15.512,-11.892,-12.7,-12.616
-12.455,-0.482,-20.321,-16.991,-23.653,-16.321,-20.67,-20.242
-15.078,-4.423,-24.966,-22.821,-29.3,-23.342,-29.167,-28.692
-18.244,-11.734,-26.483,-27.402,-31.287,-29.169,-33.98,-33.868
-24.957,-19.494,-28.836,-30.376,-33.984,-32.662,-36.113,-35.498
-26.611,-21.142,-29.816,-29.327,-34.12,-31.318,-34.278,-33.158
-19.332,-19.069,-26.903,-25.02,-28.785,-26.337,-29.433,-29.407
-14.374,-19.174,-23.7,-21.594,-23.53,-22.298,-25.999,-27.739
-17.371,-18.419,-22.326,-19.529,-22.263,-19.862,-24.412,-26.892
-19.548,-14.661,-21.458,-18.866,-22.497,-19.103,-23.495,-26.488
-10.757,-7.922,-15.752,-15.662,-17.152,-16.282,-18.5,-23.476
-1.655,-2.222,-9.127,-10.665,-10.778,-11.868,-11.618,-19.234
-5.041,-0.674,-7.968,-8.193,-10.756,-9.235,-9.562,-17.562
-13.436,-4.167,-8.78,-8.205,-12.658,-8.273,-11.779,-16.69
-17.822,-13.881,-8.887,-10.775,-12.35,-10.128,-14.788,-15.935
-14.702,-18.331,-5.584,-10.527,-7.695,-9.904,-12.33,-12.614
-8.536,-11.517,-1.822,-6.512,-3.462,-6.073,-6.634,-8.726
-7.018,-4.011,-3.307,-4.591,-5.597,-4.119,-4.946,-8.659
-9.72,-3.039,-7.435,-5.91,-10.583,-5.323,-5.95,-10.01
-13.761,-6.924,-11.023,-9.602,-14.978,-8.708,-7.638,-11.802
-17.164,-8.556,-11.633,-11.245,-16.288,-9.681,-8.41,-12.615
-21.582,-9.239,-11.387,-10.903,-16.123,-8.677,-9.975,-13.408
-24.436,-13.409,-12.29,-11.507,-16.372,-9.15,-13.236,-15.048
-21.777,-17.355,-12.823,-11.504,-16.384,-9.401,-15.601,-15.249
-20.134,-20.26,-16.813,-12.719,-20.696,-10.548,-19.82,-16.917
-21.313,-22.964,-23.957,-15.266,-28.568,-12.441,-25.442,-20.043
-23.775,-28.119,-30.951,-19.195,-35.841,-15.665,-30.877,-23.856
-28.482,-35.387,-36.179,-24.625,-40.858,-20.892,-35.962,-28.548
-34.522,-39.303,-39.609,-29.402,-44.023,-25.884,-39.096,-32.307
-42.75,-41.473,-44.926,-35.368,-48.511,-32.147,-41.876,-36.889
-49.843,-44.164,-49.354,-41.269,-50.82,-38.479,-43.06,-40.605
-53.895,-47.906,-51.592,-46.565,-50.712,-44.392,-44.046,-42.917
-55.902,-49.267,-53.551,-50.885,-52.055,-48.927,-46.046,-44.177
-54.68,-44.461,-53.165,-51.147,-52.764,-48.548,-45.144,-42.413
-52.701,-41.809,-53.081,-51.509,-53.146,-48.201,-44.893,-43.27
-52.701,-46.112,-54.528,-53.578,-53.455,-50.382,-47.437,-47.646
-59.314,-52.913,-56.01,-54.607,-54.756,-51.846,-50.234,-49.638
-68.782,-55.498,-56.308,-53.274,-57.708,-50.462,-53.149,-48.862
-67.597,-51.257,-56.037,-50.868,-60.946,-47.771,-58.018,-50.871
-58.729,-47.824,-59.502,-51.482,-66.511,-48.651,-65.169,-58.526
-55.467,-49.247,-62.91,-52.222,-70.677,-50.293,-68.066,-63.251
-60.805,-54.909,-63.008,-52.216,-70.596,-51.119,-67.136,-62.382
-64.456,-62.174,-62.116,-53.825,-68.178,-53.011,-66.448,-61.304
-60.601,-66.506,-60.228,-54.384,-63.443,-53.196,-62.447,-59.231
-58.333,-67.548,-58.484,-53.161,-59.107,-51.084,-55.41,-54.533
-60.492,-63.455,-56.186,-49.788,-56.129,-47.246,-49.373,-48.033
-63.854,-57.817,-55.898,-48.615,-56.245,-46.885,-51.483,-47.978
-65.671,-55.839,-58.333,-51.845,-58.175,-51.493,-61.197,-56.821
-62.69,-55.021,-57.233,-52.209,-56.116,-52.403,-65.732,-62.13
-59.164,-55.118,-53.915,-48.463,-53.89,-48.148,-61.955,-58.805
-56.75,-53.919,-51.441,-43.893,-54.779,-43.008,-55.6,-52.019
-53.222,-49.437,-50.035,-41.888,-55.742,-41.06,-52.181,-48.919
-49.093,-42.991,-48.571,-41.817,-53.725,-41.144,-51.394,-49.121
-46.763,-36.352,-46.61,-40.394,-50.314,-39.314,-50.224,-47.027
-48.439,-33.791,-47.381,-40.167,-50.847,-38.799,-51.4,-45.066
-47.99,-33.418,-46.953,-39.207,-50.71,-38.526,-51.409,-42.763
-43.445,-33.936,-43.28,-36.26,-46.582,-36.578,-46.5,-38.329
-41.622,-36.384,-40.664,-34.585,-43.192,-35.591,-40.443,-34.815
-44.61,-37.805,-39.963,-34.199,-42.327,-36.144,-37.461,-34.62
-49.223,-39.697,-41.493,-36.223,-43.909,-39.073,-41.075,-39.321
-50.618,-43.171,-42.79,-39.104,-44.622,-41.273,-46.592,-43.867
-51.304,-47.634,-44.852,-42.185,-46.033,-42.013,-49.459,-45.642
-52.816,-51.472,-49.35,-45.718,-50.691,-43.706,-50.675,-47.098
-51.142,-52.983,-51.627,-47.513,-53.16,-45.582,-50.842,-47.912
-49.977,-54.266,-50.446,-48.247,-51.429,-47.339,-51.336,-48.26
-50.535,-51.665,-46.212,-45.487,-46.562,-45.192,-48.782,-45.543
-50.723,-45.398,-43.646,-41.157,-43.545,-40.827,-43.857,-41.907
-51.355,-43.661,-46.397,-41.142,-45.45,-40.564,-41.657,-42.069
-51.516,-47.706,-48.301,-43.353,-45.965,-42.824,-41.061,-42.766
-49.976,-50.656,-45.297,-43.767,-41.408,-43.627,-40.065,-40.802
-45.466,-45.263,-39.104,-40.269,-34.228,-40.432,-36.715,-35.835
-41.997,-38.885,-37.167,-37.501,-32.677,-37.571,-34.067,-32.927
-41.342,-40.091,-40.721,-37.545,-37.905,-37.333,-33.479,-32.506
-41.279,-41.84,-41.724,-35.675,-40.458,-35.617,-30.55,-28.527
-44.42,-39.2,-41.273,-35.411,-39.938,-36.167,-29.608,-26.545
-46.147,-35.358,-43.652,-39.6,-41.094,-41.095,-34.55,-31.81
-41.509,-35.782,-47.941,-43.887,-44.887,-45.33,-40.789,-37.787
-33.562,-36.748,-47.865,-41.485,-45.479,-42.36,-39.904,-34.653
-27.318,-30.849,-41.04,-32.79,-39.569,-33.448,-31.102,-24.978
-28.043,-25.696,-36.563,-28.835,-36.028,-30.178,-25.792,-23.499
-31.346,-27.015,-35.133,-29.447,-35.313,-32.028,-25.865,-29.01
-32.772,-29.001,-30.82,-26.779,-31.042,-30.203,-25.02,-30.078
-33.073,-25.289,-23.682,-19.492,-24.332,-22.842,-20.567,-24.07
-30.483,-18.96,-17.918,-11.516,-20.183,-14.031,-14.53,-15.784
-26.461,-19.706,-17.576,-8.71,-21.098,-10.239,-12.454,-11.711
-21.699,-23.585,-16.64,-7.647,-19.677,-8.659,-10.363,-7.721
-17.604,-23.175,-11.746,-5.021,-13.186,-5.895,-4.826,-1.121
-18.26,-20.697,-9.185,-4.896,-9.339,-5.667,-1.721,0.141
-25.969,-22.687,-13.967,-10.551,-14.126,-11.331,-5.826,-8.26
-37.351,-34.097,-25.065,-20.972,-26.256,-21.714,-15.891,-20.413
-40.973,-44.988,-31.369,-26.879,-33.35,-27.185,-21.569,-24.164
-37.456,-45.224,-29.033,-25.891,-31.083,-25.824,-19.684,-19.761
-35.353,-38.982,-25.468,-24.109,-27.477,-24.354,-16.249,-15.394
-34.254,-34.589,-24.575,-23.516,-26.34,-24.067,-13.17,-12.049
-34.374,-35.474,-27.034,-24.86,-27.629,-24.933,-12.146,-10.829
-34.094,-33.615,-28.321,-25.061,-27.105,-24.693,-12.298,-11.905
-31.579,-26.525,-26.746,-23.68,-24.028,-23.636,-12.799,-15.282
