EEG 1,EEG 2,EEG 3,EEG 4,EEG 5,EEG 6,EEG 7,EEG 8
-111.678,-83.403,-115.479,-101.456,-128.788,-101.598,-96.31,-93.171
-107.619,-82.88,-108.004,-90.383,-123.273,-90.227,-82.705,-65.491
-102.865,-91.409,-99.293,-89.358,-116.114,-89.152,-70.822,-60.015
-106.712,-96.894,-99.467,-96.654,-113.855,-96.53,-68.718,-80.57
-116.967,-93.552,-101.458,-99.705,-110.083,-99.605,-69.674,-97.061
-124.201,-91.323,-96.55,-93.412,-99.39,-93.402,-65.87,-91.238
-121.527,-91.923,-83.3,-81.673,-82.618,-81.796,-58.322,-77.266
-112.006,-85.692,-66.775,-69.248,-64.972,-69.342,-53.192,-69.258
-105.902,-73.48,-55.856,-58.04,-54.2,-58.033,-52.47,-60.138
-107.427,-68.193,-54.781,-48.481,-53.677,-48.424,-50.822,-45.235
-108.606,-73.187,-58.162,-43.398,-58.668,-43.138,-46.568,-39.637
-103.542,-76.491,-59.6,-45.619,-62.559,-45.055,-45.075,-49.323
-99.739,-70.642,-59.039,-49.481,-62.392,-48.993,-45.881,-53.453
-104.193,-64.136,-58.062,-46.536,-59.261,-46.376,-44.229,-40.75
-109.675,-65.137,-55.701,-39.541,-56.679,-39.259,-41.29,-28.24
-106.889,-67.072,-51.946,-38.121,-57.019,-37.324,-40.94,-30.583
-97.462,-60.241,-49.021,-43.138,-58.352,-42.064,-43.134,-41.338
-86.643,-47.325,-49.214,-46.746,-58.15,-45.673,-42.795,-45.947
-76.193,-37.819,-50.599,-43.285,-55.547,-42.192,-35.919,-36.083
-68.617,-33.691,-44.166,-32.479,-46.501,-31.422,-26.286,-15.635
-67.442,-30.872,-27.778,-21.372,-31.236,-20.348,-20.292,-2.309
-69.332,-26.788,-15.731,-19.719,-22.274,-18.196,-17.735,-7.786
-65.067,-19.262,-17.761,-25.238,-27.245,-22.747,-14.818,-16.955
-52.172,-8.046,-23.491,-25.36,-34.365,-22.354,-9.821,-11.096
-37.522,4.031,-20.022,-14.722,-28.792,-11.909,-2.142,1.764
-26.9,15.402,-10.913,-2.115,-14.43,0.633,3.583,-0.113
-19.984,26.247,-6.335,2.775,-5.389,5.935,0.673,-15.732
-13.238,38.469,-4.897,4.268,-3.025,7.807,-5.932,-20.343
-3.206,53.893,1.484,13.119,1.862,16.859,-5.217,-7.243
8.538,66.39,11.845,29.111,10.677,33.172,3.674,5.841
13.522,64.899,15.079,37.433,13.454,41.89,11.672,11.519
8.394,51.474,7.169,28.954,5.851,33.631,12.919,16.449
2.511,42.974,1.995,20.003,1.102,24.744,13.149,25.597
3.067,47.874,10.021,26.77,9.973,31.624,21.267,40.49
6.135,57.709,21.786,38.325,22.505,43.443,34.707,56.945
5.094,61.375,27.341,43.14,26.444,48.444,42.484,65.047
-5.024,53.105,26.704,47.077,23.589,52.263,41.714,58.372
-20.733,36.049,20.879,51.344,21.006,56.436,39.31,42.067
-28.132,22.276,16.035,48.891,22.712,54.198,38.594,31.89
-25.073,18.759,21.07,42.002,27.539,47.461,37.332,37.454
-23.952,22.538,29.228,39.169,29.686,44.385,37.522,47.842
-25.914,30.59,27.631,43.146,28.02,47.917,42.03,49.182
-24.086,40.931,23.653,53.761,30.667,58.116,45.819,48.222
-20.083,49.157,30.026,68.614,40.597,72.632,45.544,58.694
-17.948,49.948,36.594,77.26,45.925,81.112,44.875,73.561
-19.235,43.419,29.122,71.305,37.293,75.069,42.624,72.394
-23.39,38.599,15.784,58.761,23.213,62.272,35.682,55.197
-27.656,39.205,10.061,52.257,15.639,55.435,30.786,44.365
-31.499,35.906,9.564,50.885,13.892,53.895,34.3,49.466
-34.9,25.877,6.81,48.119,11.757,51.077,39.119,55.87
-36.977,19.323,3.178,45.239,8.43,48.014,37.459,51.648
-41.969,18.513,2.639,45.726,6.968,48.2,34.747,47.7
-54.44,14.049,1.137,45.79,6.776,48.204,36.902,55.648
-68.906,4.106,-5.649,39.848,4.391,42.556,39.987,61.341
-76.928,-4.693,-10.336,32.046,2.563,34.969,42.461,55.95
-78.152,-10.319,-4.684,31.359,8.261,34.087,48.832,59.191
-73.737,-12.063,8.013,37.412,21.041,39.79,58.228,76.695
-63.574,-8.241,19.561,42.173,32.137,44.397,64.915,87.33
-56.437,-3.509,23.959,41.064,34.326,43.511,65.751,81.161
-60.436,-1.583,20.694,35.677,29.592,38.768,60.741,66.182
-65.688,3.404,16.971,31.655,26.342,35.425,54.103,54.249
-60.15,14.005,18.616,33.721,27.904,37.715,50.745,54.459
-49.894,20.818,22.241,39.417,29.526,43.307,49.705,63.94
-43.574,20.201,24.219,43.299,29.349,47.134,49.586,69.954
-34.975,24.655,27.427,45.512,31.529,49.427,51.125,65.557
-15.425,43.542,35.571,52.237,38.578,56.306,52.617,61.225
12.112,69.856,48.69,68.788,49.811,72.979,55.286,71.494
36.047,91.111,60.728,91.125,61.928,95.395,63.858,91.312
45.504,101.219,63.649,108.144,69.578,112.503,74.784,106.233
42.824,103.854,59.653,113.756,71.951,118.065,77.986,109.671
43.225,107.845,59.084,113.319,74.844,117.412,73.837,103.73
54.107,115.942,66.935,117.538,83.687,121.601,73.297,104.336
67.812,122.142,80.891,127.544,97.554,131.794,77.965,118.08
74.754,120.826,93.606,132.58,108.924,136.676,78.937,120.767
71.828,113.703,95.512,128.911,111.371,132.401,76.981,104.672
64.112,108.281,88.329,126.318,109.495,129.603,80.54,99.545
59.414,107.273,85.246,129.483,112.356,133.335,87.824,114.322
57.92,103.616,89.103,131.516,117.335,135.813,92.001,123.917
57.88,97.86,92.566,131.88,117.151,135.98,92.973,123.479
64.575,104.257,96.693,139.904,117.301,143.816,95.434,135.444
75.377,120.938,102.734,152.403,123.615,156.536,104.416,158.203
75.492,123.43,101.274,150.489,125.071,154.912,114.283,157.577
64.768,106.638,89.957,129.857,113.156,134.54,110.611,125.25
60.722,96.314,81.203,113.356,101.233,118.458,98.6,102.624
69.624,105.628,85.304,119.942,105.425,125.577,98.864,119.709
81.887,117.04,98.935,137.812,120.819,144.065,110.611,149.062
87.74,113.41,106.082,144.543,128.661,151.509,117.162,153.437
79.332,100.387,96.193,138.943,121.633,146.38,114.514,139.928
58.561,92.863,82.116,132.842,111.775,140.317,108.631,129.958
43.472,92.72,78.621,127.891,109.208,135.327,102.971,122.413
43.057,91.528,81.287,122.712,110.385,130.147,99.624,118.031
46.733,86.921,85.903,124.555,114.287,131.733,101.96,127.996
49.728,82.948,97.307,137.136,126.124,143.988,110.33,146.612
55.934,81.983,112.845,151.884,142.694,158.748,119.877,157.671
58.522,80.956,120.709,156.406,151.886,163.275,124.435,156.184
48.372,77.729,116.215,150.916,148.56,157.261,122.312,149.942
34.788,80.073,110.422,150.211,143.162,155.755,119.616,150.8
31.888,89.809,112.182,154.65,143.758,159.566,120.047,152.805
36.367,91.551,113.696,148.725,143.124,153.212,118.578,143.537
40.711,80.007,111.808,139.84,139.813,144.129,114.741,141.423
43.39,70.285,112.568,145.441,140.146,149.704,114.361,161.301
38.311,70.296,108.181,152.412,136.269,156.487,117.481,172.768
25.708,71.994,92.795,143.405,122.3,147.227,119.995,156.269
19.751,70.283,82.596,131.011,111.764,134.926,120.592,139.749
24.913,69.92,86.436,128.656,111.583,132.798,119.256,138.71
29.381,72.393,91.159,127.475,111.461,131.526,115.749,135.677
27.002,72.058,89.934,120.815,107.283,124.664,112.038,131.358
23.437,67.87,90.517,117.649,106.914,121.517,112.055,143.008
21.238,63.082,93.38,121.713,111.424,125.573,115.953,158.107
16.968,57.188,89.525,122.99,110.645,126.557,118.04,150.853
12.69,50.347,80.468,117.2,102.408,120.456,116.289,133.122
14.933,46.751,79.21,112.311,98.786,115.656,116.211,135.309
23.488,50.44,89.479,114.578,106.698,118.427,120.907,154.179
30.485,60.467,99.503,121.728,117.252,126.003,127.032,166.319
30.403,68.455,99.768,125.255,119.41,129.522,129.084,164.065
27.77,68.532,95.516,119.968,115.053,124.097,124.983,151.135
27.42,64.516,94.121,111.489,111.946,115.694,119.712,136.384
24.488,59.537,92.044,105.695,108.775,110.066,118.174,131.802
17.561,53.53,85.674,101.203,101.458,105.732,118.185,136.709
15.407,51.377,79.661,99.17,94.207,103.962,116.701,140.193
24.231,59.626,78.273,106.148,92.981,111.227,115.569,139.116
44.105,78.382,83.423,122.584,99.008,127.77,117.48,138.538
71.643,101.395,96.688,138.173,110.65,143.297,122.63,142.552
99.157,122.642,115.02,147.114,125.343,152.149,130.859,153.491
119.118,139.707,131.649,156.947,140.597,161.948,140.68,170.299
128.649,150.031,141.556,169.822,152.822,174.967,147.17,182.922
131.109,153.592,145.773,177.121,159.448,182.658,148.277,182.556
135.297,157.093,150.718,177.639,163.57,183.561,147.282,174.818
144.639,163.834,156.985,176.7,167.964,182.656,144.546,169.041
152.319,169.782,157.06,175.879,169.921,181.794,140.746,165.662
154.479,173.802,152.275,176.145,170.368,182.651,143.448,162.56
154.147,176.548,153.21,178.162,173.957,185.741,151.537,161.686
152.34,175.797,158.718,179.27,176.983,187.495,152.195,163.779
150.473,172.272,157.946,177.525,172.789,185.891,144.814,164.291
151.671,167.279,149.543,173.549,163.387,182.259,139.623,161.028
151.846,158.852,140.459,167.346,154.433,176.688,137.566,160.234
146.547,150.714,135.774,158.633,149.661,168.358,134.637,163.874
142.994,150.266,137.749,150.054,151.185,159.769,130.842,160.632
147.379,156.758,144.571,148.18,156.858,157.892,127.198,147.074
153.802,164.367,149.129,156.002,161.047,166.027,127.984,140.811
156.373,166.96,146.537,162.975,160.67,173.313,137.412,153.305
154.919,158.635,139.412,157.2,156.344,167.296,147.077,167.765
147.941,143.239,130.46,144.571,148.609,154.027,145.289,163.091
136.633,133.952,120.849,137.246,139.739,146.388,136.487,147.174
130.728,135.312,117.85,136.044,136.492,145.275,131.935,143.194
135.198,138.609,125.416,138.519,141.925,147.641,132.035,155.785
138.395,137.519,132.031,146.245,148.861,154.898,132.499,172.613
128.253,132.965,126.26,153.491,148.031,161.662,132.572,176.374
111.623,123.383,113.034,147.652,138.107,155.384,130.127,155.491
101.523,110.051,104.588,130.339,126.752,137.474,124.117,126.813
97.44,102.992,106.631,119.285,123.636,125.714,119.831,119.94
95.088,105.056,115.935,123.591,130.542,129.511,120.947,133.217
98.383,108.22,123.931,133.455,139.37,139.277,125.535,144.139
105.821,108.114,122.542,138.421,141.929,144.439,132.489,150.405
104.908,104.068,113.758,139.672,139.599,145.82,139.097,158.454
91.795,94.747,107.537,137.807,136.723,143.738,137.13,154.558
78.873,85.443,105.658,129.651,131.033,135.178,124.985,132.866
76.189,84.147,102.953,120.69,122.337,126.081,115.495,119.01
78.068,86.318,99.48,117.213,116.792,122.764,117.618,127.62
74.063,81.965,98.462,115.539,116.386,121.11,121.977,138.376
66.413,74.453,100.527,114.638,117.993,119.93,119.832,134.596
67.179,74.293,102.434,118.624,119.433,123.534,118.123,126.967
76.63,81.815,101.769,124.662,121.188,129.171,123.629,132.891
80.034,88.548,103.513,127.579,125.808,131.802,131.948,149.82
72.548,89.092,111.996,128.513,132.779,132.757,136.215,158.338
68.33,87.714,119.243,129.522,136.075,133.947,135.05,153.441
77.113,92.43,115.304,129.106,132.31,133.633,130.936,145.785
85.37,96.674,104.202,125.428,125.423,129.987,125.598,137.458
74.916,84.707,97.453,120.243,120.853,124.862,121.159,130.809
53.52,63.456,97.583,116.168,119.325,120.909,119.659,132.574
43.898,55.905,97.577,111.514,117.05,116.302,118.994,134.854
51.156,65.271,95.295,106.937,113.953,111.597,118.245,128.986
63.999,77.604,96.399,108.475,114.551,113.116,118.477,122.166
76.443,88.987,102.422,115.78,118.521,120.664,116.892,120.581
89.977,103.874,108.378,120.953,121.968,125.86,114.294,122.715
99.812,113.58,109.412,120.072,122.653,124.477,115.353,127.057
97.729,106.899,105.416,116.794,120.349,120.783,117.868,133.009
88.155,96.31,101.406,115.26,117.969,119.611,118.654,137.538
83.703,99.491,100.541,114.01,116.658,119.17,119.039,132.35
87.245,108.072,99.289,109.382,112.926,114.927,117.375,115.499
90.823,105.625,94.716,102.396,107.1,107.794,111.804,102.026
89.683,98.916,92.375,101.169,106.083,106.496,107.968,108.384
90.559,104.291,99.283,111.993,113.367,117.518,110.963,130.886
99.336,117.123,110.683,124.675,122.368,130.274,115.749,143.531
105.034,118.625,112.975,121.677,123.174,127.018,115.316,128.239
98.581,108.525,103.388,106.341,115.52,111.35,111.42,106.178
96.385,108.419,97.596,101.202,111.308,105.977,110.591,107.98
114.062,127.633,106.88,113.338,117.739,117.715,113.986,125.381
140.736,151.391,121.649,125.973,127.224,129.72,116.732,131.514
162.001,167.386,129.877,129.64,133.169,133.006,117.155,125.907
174.737,175.141,130.891,131.103,137.163,134.501,118.113,123.16
174.312,173.353,127.436,130.741,137.92,134.096,118.408,121.268
162.114,164.672,121.805,124.223,133.192,127.143,114.119,111.864
157.252,164.12,117.935,121.664,128.53,124.032,109.439,104.892
170.875,181.613,120.97,134.275,131.439,136.312,113.051,114.593
185.483,202.327,130.474,149.567,139.416,151.451,121.431,130.375
183.634,203.786,136.088,148.283,141.382,149.982,122.26,130.161
172.511,187.016,129.638,133.284,132.305,134.622,113.747,114.553
163.417,170.155,116.665,119.472,119.819,120.307,104.528,103.747
158.261,163.18,109.923,114.672,115.37,115.222,101.247,108.142
160.62,165.717,115.308,119.868,122.058,120.683,104.5,118.37
169.686,172.037,124.825,128.597,131.07,129.794,109.187,121.755
174.047,174.803,127.457,130.472,133.532,131.37,111.972,121.083
171.273,175.195,126.18,127.509,133.066,127.481,117.178,129.963
169.829,176.616,128.568,127.775,134.81,127.066,121.904,138.796
167.428,173.72,126.832,124.19,130.539,123.561,112.874,114.669
157.938,164.905,113.338,109.428,115.063,109.235,92.716,65.087
150.179,157.131,101.078,94.389,102.79,94.358,80.887,42.986
152.808,151.777,100.903,89.662,104.721,89.505,83.079,62.907
156.839,146.204,103.022,91.812,109.902,91.525,86.796,85.22
152.12,143.588,101.541,94.575,108.615,94.137,85.154,88.335
144.303,145.844,104.685,97.736,107.345,97.169,83.042,87.764
138.25,145.394,109.18,101.378,108.211,100.943,82.489,89.551
126.32,135.373,103.84,102.897,105.458,102.71,81.948,86.404
111.132,122.97,96.938,103.484,104.101,103.223,84.867,87.858
107.625,119.684,98.524,103.415,108.975,102.732,91.447,98.667
112.597,119.941,96.239,96.724,108.996,95.674,92.859,95.704
108.04,108.87,82.892,84.474,97.964,83.328,85.295,71.431
92.934,90.838,74.689,78.323,88.353,77.187,77.309,54.672
82.107,83.591,80.381,81.992,88.582,80.822,75.636,61.23
81.092,88.334,86.106,86.892,90.452,85.747,77.348,75.719
83.568,90.967,81.191,85.965,87.515,85.011,81.008,85.041
83.921,83.648,72.74,76.891,83.017,76.242,84.72,85.936
79.227,71.727,68.699,63.36,79.068,63.069,81.491,79.409
69.185,64.58,64.691,55.693,74.548,55.666,74.342,72.742
57.824,61.404,56.721,55.289,69.628,55.038,71.408,64.898
48.703,55.022,51.053,53.267,65.938,52.221,70.74,52.151
43.407,49.085,51.904,49.696,64.07,47.945,69.209,44.677
44.894,52.075,54.661,52.035,63.107,50.071,67.47,47.34
51.97,59.757,55.686,58.567,63.568,56.4,66.966,53.093
55.887,61.017,56.05,59.698,64.731,57.167,68.249,58.651
51.767,54.141,55.024,53.458,61.616,50.95,66.597,60.935
46.115,47.494,50.678,48.686,54.205,46.434,60.127,55.761
47.831,46.805,45.883,49.476,49.67,46.896,55.086,45.598
55.031,48.786,45.137,49.925,49.944,46.718,54.06,37.786
57.69,50.999,49.912,49.483,52.49,46.376,55.224,39.247
55.36,56.487,59.463,55.299,59.165,52.861,58.846,48.454
55.701,61.551,66.98,63.031,67.929,60.928,62.42,53.831
56.594,57.783,62.72,59.305,68.918,57.17,62.772,52.03
54.418,49.191,51.19,47.437,61.171,45.459,62.393,51.728
56.266,47.117,48.185,42.722,56.333,41.053,62.361,53.275
63.477,54.246,56.687,48.636,60.698,46.993,61.998,54.687
66.521,63.997,64.541,56.47,66.695,54.629,63.785,58.81
62.033,66.05,61.972,55.64,62.919,53.805,64.321,54.303
56.662,57.612,51.645,44.989,49.891,43.326,57.085,33.914
59.033,51.165,44.888,36.174,40.913,34.387,48.127,17.937
70.908,57.095,46.492,37.025,42.108,34.783,47.582,21.772
83.251,68.84,50.462,44.066,46.017,41.607,52.834,37.316
87.64,77.087,53.66,52.743,48.236,50.562,55.273,51.651
85.506,80.921,57.041,58.217,50.43,56.316,52.692,52.886
81.908,80.127,57.609,54.953,50.927,52.99,49.73,37.279
81.228,75.153,55.495,47.289,49.319,45.226,50.62,21.99
86.272,72.974,56.861,45.149,49.932,43.113,52.008,21.909
94.157,78.263,60.562,47.56,52.517,45.468,49.399,24.428
99.993,85.68,60.313,47.164,53.257,44.896,46.553,18.881
104.837,90.236,59.148,44.213,53.389,41.838,47.414,19.182
112.076,93.577,61.326,43.026,54.259,40.823,49.326,32.283
119.06,95.469,61.047,43.087,52.624,41.389,51.348,45.026
119.722,93.049,56.237,40.837,48.374,39.687,54.07,45.342
115.383,88.314,53.994,34.78,44.472,33.888,52.307,30.401
113.146,85.602,52.407,28.568,39.118,27.625,44.478,12.522
113.397,86.061,44.606,28.527,31.938,27.487,39.194,8.043
113.437,89.463,39.184,32.388,30.304,31.495,40.588,8.971
113.746,92.343,43.474,28.087,34.152,27.56,40.44,1.825
109.447,85.83,42.073,11.304,28.571,11.16,29.335,-8.23
98.76,70.402,26.586,-5.286,10.847,-5.065,10.573,-15.651
93.594,60.933,17.139,-9.034,1.653,-8.447,-1.792,-19.718
96.555,63.133,22.665,-4.821,8.334,-4.027,-2.105,-19.252
96.256,68.248,26.364,-0.81,14.762,-0.147,4.841,-13.912
95.366,72.727,27.594,8.239,18.422,8.419,17.16,0.951
103.223,78.725,39.253,23.657,29.851,23.112,31.78,24.345
111.031,83.982,51.033,33.226,41.839,31.971,41.381,39.669
107.9,82.673,48.016,30.314,40.767,28.647,41.307,32.246
100.421,70.792,38.762,18.593,29.706,16.77,29.067,5.345
96.894,54.477,32.265,2.504,16.921,0.681,9.711,-23.92
93.167,46.371,22.484,-12.674,4.591,-14.285,-0.761,-39.43
84.647,47.114,10.767,-21.652,-3.659,-23.137,2.464,-40.02
74.614,46.689,8.04,-23.761,-4.548,-25.584,3.952,-35.692
66.687,43.386,12.871,-21.288,-1.85,-23.497,-2.58,-31.92
62.851,41.859,15.598,-16.194,0.243,-18.273,-4.842,-25.829
62.713,37.795,14.674,-13.682,0.383,-15.54,-0.963,-20.399
59.097,24.199,12.191,-20.196,-3.792,-22.353,-2.993,-27.375
48.211,9.067,6.935,-28.996,-10.849,-31.755,-9.234,-41.424
38.596,6.91,0.833,-25.634,-13.567,-29.013,-6.695,-41.251
35.926,13.977,-0.544,-14.658,-10.082,-18.704,2.089,-29.057
30.391,11.305,-1.172,-16.661,-10.296,-21.164,2.552,-27.208
13.818,-6.363,-10.277,-35.928,-22.233,-40.483,-6.993,-39.004
-0.434,-20.701,-19.665,-52.177,-35.652,-56.746,-15.107,-48.342
4.267,-16.45,-15.273,-50.072,-35.44,-54.936,-15.509,-44.017
17.71,-4.472,-6.803,-40.479,-26.772,-45.749,-10.556,-29.39
19.216,-2.533,-9.814,-39.799,-24.954,-45.357,-5.342,-19.991
9.739,-11.31,-17.989,-46.498,-30.596,-52.356,-4.387,-26.21
-1.08,-25.367,-22.476,-53.022,-36.106,-59.406,-6.736,-37.655
-12.549,-41.069,-26.881,-58.127,-40.029,-65.134,-7.527,-39.002
-18.308,-46.869,-27.681,-56.386,-39.796,-63.731,-5.011,-28.883
-8.311,-34.417,-16.939,-40.687,-31.714,-47.992,-0.827,-14.319
7.921,-17.585,-5.104,-21.807,-23.622,-29.099,1.585,-5.793
9.112,-15.646,-7.248,-19.343,-25.617,-26.964,-0.976,-11.039
-6.19,-24.726,-18.157,-31.497,-33.637,-39.54,-5.282,-21.163
-19.74,-30.622,-25.501,-40.697,-40.01,-49,-7.131,-27.04
-22.476,-34.154,-30.134,-43.519,-46.715,-52.105,-12.27,-40.577
-19.187,-38.232,-35.914,-47.669,-54.517,-56.607,-23.178,-63.817
-13.387,-34.786,-36.678,-49.885,-55.541,-58.833,-28.462,-70.103
-7.967,-24.501,-28.875,-43.846,-48.079,-52.404,-23.816,-50.854
-7.38,-20.938,-20.976,-37.452,-41.117,-45.844,-19.431,-34.71
-8.256,-24.834,-17.684,-38.585,-36.821,-47.232,-19.023,-37.399
-1.338,-21.286,-12.272,-39.228,-28.603,-47.952,-16.529,-39.383
13.179,-7.679,-2.264,-32.915,-18.32,-41.252,-11.156,-28.058
22.18,-2,3.308,-30.635,-16.108,-38.487,-7.498,-22.374
14.676,-15.472,-3.268,-42.29,-25.2,-49.922,-7.782,-38.025
-2.117,-33.096,-16.529,-56.537,-37.729,-64.112,-11.697,-56.898
-7.999,-33.81,-22.708,-55.404,-43.087,-62.681,-16.579,-54.055
4.967,-19.178,-17.44,-41.512,-39.78,-48.159,-19.526,-38.549
22.469,-6.922,-11.259,-33.509,-36.577,-39.448,-21.422,-39.406
27.438,-4.603,-11.935,-35.91,-38.248,-41.104,-23.489,-55.755
20.794,-4.739,-12.971,-34.032,-38.494,-38.385,-23.031,-57.113
17.685,0.165,-8.054,-21.425,-32.8,-25.004,-18.202,-36.6
26.921,9.519,-3.566,-9.143,-28.003,-12.054,-13.014,-19.179
44.437,20.752,-3.841,-3.085,-28.377,-5.398,-11.805,-16.065
62.002,31.342,-2.201,1.647,-26.931,-0.337,-14.137,-17.151
70.603,34.098,2.11,2.736,-22.118,0.837,-17.444,-18.093
65.78,25.937,3.327,-4.651,-20.947,-6.414,-17.761,-18.191
55.37,15.9,4.419,-13.666,-22.913,-15.378,-13.837,-14.278
50.313,13.113,7.087,-17.149,-23.497,-19.066,-11.562,-12.735
50.609,17.744,2.6,-16.175,-24.038,-18.173,-13.161,-18.076
52.29,26.062,-6.853,-11.884,-23.221,-13.6,-12.683,-19.373
56.109,31.984,-7.254,-8.454,-18.146,-9.934,-10.815,-16.339
57.943,27.97,-3.156,-15.499,-16.557,-17.117,-15.34,-27.368
51.795,16.826,-7.483,-29.601,-22.834,-31.409,-24.069,-49.579
46.138,12.686,-9.456,-32.448,-24.912,-34.167,-27.695,-53.116
51.063,20.259,1.854,-20.894,-18.004,-22.537,-25.382,-31.395
55.98,27.677,8.516,-12.891,-15.415,-14.818,-21.29,-15.227
49.917,28.342,-1.553,-13.509,-20.754,-15.833,-16.704,-20.085
47.881,31.986,-7.693,-7.526,-19.854,-9.976,-13.854,-22.205
59.49,40.838,1.353,4.575,-11.858,2.015,-15.766,-10.377
59.477,37.997,3.334,2.613,-15.557,-0.466,-22.095,-7.575
33.204,17.962,-11.365,-13.755,-32.637,-17.423,-30.78,-19.967
8.773,-0.902,-21.437,-23.842,-42.457,-27.716,-38.611,-28.685
8.129,-6.458,-17.114,-23.042,-39.297,-27.078,-40.744,-33.164
17.248,-4.961,-12.852,-22.673,-36.335,-27.157,-36.819,-42.081
20.492,-4.002,-16.502,-24.279,-38.349,-29.146,-33.877,-47.358
18.692,-4.693,-20.13,-23.915,-40.035,-28.893,-38.24,-45.606
12.127,-6.736,-20.618,-26.828,-41.779,-32.014,-48.385,-46.886
-1.783,-10.535,-25.066,-36.328,-47.319,-42.021,-56.714,-54.455
-17.736,-16.609,-34.26,-44.164,-52.695,-50.438,-57.812,-63.085
-28.726,-27.581,-41.149,-46.345,-52.727,-53.072,-54.764,-67.601
-34.679,-43.536,-43.856,-48.032,-50.687,-55.053,-53.308,-67.044
-37.892,-57.643,-44.76,-49.96,-50.866,-57.196,-54.055,-65.937
-41.217,-66.747,-43.455,-50.411,-51.705,-58.01,-54.77,-63.989
-46.743,-74.168,-39.154,-51.09,-50.422,-59.318,-54.447,-53.193
-49.909,-77.239,-34.215,-50.588,-47.089,-59.326,-53.68,-35.786
-47.973,-70.89,-34.071,-46.641,-45.328,-55.405,-53.515,-30.536
-49.34,-63.707,-42.514,-46.543,-49.462,-55.322,-56.038,-49.554
-59.824,-70.578,-54.549,-58.451,-57.788,-67.713,-63.417,-76.024
-74.49,-89.651,-61.407,-73.773,-63.694,-83.46,-72.008,-83.489
-88.089,-105.823,-62.709,-78.334,-65.452,-87.879,-74.807,-72.853
-95.915,-112.78,-64.483,-73.764,-67.043,-83.009,-71.121,-61.386
-93.65,-113.074,-69.221,-69.089,-70.277,-78.349,-66.399,-53.482
-87.358,-107.365,-74.882,-66.169,-74.319,-75.633,-67.411,-51.93
-86.545,-96.638,-79.081,-62.528,-78.778,-72.045,-76.719,-62.634
-89.596,-85.439,-81.11,-56.177,-81.925,-65.595,-85.723,-74.134
-91.354,-81.193,-80.898,-50.692,-81.983,-60.189,-84.514,-72.641
-94.182,-90.051,-79.492,-53.912,-81.164,-63.709,-76.811,-65.259
-102.286,-106.75,-80.489,-64.49,-82.533,-74.339,-71.704,-59.34
-111.31,-116.221,-83.846,-72.173,-84.726,-81.694,-72.45,-53.872
-108.955,-110.056,-81.691,-72.062,-82.583,-81.416,-77.32,-54.816
-91.158,-93.802,-67.884,-65.163,-71.948,-74.714,-79.754,-60.04
-72.451,-81.003,-49.905,-54.705,-57.669,-64.346,-75.81,-55.417
-67.24,-81.146,-43.936,-48.837,-52.678,-58.085,-71.619,-46.397
-69.613,-88.122,-53.851,-51.721,-60.33,-60.259,-72.341,-50.615
-69.11,-88.667,-65.866,-57.186,-69.393,-65.079,-75.915,-65.174
-68.697,-79.31,-68.695,-59.095,-71.311,-66.582,-79.32,-75.46
-68.086,-64.51,-63.578,-55.488,-66.473,-62.854,-78.304,-73.002
-56.898,-49.538,-54.523,-47.103,-57.681,-54.627,-71.516,-57.184
-37.92,-39.611,-44.2,-39.319,-49.898,-47.014,-66.028,-41.994
-26.984,-37.574,-37.859,-39.12,-48.925,-46.813,-67.83,-47.184
-26.057,-40.981,-40.341,-48.162,-55.402,-55.828,-77.011,-71.5
-23.028,-40.8,-48.437,-56.944,-63.295,-64.551,-90.23,-90.263
-15.558,-28.887,-54.003,-51.811,-65.332,-59.136,-96.619,-83.127
-10.158,-11.421,-52.901,-35.26,-60.155,-42.207,-88.262,-60.16
-4.351,-2.202,-45.52,-24.664,-52.541,-31.547,-76.65,-51.281
1.664,-3.299,-40.413,-26.679,-50.56,-33.761,-75.457,-61.551
-8.593,-13.025,-51.689,-35.796,-62.302,-42.734,-81.322,-68.804
-38.961,-38.015,-75.703,-51.183,-84.042,-57.587,-87.764,-69.298
-65.353,-72.413,-91.384,-69.91,-99.307,-75.947,-93.543,-74.107
-70.718,-92.611,-88.181,-79.615,-97.582,-85.429,-94.461,-77.168
-65.35,-90.476,-72.303,-73.455,-81.63,-78.901,-86.054,-68.253
-67.028,-83.799,-59.047,-59.601,-62.925,-64.843,-73.669,-54.381
-79.755,-85.837,-60.41,-50.484,-54.286,-55.832,-69.016,-48.3
-92.33,-89.434,-68.388,-48.079,-55.246,-53.321,-72.375,-47.852
-95,-89.194,-69.885,-47.331,-55.819,-52.088,-72.312,-42.21
-91.17,-93.158,-67.006,-48.698,-54.594,-53.19,-67.039,-32.995
-86.855,-101.197,-62.871,-52.915,-54.007,-57.579,-65.923,-31.645
-81.184,-98.991,-57.219,-54.321,-52.367,-59.036,-70.495,-41.85
-76.454,-84.377,-57.282,-53.388,-52.989,-57.893,-73.488,-59.346
-80.816,-74.676,-65.686,-57.177,-60.64,-61.604,-75.358,-78.507
-91.081,-80.45,-74.318,-63.119,-70.732,-67.377,-83.05,-90.202
-93.505,-92.377,-78.895,-63.866,-77.372,-67.339,-92.887,-87.422
-87.77,-97.206,-80.483,-61.647,-81.164,-63.985,-95.185,-76.433
-87.164,-93.486,-79.463,-63.075,-84.029,-64.61,-92.571,-72.44
-92.476,-87.578,-75.055,-66.269,-83.98,-67.464,-92.131,-77.467
-90.905,-81.312,-68.287,-62.819,-78.868,-63.693,-88.999,-74.49
-82.152,-74.274,-66.46,-53.95,-74.094,-54.303,-78.738,-59.565
-80.639,-73.56,-72.306,-52.086,-75.633,-52.039,-70.672,-49.806
-93.118,-86.329,-79.446,-62.656,-81.697,-62.518,-73.003,-50.056
-110.021,-104.57,-87.439,-76.916,-89.675,-76.79,-80.2,-53.733
-118.135,-110.663,-94.742,-83.309,-95.566,-83.186,-83.51,-61.901
-118.278,-102.087,-92.223,-80.621,-94.025,-80.473,-82.787,-69.572
-121.266,-96.8,-83.144,-76.638,-89.191,-76.272,-81.976,-65.248
-124.779,-104.321,-78.499,-74.154,-86.635,-73.255,-79.631,-54.086
-119.653,-112.086,-77.227,-69.964,-82.62,-68.385,-71.856,-46.658
-116.305,-112.041,-76.387,-66.543,-77.176,-64.432,-63.406,-40.005
-126.874,-114.538,-80.849,-69.576,-78.087,-67.158,-65.06,-40.05
-137.142,-124.721,-89.9,-76.03,-84.741,-73.456,-75.066,-57.751
-135.223,-132.361,-94.794,-77.832,-87.817,-75.211,-78.547,-71.263
-135.431,-133.079,-94.547,-74.844,-86.34,-72.098,-71.525,-57.523
-145.534,-132.862,-96.811,-73.444,-87.963,-70.257,-66.398,-39.674
-147.782,-130.521,-100.075,-73.47,-91.63,-69.716,-69.084,-41.544
-127.298,-116.516,-91.85,-66.123,-86.305,-62.124,-71.088,-44.725
-97.351,-91.26,-74.46,-51.665,-73.726,-47.705,-69.782,-37.89
-84.229,-73.761,-71.299,-46.456,-73.281,-42.432,-74.45,-45.24
-89.487,-75.164,-87.058,-56.731,-89.157,-52.602,-86.62,-71.47
-89.215,-76.095,-94.082,-65.698,-98.988,-61.61,-96.287,-85.725
-73.261,-60.015,-80.15,-60.962,-91.18,-56.734,-97.132,-76.49
-56.051,-42.947,-68.028,-50.393,-81.41,-45.83,-91.566,-63.205
-49.566,-42.059,-72.546,-44.69,-81.723,-40.258,-85.833,-56.654
-48.486,-47.829,-77.721,-42.157,-82.416,-38.347,-82.77,-51.357
-44.686,-45.906,-67.316,-35.707,-71.836,-32.276,-77.897,-44.983
-40.841,-37.84,-48.175,-26.993,-53.61,-23.468,-67.348,-37.025
-38.75,-30.931,-32.806,-22.554,-36.74,-18.931,-55.376,-23.979
-32.921,-29.619,-21.725,-21.598,-22.835,-18.236,-46.861,-7.547
-26.674,-35.623,-14.081,-20.049,-12.333,-17.104,-41.839,2.676
-30.202,-44.606,-16.901,-21.33,-12.107,-18.495,-42.706,-8.431
-39.66,-49.11,-30.323,-29.273,-23.64,-26.193,-50.883,-40.684
-42.947,-45.992,-40.898,-34.016,-34.182,-30.774,-57.482,-60.841
-42.054,-40.584,-40.99,-25.742,-33.189,-22.649,-53.68,-43.814
-47.473,-41.937,-37.408,-13.753,-26.291,-10.889,-43.522,-11.27
-57.393,-49.604,-37.679,-12.349,-24.904,-9.716,-37.835,-0.084
-60.777,-54.486,-40.772,-21.36,-30.116,-19.189,-40.103,-15.303
-57.561,-54.001,-42.282,-31.526,-34.81,-29.968,-44.693,-30.986
-60.719,-56.237,-44.807,-39.094,-39.028,-37.94,-48.945,-31.787
-73.983,-68.434,-53.724,-46.348,-47.892,-45.367,-55.126,-27.94
-85.71,-85.508,-63.037,-54.007,-57.553,-53.223,-62.199,-30.843
-92.157,-97.163,-64.123,-60.934,-60.993,-60.535,-67.453,-43.153
-101.967,-102.885,-63.372,-65.532,-60.647,-65.766,-70.915,-60.924
-113.225,-105.333,-68.562,-66.292,-61.782,-67.13,-73.386,-72.993
-113.571,-101.377,-72.199,-64.102,-62.252,-64.961,-74.218,-70.372
-104.142,-94.374,-67.871,-59.611,-57.634,-60.038,-69.847,-53.202
-99.562,-95.327,-61.243,-53.015,-49.159,-53.374,-58.83,-30.723
-105.728,-105.185,-57.852,-49.82,-43.176,-50.657,-50.728,-20.793
-113.266,-111.138,-57.553,-52.78,-43.287,-54.069,-54.856,-32.265
-112.446,-103.34,-58.146,-53.979,-44.837,-55.366,-63.223,-47.667
-105.243,-90.831,-57.853,-49.02,-42.368,-50.282,-61.819,-43.966
-99.618,-90.208,-54.052,-43.286,-35.49,-44.37,-49.474,-22.974
-100.102,-99.815,-45.524,-40.163,-26.851,-41.05,-37.521,-7.955
-104.381,-104.528,-38.569,-38.366,-21.734,-39.251,-35.525,-12.854
-106.053,-102.429,-39.432,-38.713,-23.54,-40.136,-39.232,-25.252
-106.423,-105.537,-45.312,-43.29,-29.898,-45.516,-40.407,-29.124
-112.393,-115.427,-51.494,-47.933,-37.122,-50.483,-41.614,-26.214
-118.41,-117.921,-56.606,-45.821,-43.091,-48.124,-47.134,-24.386
-113.096,-106.177,-58.742,-38.865,-45.789,-40.975,-51.519,-25.27
-100.574,-92.423,-55.857,-34.957,-43.812,-37.307,-48.937,-26.036
-92.31,-88.612,-49.67,-35.455,-38.487,-38.272,-43.209,-23.229
-86.919,-89.392,-43.386,-33.881,-32.459,-37.07,-39.32,-16.793
-79.077,-87.233,-39.324,-28.971,-28.541,-32.242,-35.794,-11.704
-75.614,-88.245,-40.897,-29.926,-30.929,-32.853,-34.307,-13.941
-81.941,-96.718,-47.542,-40.514,-39.247,-42.899,-40.125,-23.163
-89.161,-103.562,-52.035,-49.886,-45.35,-52.107,-49.096,-31.363
-89.864,-102.874,-51.674,-49.22,-45.19,-51.838,-53.081,-32.263
-86.501,-99.57,-49.682,-43.302,-42.263,-46.493,-51.375,-27.382
-79.076,-94.405,-43.965,-37.256,-35.81,-40.829,-44.33,-20.186
-63.961,-80.836,-30.006,-26.995,-21.824,-30.624,-30.896,-10.992
-44.29,-59.824,-13.171,-10.813,-5.254,-14.271,-17.534,-1.192
-27.329,-41.223,-5.271,2.287,3.443,-1.071,-14,3.874
-13.07,-28.028,-6.283,5.575,4.409,2.221,-18.223,3.126
1.95,-15.868,-3.937,4.198,7.105,1.087,-19.723,2.791
13.441,-6.751,3.887,3.11,12.906,0.401,-16.716,4.511
17.017,-2.645,8.386,2.172,16.536,-0.383,-13.859,3.903
19.869,4.999,9.468,4.292,19.276,1.855,-11.049,2.369
29.875,17.615,13.132,8.944,23.954,6.924,-7.611,4.693
42.147,21.013,19.91,10.736,30.173,9.142,-4.05,11.379
49.601,14.25,29.549,16.708,42.164,15.311,4.879,27.953
53.854,16.423,40.936,35.539,58.944,34.267,22.866,62.322
58.757,32.023,46.647,53.713,64.384,52.649,39.481,95.918
67.638,48.399,46.785,59.221,57.788,58.639,44.826,98.276
81.819,64.756,54.723,66.006,65.201,66.118,49.835,81.135
98.62,87.368,74.047,84.76,92.626,85.298,66.499,78.372
119.631,110.627,95.809,103.262,118,103.849,86.261,88.866
146.716,124.916,116.411,111.08,133.762,111.764,100.164,93.148
166.345,127.72,127.921,110.012,140.933,110.937,109.073,87.949
161.332,122.108,117.766,104.787,130.497,105.847,110.796,84.512
141.598,117.54,100.025,106.077,111.719,107.251,108.6,96.927
137.664,126.388,105.907,122.07,114.163,123.474,116.738,121.235
159.06,150.203,140.179,148.376,148.255,149.852,142.899,141.431
185.603,175.022,179.288,178.819,192.559,180.145,177.657,161.128
200.905,187.53,202.076,205.412,218.351,206.794,201.649,187.093
207.53,190.442,205.781,216.359,219.103,218.141,205.722,203.994
207.244,186.598,196.309,207.404,207.245,209.551,196.272,195.98
192.742,166.374,177.274,184.448,189.975,186.678,180.238,171.338
167.231,135.74,159.192,163.202,173.136,165.316,166.754,160.303
146.453,117.429,154.917,156.538,166.126,158.544,164.403,172.949
126.824,105.376,148.016,148.477,157.093,150.634,158.483,169.702
87.581,73.676,110.833,115.497,124.163,118.044,128.856,125.466
38.778,31.763,62.429,74.999,82.574,77.743,90.761,85.444
14.887,10.813,42.071,60.635,64.557,63.234,71.331,88.204
19.146,9.948,44.638,64.524,65.279,67.014,65.822,98.478
25.227,5.992,45.109,58.2,62.523,60.624,57.521,78.629
18.496,-5.832,41.374,41.351,54.864,43.509,46.078,42.176
3.579,-17.085,36.265,28.726,47.512,30.826,36.421,14.556
-11.629,-30.573,22.575,19.412,36.662,22.097,27.931,6.845
-24.291,-49.711,2.688,5.381,21.605,8.879,17.759,9.651
-32.231,-60.725,-6.867,-6.566,11.539,-2.541,8.55,6.313
-36.011,-56.521,-4.456,-5.158,10.093,-0.753,6.721,4.432
-47.712,-55.324,-8.997,2.274,6.994,7.246,9.232,15.168
-69.577,-66.015,-22.781,2.174,-2.165,7.72,6.41,21.886
-78.844,-72.003,-27.541,-4.699,-8.459,1.043,-2.645,9.88
-67.125,-67.612,-22.949,-13.003,-10.364,-7.168,-10.305,-6.915
-57.55,-66.78,-24.88,-21.819,-16.246,-15.496,-14.069,-11.842
-63.465,-72.993,-33.751,-28.398,-26.446,-21.336,-19.32,-8.862
-73.851,-76.57,-41.382,-31.808,-34.943,-24.192,-26.822,-9.246
-79.944,-75.298,-48.417,-36.326,-40.825,-28.507,-30.89,-15.751
-82.552,-76.061,-53.985,-41.753,-44.269,-33.981,-30.522,-23.699
-83.861,-82.97,-54.958,-45.428,-45.076,-37.716,-30.822,-29.542
-87.169,-92.512,-56.736,-51.258,-47.836,-43.496,-35.832,-35.036
-92.308,-97.687,-61.535,-60.271,-53.58,-52.539,-44.193,-41.126
-92.986,-95.206,-60.993,-63.222,-54.984,-55.817,-49.691,-43.156
-85.085,-85.328,-53.642,-53.762,-49.45,-46.755,-46.103,-34.015
-72.536,-70.447,-50.178,-39.678,-45.191,-32.736,-36.204,-16.804
-66.914,-62.099,-58.135,-37.068,-51.295,-30.013,-34.707,-13.468
-82.509,-77.102,-77.579,-56.185,-71.048,-49.248,-53.996,-42.656
-122.523,-117.038,-107.108,-93.71,-103.202,-87.077,-90.168,-96.861
-164.433,-157.084,-136.477,-131.732,-135.819,-125.332,-124.536,-145.245
-176.304,-166.351,-145.267,-144.985,-146.522,-138.666,-136.123,-152.253
-158.05,-146.977,-130.984,-130.187,-131.829,-123.787,-124.434,-122.667
-140.361,-131.985,-118.457,-117.882,-119.019,-111.299,-114.551,-107.988
-139.874,-134.411,-122.926,-126.582,-126.144,-119.783,-121.428,-127.61
-145.725,-135.35,-130.967,-134.968,-137.659,-127.872,-128.72,-141.64
-146.428,-127.342,-128.885,-128.183,-136.82,-120.815,-122.915,-130.048
-144.16,-125.292,-122.76,-124.536,-131.355,-117.162,-116.086,-119.656
-142.794,-132.564,-121.442,-132.957,-131.706,-125.629,-116.005,-121.486
-140.099,-135.55,-121.588,-136.078,-131.713,-128.327,-112.385,-116.031
-136.11,-130.634,-119.049,-126.903,-125.553,-118.339,-104.136,-99.933
-135.394,-126.269,-117.277,-119.351,-120.255,-110.364,-103.528,-96.217
-138.866,-123.843,-118.733,-122.047,-121.926,-113.308,-112.297,-117.573
-142.645,-118.999,-121.671,-127.598,-127.127,-119.108,-119.382,-141.782
-141.755,-114.648,-123.266,-128.052,-129.616,-119.29,-117.713,-140.549
-133.927,-116.38,-119.837,-125.966,-126.939,-116.71,-111.938,-124.517
-124.606,-119.795,-111.344,-123.743,-121.712,-114.234,-109.939,-119.117
-120.564,-114.573,-104.247,-116.972,-117.53,-107.55,-109.336,-116.15
-117.413,-99.881,-101.899,-106.596,-113.412,-97.54,-101.399,-102.753
-108.556,-86.839,-98.519,-100.428,-105.751,-91.741,-87.825,-92.985
-101.803,-84.506,-90.817,-100.128,-96.161,-91.511,-80.839,-93.038
-106.092,-89.825,-85.27,-102.393,-91.432,-93.772,-84.574,-92.671
-111.413,-91.726,-85.218,-103.095,-92.499,-94.718,-87.639,-89.527
-105.202,-83.249,-84.307,-96.222,-92.014,-88.239,-82.252,-84.838
-95.266,-73.04,-79.977,-87.515,-88.055,-80.101,-77.668,-84.974
-94.037,-75.427,-78.172,-91.164,-87.352,-84.674,-82.101,-99.122
-97.056,-85.806,-81.622,-102.013,-91.374,-96.435,-87.284,-114.048
-95.553,-86.277,-85.799,-102.62,-93.209,-97.334,-82.378,-109.461
-89.929,-72.949,-84.161,-91.288,-87.894,-85.739,-70.628,-90.782
-81.435,-56.714,-75.043,-77.369,-77.648,-71.664,-62.181,-73.741
-72.373,-47.32,-67.577,-67.665,-70.809,-62.34,-60.299,-65.24
-71.478,-49.987,-71.426,-68.594,-74.716,-63.825,-65.311,-71.309
-79.58,-61.78,-78.912,-78.487,-83.441,-73.745,-76.201,-88.2
-83.487,-68.642,-74.374,-81.938,-82.176,-76.709,-81.593,-94.004
-77.717,-63.384,-61.525,-72.728,-70.723,-67.222,-72.475,-80.049
-69.114,-54.267,-57.642,-62.217,-63.471,-56.978,-58.189,-61.628
-58.801,-45.563,-62.019,-55.813,-62.809,-51.052,-49.439,-46.889
-48.159,-34.573,-59.421,-50.503,-58.578,-46.1,-44.721,-39.054
-44.333,-24.374,-49.134,-49.242,-50.756,-45.075,-43.487,-49.599
-42.519,-16.008,-44.297,-53.419,-48.855,-49.453,-49.358,-71.349
-30.553,-2.377,-46.746,-55.221,-52.258,-51.4,-56.082,-76.704
-10.185,14.819,-44.667,-49.719,-50.554,-45.912,-52.107,-57.289
4.386,21.252,-37.559,-42.151,-44.425,-38.231,-41.103,-33.284
5.928,14.082,-37.006,-39.796,-44.49,-35.764,-36.86,-25.819
3.855,8.896,-42.456,-42.244,-49.309,-38.266,-40.226,-34.059
7.985,15.508,-44.44,-42.946,-49.068,-39.064,-39.624,-42.502
13.582,26.93,-41.854,-40.452,-44.745,-36.486,-32.266,-48.591
16.527,35.844,-35.838,-36.229,-40.914,-32.17,-27.015,-55.943
24.375,43.311,-23.988,-27.916,-33.871,-23.996,-25.574,-51.934
34.844,48.144,-13.63,-20.824,-25.679,-17.142,-22.412,-32.242
31.832,46.424,-16.022,-25.07,-26.506,-21.524,-20.702,-19.492
15.851,39.953,-25.738,-37.505,-35.005,-34.058,-27.811,-32.009
4.32,30.92,-32.772,-47.728,-41.819,-44.496,-40.069,-56.433
3.221,19.747,-36.447,-52.269,-44.574,-49.347,-46.501,-66.754
4.069,10.53,-36.884,-55.127,-45.701,-52.424,-44.764,-63.223
-1.144,5.935,-36.917,-59.31,-47.807,-56.58,-41.326,-63.368
-10.885,3.608,-40.946,-60.569,-50.745,-57.698,-39.084,-63.116
-15.168,2.754,-41.91,-54.389,-48.489,-51.722,-35.344,-47.119
-6.575,9.444,-30.041,-41.835,-36.355,-39.858,-27.322,-22.83
6.592,24.794,-15.581,-30.694,-23.683,-29.433,-16.184,-11.951
3.471,28.702,-17.649,-34.79,-26.476,-33.981,-10.567,-21.076
-19.256,6.051,-32.757,-54.165,-42.79,-53.757,-18.506,-38.546
-36.556,-20.076,-43.525,-66.08,-54.027,-66.196,-30.621,-49.38
-33.435,-21.95,-43.273,-57.074,-50.219,-57.728,-29.907,-49.021
-26.354,-9.696,-34.704,-42.744,-39.157,-43.795,-20.477,-46.836
-31.561,-6.326,-27.709,-39.64,-34.867,-41.13,-18.51,-46.146
-38.123,-10.519,-29.301,-42.041,-38.64,-44.315,-22.088,-38.188
-30.793,-11.528,-30.383,-40.523,-38.387,-43.61,-19.15,-25.735
-20.291,-12.932,-24.654,-37.343,-31.439,-40.654,-9.794,-18.164
-21.628,-18.795,-18.093,-33.342,-25.398,-36.342,-2.925,-14.277
-25.863,-21.127,-12.383,-25.267,-20.611,-27.869,-1.843,-12.886
-23.464,-15.184,-9.147,-18.607,-16.25,-20.975,-1.463,-16.401
-24.308,-8.452,-15.031,-22.207,-18.538,-24.585,0.105,-20.371
-32.851,-6.099,-25.183,-29.492,-26.467,-32.008,-0.774,-14.576
-34.264,-2.549,-25.511,-24.645,-27.601,-27.141,-1.74,1.412
-19.771,4.197,-14.771,-9.129,-17.906,-11.365,1.529,10.463
-3.432,6.47,-5.162,-1.034,-9.125,-3.031,4.345,-0.116
-3.441,0.512,-4.55,-8.783,-11.448,-10.762,0.747,-18.021
-17.812,-7.83,-10.503,-21.027,-21.206,-23.049,-5.836,-22.992
-28.179,-11.599,-15.324,-21.738,-26.295,-23.769,-6.459,-11.327
-25.096,-10.5,-12.53,-10.928,-20.063,-13.046,1.428,4.343
-17.338,-8.624,-4.836,-4.14,-9.912,-6.342,8.834,8.849
-15.795,-7.497,-2.076,-8.786,-7.455,-10.996,7.936,0.428
-19.304,-6.435,-6.751,-15.005,-12.034,-17.237,4.358,-6.145
-20.132,-5.478,-9.463,-12.579,-12.385,-14.815,6.734,-0.334
-16.416,-2.65,-2.158,-2.654,-3.187,-4.854,13.438,10.095
-9.232,5.966,11.36,7.39,8.652,5.28,18.607,13.918
0.851,17.975,19.518,11.773,13.803,9.968,22.022,12.331
6.211,24.028,16.283,10.332,10.873,8.896,25.996,13.274
3.256,22.702,10.7,9.281,7.962,7.881,30.193,20.012
3.52,23.813,14.971,14.449,12.727,12.8,33.897,28.33
12.307,30.482,25.26,21.862,20.408,19.925,35.428,29.459
19.756,35.423,28.685,23.636,20.978,21.444,32.205,20.953
20.624,35.54,23.242,21.272,15.568,18.963,27.736,15.855
16.815,32.758,16.552,20.754,12.244,18.426,28.035,27.973
9.314,28.013,13.39,21.883,13.057,19.404,31.496,48.861
5.333,25.834,15.818,21.985,16.686,19.245,32.856,53.28
13.169,31.16,23.178,19.447,21.493,16.529,30.632,29.558
25.171,38.588,26.329,12.628,21.57,9.723,25.787,-4.486
29.422,41.133,20.598,4.611,15.256,1.791,21.005,-22.707
29.689,42.48,17.138,3.315,12.224,0.34,21.61,-17.5
33.866,45.836,23.372,11.163,18.66,7.917,29.959,1.933
38.478,45.28,32.319,20.488,28.22,17.249,40.045,22.475
36.912,37.793,36.781,22.765,32.889,19.56,42.849,32.793
31.313,30.902,36.815,19.591,32.678,16.179,37.832,29.796
30.841,33.462,38.071,20.717,34.294,17.395,35.217,25.092
38.793,44.06,43.706,29.81,40.012,27.131,40.799,32.854
47.499,53.155,48.456,38.814,44.314,36.495,47.402,46.116
51.22,55.038,49.219,38.903,45.539,36.06,48.542,43.876
52.964,52.183,49.522,29.91,45.902,26.401,45.625,23.97
56.461,51.016,49.8,20.534,43.663,17.115,41.787,6.521
61.137,56.068,49.104,21.981,41.247,19.11,41.898,9.888
66.2,66.999,52.164,36.277,47.239,33.693,49.652,35.115
74.686,80.872,61.565,51.553,59.305,48.875,58.193,61.977
89.013,95.054,71.786,57.789,66.775,54.911,59.598,72.606
105.955,107.854,76.909,58.61,68.922,55.653,56.136,69.088
118.202,116.194,74.86,55.587,68.286,52.669,46.611,47.001
120.851,118.03,68.097,45.52,62.901,42.631,30.582,6.828
118.113,118.353,64.077,37.073,57.614,34.119,24.993,-16.327
118.35,121.783,66.441,39.137,59.832,35.98,38.175,-1.692
121.261,124.834,68.528,45.009,64.398,41.609,51.485,22.423
120.905,125.703,65.859,49.259,63.814,45.724,52.558,33.642
121.11,130.757,67.322,57.669,64.55,54.062,51.586,43.655
130.705,144.028,78.549,70.597,72.868,66.98,53.982,54.044
145.999,157.785,88.434,78.783,80.321,75.308,51.153,50.806
153.218,159.097,87.38,77.356,79.33,73.994,44.819,41.475
144.545,145.292,80.137,70.56,74.193,67.139,48.897,42.141
127.001,128.12,74.441,66.041,70.98,62.721,62.098,51.59
114.428,117.698,71.747,66.309,70.11,63.382,68.376,62.543
111.766,112.096,69.975,65.508,68.787,62.77,62.677,63.803
114.306,108.339,69.401,59.774,66.316,56.819,53.193,46.785
116.074,106.234,71.619,53.709,65.183,50.61,47.828,26.886
113.41,101.501,72.817,50.926,65.399,47.973,48.654,19.557
106.264,92.67,68.939,51.09,64.094,48.404,51.842,18.672
94.03,85.609,64.331,56.57,61.884,54.277,53.713,24.594
76.087,80.658,62.116,64.129,60.322,62.208,54.372,41.864
60.195,71.873,58.292,60.678,56.93,58.691,52.883,51.962
55.327,62.89,52.179,44.908,50.662,42.579,48.865,38.372
57.827,61.572,48.026,32.65,45.312,30.357,45.628,18.707
58.467,63.289,50.022,34.622,46.384,32.81,46.918,19.193
56.91,60.722,57.81,47.116,55.086,45.709,55.13,40.461
55.951,55.316,60.3,56.938,60.823,55.7,64.039,60.845
53.889,50.856,51.588,54.046,54.526,52.988,60.646,61.824
52.632,48.361,45.833,44.961,46.635,44.026,46.732,47.759
53.279,43.614,50.656,39.354,47.874,38.268,38.255,33.448
46.547,33.886,51.751,34.405,49.701,33.127,39.184,23.005
26.976,25.111,39.629,26.463,41.155,25.233,37.499,15.594
5.45,19.916,22.807,18.361,25.131,17.284,26.674,12.279
-3.477,13.487,12.64,12.368,12.53,11.262,14.634,8.052
-0.31,5.625,10.813,7.84,8.309,6.347,8.404,-4.595
2.632,2.203,10.686,3.975,6.982,1.817,4.519,-19.053
2.725,8.215,10.301,3.909,6.71,1.173,2.341,-17.4
7.808,19.819,15.716,11.373,14.183,8.428,8.654,2.888
16.77,24.181,24.799,20.955,25.83,18.074,19.444,20.949
19.313,17.33,25.82,22.458,27.271,19.627,20.987,18.666
15.023,11.204,19.883,16.32,19.275,13.407,14.835,3.976
16.146,14.525,21.873,14.469,17.977,11.403,14.186,0.828
23.332,20.46,31.32,21.499,24.791,18.195,18.912,14.312
22.023,19.082,31.728,25.549,25.316,21.868,18.95,20.922
10.849,12.622,21.598,19.129,17.565,15.038,14.007,7.748
3.043,10.119,14.169,13.647,11.603,9.267,12.882,-2.871
7.313,16.051,17.196,20.701,12.838,16.059,18.739,10.062
23.666,29.603,30.845,35.058,23.102,30.088,24.787,29.799
38.381,41.799,43.859,41.828,35.349,36.777,23.86,28.116
34.921,41.177,39.357,33.718,33.585,28.915,19.68,8.127
21.329,32.702,22.531,20.918,19.139,16.116,20.385,-6.343
18.232,31.289,16.801,19.39,12.311,14.156,21.38,-5.511
25.641,36.15,26.981,30.784,20.103,25.27,17.02,7.179
27.546,34.606,34.59,41.3,28.401,35.859,17.011,24.33
19.238,27.497,29.738,40.129,26.945,34.766,24.4,30.225
13.627,27.712,25.356,34.507,24.407,29.19,26.946,20.513
21.1,36.343,33.605,36.67,31.785,31.525,24.485,12.488
34.254,42.924,45.121,42.662,42.588,37.623,28.618,13.819
39.893,45.119,46.567,42.695,44.819,37.523,37.209,15.981
39.328,49.754,43.653,39.294,41.689,34.052,38.623,15.532
43.882,58.157,46.227,39.288,42.386,34.344,31.747,14.356
51.353,62.463,47.674,41.081,44.096,36.519,24.65,12.43
49.854,59.104,42.007,40.954,41.629,36.495,23.517,12.05
45.82,57.809,39.403,43.535,41.199,39.108,28.301,19.542
55.729,66.46,45.86,50.445,47.175,46.188,32.288,29.995
75.206,77.159,53.252,51.177,52.444,47.015,30.7,28.537
88.586,81.344,57.187,44.043,53.297,39.843,30.214,18.975
92.693,83.592,60.069,42.162,54.031,37.974,37.66,16.982
91.558,90.35,61.047,49.963,55.493,45.847,46.231,21.583
89.871,99.242,60.298,58.595,55.981,54.632,47.236,26.649
94.255,104.405,63.187,61.862,58.24,58.191,45.243,35.715
106.731,106.86,72.022,63.247,65.509,59.878,50.054,49.225
120.747,113.116,82.098,67.422,75.658,64.304,61.164,59.035
125.484,120.864,87.181,70.182,82.272,67.348,67.677,57.454
118.013,119.813,84.591,67.225,80.588,64.627,63.951,48.557
107.973,109.21,77.275,65.072,73.194,62.566,57.712,46.035
100.332,96.877,71.011,66.444,66.398,64.007,55.372,48.497
91.11,86.233,66.939,60.779,60.977,58.452,51.469,38.432
82.931,79.449,60.155,46.637,53.014,44.343,40.602,17.925
80.758,79.2,47.564,37.923,42.13,35.638,28.164,7.74
80.747,80.154,35.335,37.918,33.583,35.769,23.898,10.033
78.719,77.174,33.894,38.945,32.912,36.934,29.422,12.878
76.798,75.18,42.735,40.997,38.606,38.871,37.145,16.769
77.019,77.081,50.849,45.705,43.588,43.09,41.868,27.561
79.538,80.052,53.597,50.384,45.28,47.199,45.288,41.616
83.829,84.23,55.686,54.762,46.93,51.538,47.748,49.225
84.777,88.6,59.524,58.315,50.132,55.606,47.654,46.393
80.055,89.205,62.783,57.899,53.481,55.59,48.495,40.885
78.661,86.638,66.208,54.066,56.619,51.647,53.423,40.512
85.184,85.44,71.06,51.409,59.397,48.612,57.614,40.281
89.22,87.613,70.49,50.924,58.123,47.895,54.911,31.592
81.824,88.132,58.708,47.944,49.378,44.875,45.629,17.012
68.256,80.415,44.07,41.579,38.085,38.491,35.994,9.03
59.682,68.512,39.127,39.133,33.714,36.161,32.793,16.148
60.49,63.601,46.157,45.142,39.681,42.573,38.064,33.59
67.083,68.9,59.773,55.35,52.629,53.183,49.886,51.384
72.077,77.235,69.829,62.827,63.053,60.708,60.788,60.19
69.075,79.172,64.331,60.369,58.463,58.117,56.153,48.627
60.097,70.512,45.293,45.684,40.095,43.55,33.733,19.912
53.062,57.951,30.466,30.715,25.52,29.065,16.671,-1.112
49.602,51.487,30.155,28.245,25.769,27.19,21.232,-2.62
45.331,49.633,35.653,32.112,32.793,31.607,30.854,1.415
41.528,46.9,35.03,31.787,34.196,32.076,28,3.042
41.756,45.128,30.397,30.834,31.197,32.208,22.656,8.959
39.948,43.893,30.106,33.366,32.143,35.519,26.106,19.014
32.958,40.408,33.463,35.034,36.518,37.317,29.371,23.884
30.818,38.692,34.749,34.433,38.199,36.519,26.529,21.808
34.183,40.184,31.727,33.281,35.419,35.294,26.849,20.478
30.505,38.014,26.377,29.221,31.035,31.511,32.907,21.892
20.231,29.841,22.202,22.093,28.093,24.887,35.326,20.536
13.545,20.892,19.149,17.027,25.674,20.385,30.066,16.639
9.256,13.463,14.239,15.017,21.063,19.175,22.692,14.662
6.519,10.784,11.247,15.4,18.464,20.67,20.551,15.015
19.064,24.384,20.418,24.581,27.144,30.745,27.703,20.632
50.059,54.357,39.632,43.561,45.401,49.928,41.844,33.301
72.486,74.949,50.007,56.647,57.643,62.882,52.457,39.929
60.25,64.425,41.43,50.936,54.164,57.284,50.083,30.727
25.777,36.002,27.787,38.419,44.931,45.037,41.406,21.135
3.536,19.111,24.957,38.887,44.112,45.513,40.767,28.202
4.59,21.259,29.655,46.409,49.435,52.793,48.928,42.661
10.471,27.108,31.87,41.376,50.636,47.64,55.557,44.533
6.628,27.423,28.733,27.691,46.027,34.124,53.592,31.846
2.03,27.363,23.537,24.507,41.172,31.137,46.613,20.629
11.435,30.529,25.296,34.286,42.494,40.834,46.653,22.577
28.777,33.789,36.709,44.063,49.919,50.444,57.524,33.52
33.044,32.102,42.421,44.626,52.057,51.144,66.091,43.956
18.299,21.421,30.721,36.38,40.596,43.188,60.593,47.317
-0.566,4.97,14.078,24.562,24.87,31.437,48.478,42.073
-11.03,-5.775,8.485,14.54,17.98,21.459,43.313,34.932
-13.883,-0.92,11.835,10.968,19.469,18.209,43.28,30.595
-11.503,15.762,15.129,15.314,22.194,22.766,40.697,26.343
-0.643,27.554,18.248,21.464,23.906,28.671,38.926,21.862
16.39,25.925,23.727,22.23,25.354,29.215,42.512,19.244
22.607,17.945,25.328,19.208,25.096,26.304,48.009,21.527
5.398,5.866,18.72,16.69,21.999,23.633,51.659,32.429
-19.874,-13.45,12.35,14.551,18.386,20.863,52.596,46.116
-25.868,-26.049,12.897,14.637,17.176,20.484,52.562,53.047
-9.434,-14.801,15.756,19.152,18.41,24.798,54.715,54.947
6.733,4.393,15.55,21.043,18.262,26.191,55.347,52.346
8.65,5.162,14.027,15.017,14.748,19.331,48.245,39.78
6.777,-1.429,16.431,10.305,13.158,13.872,39.472,25.639
12.814,9.45,23.664,14.848,17.617,17.794,40.335,24.732
23.838,28.154,30.895,22.652,23.928,24.911,49.402,34.516
32.791,29.418,32.432,25.686,25.546,27.449,54.025,39.347
36.483,16.599,28.651,24.654,21.956,26.419,48.163,33.34
31.125,10.358,26.912,24.189,19.195,26.116,41.047,27.98
13.911,8.338,28.674,23.278,19.473,25.198,42.265,32.54
-5.893,-4.562,27.192,18.142,17.877,19.978,46.873,40.672
-13.526,-20.594,21.72,10.871,12.311,12.614,44.401,41.612
-8.206,-22.916,16.378,6.23,5.444,7.966,34.806,32.094
1.227,-13.162,12.385,5.771,0.474,7.668,27.329,21.55
12.35,-0.273,14.08,9.745,2.134,11.66,26.439,24.35
24.497,12.324,25.225,16.06,11.727,17.676,29.058,34.514
30.415,18.383,35.265,16.19,19.628,17.643,33.829,29.415
26.986,10.86,31.282,5.836,16.261,7.465,39.177,10.037
20.636,-4.128,18.596,-4.011,6.243,-2.269,38.963,0.7
16.341,-11.052,10.268,-2.3,-0.629,-0.567,32.428,7.071
14.807,-3.347,9.846,7.081,-1.946,8.841,27.656,14.831
13.914,9.015,13.734,13.767,-0.96,15.4,27.98,19.727
9.269,12.016,16.275,12.468,-2.473,13.9,27.152,26.553
4.289,7.015,14.477,7.964,-7.385,9.441,22.324,32.261
9.595,8.72,12.937,9.672,-9.48,11.276,18.718,29.296
23.804,19.331,16.055,16.028,-5.136,17.576,18.754,17.908
29.005,21.031,19.553,15.948,-0.071,17.377,18.53,7.757
16.722,5.263,19.636,9.185,1.324,10.663,16.423,7.635
4.077,-12.301,19.964,5.824,2.088,7.58,15.295,14.339
6.552,-18.266,21.708,7.027,3.299,8.984,15.442,19.868
13.258,-17.504,20.838,6.452,1.69,8.128,12.988,22.656
8.381,-17.477,15.907,2.794,-3.696,3.984,4.85,18.542
-0.317,-16.822,11.45,0.513,-8.216,1.66,-5.069,6.903
3.751,-13.201,12.742,2.152,-6.612,3.479,-7.525,1.776
13.067,-11.713,12.72,0.903,-5.244,1.931,-2.818,6.1
10.541,-14.439,1.377,-8.039,-14.097,-7.463,-0.968,6.727
3.998,-15.394,-12.354,-16.581,-27.354,-15.762,-5.482,-0.949
5.904,-15.321,-15.91,-19.775,-34.361,-18.34,-12.751,-14.457
4.594,-20.535,-13.981,-23.713,-36.214,-22.252,-18.017,-28.463
-9.329,-29.102,-14.518,-30.857,-36.817,-29.917,-17.271,-33.348
-20.227,-32.457,-13.371,-32.494,-33.169,-31.84,-12.452,-25.332
-16.394,-27.866,-5.296,-20.348,-22.856,-19.574,-8.684,-7.109
-9.795,-24.559,3.331,-2.452,-12.177,-1.687,-6.066,14.242
-8.832,-30.436,5.399,3.961,-8.876,4.404,-3.333,23.958
-5.116,-39.423,3.66,-4.17,-12.88,-3.778,-3.88,13.538
2.145,-42.909,1.047,-14.272,-19.182,-13.408,-9.616,-3.73
2.911,-39.749,-3.671,-16.783,-23.164,-15.704,-15.319,-9.222
-1.383,-30.938,-7.23,-13.298,-22.327,-12.795,-16.051,-4.891
-2.957,-22.256,-6.715,-10.712,-19.462,-10.953,-14.567,-2.682
-5.642,-25.124,-8.278,-13.003,-21.381,-13.44,-15.654,-3.339
-15.429,-40.093,-15.652,-19.946,-29.551,-20.277,-21.406,-10.146
-27.429,-53.162,-23.075,-30.535,-37.96,-31.139,-32.433,-30.598
-30.661,-52.925,-25.235,-39.521,-41.148,-40.796,-42.422,-49.591
-20.15,-41.801,-22.044,-38.591,-38.524,-40.389,-42.566,-44.318
-6.294,-32.969,-17.22,-28.933,-33.046,-30.936,-37.602,-22.108
-3.799,-35.908,-15.943,-22.717,-29.524,-24.846,-39.624,-11.065
-11.681,-45.653,-20.858,-28.993,-33.648,-31.252,-48.74,-24.069
-19.517,-52.087,-32.771,-43.854,-48.606,-46.265,-55.896,-46.714
-22.71,-52.357,-49.14,-55.4,-67.902,-58.109,-59.435,-57.975
-20.496,-50.248,-59.099,-58.068,-77.383,-61.111,-63.683,-57.967
-17.702,-51.337,-55.783,-58.151,-73.137,-61.282,-67.371,-61.447
-25.158,-56.284,-49.259,-59.512,-66.835,-62.54,-68.14,-64.512
-40.401,-58.632,-49.527,-57.762,-66.394,-60.756,-69.446,-54.648
-46.963,-57.868,-51.883,-56.12,-67.929,-59.167,-74.565,-48.001
-42.162,-63.122,-50.905,-61.475,-68.208,-64.58,-79.934,-61.495
-39.516,-73.294,-48.762,-66.1,-67.598,-69.344,-77.957,-72.029
-42.893,-74.424,-47.217,-60.882,-64.913,-64.451,-68.786,-56.794
-43.232,-64.023,-46.944,-52.958,-61.08,-56.919,-62.684,-35.83
-37.508,-54.843,-48.767,-52.595,-59.767,-56.802,-65.657,-38.32
-31.976,-54.07,-50.44,-59.373,-61.399,-63.693,-73.092,-58.465
-30.084,-56.4,-49.656,-65.134,-63.331,-69.541,-76.922,-66.906
-29.583,-55.46,-47.225,-63.024,-63.066,-67.329,-73.101,-53.954
-28.599,-51.833,-44.233,-55.586,-59.784,-59.567,-66.495,-40.498
-28.105,-49.317,-41.699,-50.569,-56.16,-54.294,-65.345,-42.528
-28.642,-47.868,-41.44,-48.621,-55.218,-52.064,-67.789,-46.925
-26.435,-43.147,-41.621,-43.804,-54.193,-46.842,-65.046,-35.202
-20.577,-36.383,-39.461,-38.233,-50.762,-41.298,-60.519,-19.36
-16.951,-35.655,-37.72,-40.956,-49.4,-44.545,-65.212,-25.897
-14.099,-38.937,-37.972,-48.834,-51.085,-52.659,-73.796,-48.092
-5.238,-35.404,-38.404,-50.971,-51.641,-54.688,-72.981,-58.139
5.266,-25.869,-38.728,-47.544,-50.612,-51.347,-65.209,-51.906
10.865,-19.468,-36.151,-44.323,-47.882,-48.189,-60.511,-42.012
15.966,-17.305,-28.122,-41.608,-42.058,-45.223,-60.586,-34.843
23.8,-13.964,-20.658,-37.525,-36.511,-40.965,-61.092,-32.289
28.32,-6.979,-19.484,-32.335,-35.241,-35.857,-58.183,-33.1
28.864,-0.65,-20.836,-31.193,-36.906,-34.766,-53.56,-35.19
34.34,-2.738,-22.613,-40.003,-39.847,-43.404,-52.072,-39.347
44.619,-13.633,-27.124,-51.707,-42.896,-54.484,-51.897,-39.729
45.599,-23.299,-29.58,-52.609,-41.417,-54.163,-47.558,-27.193
31.23,-25.726,-25.293,-46.116,-34.979,-46.506,-41.906,-12.634
15.311,-26.929,-20.605,-46.62,-32.064,-46.634,-42.504,-18.995
9.665,-33.601,-22.116,-53.137,-36.74,-53.018,-46.68,-39.587
7.405,-44.887,-27.027,-54.215,-41.404,-53.401,-44.515,-43.404
-0.141,-58.277,-30.876,-52.363,-41.48,-50.823,-38.167,-31.411
-8.361,-72.78,-33.573,-59.325,-42.55,-57.775,-39.758,-34.54
-8.372,-83.141,-35.354,-70.852,-45.963,-69.491,-47.595,-50.625
-0.817,-82.968,-36.02,-70.836,-46.174,-69.179,-46.871,-48.391
3.697,-75.465,-36.05,-59.854,-43.545,-57.74,-36.427,-27.623
-1.583,-69.677,-34.814,-53.399,-42.451,-51.077,-30.309,-12.061
-12.396,-70.863,-34.444,-58.331,-44.501,-55.85,-35.57,-14.802
-22.413,-79.51,-40.916,-72.605,-51.583,-69.928,-48.012,-40.883
-32.489,-91.94,-54.248,-90.422,-63.267,-87.698,-60.606,-75
-49.014,-104.826,-66.449,-101.216,-73.193,-98.605,-66.654,-86.682
-69.845,-119.68,-71.302,-101.771,-76.208,-99.463,-63.864,-73.441
-79.41,-134.012,-68.703,-97.759,-72.793,-95.969,-57.002,-54.012
-71.203,-136.73,-61.825,-89.503,-65.55,-87.965,-51.577,-36.478
-59.976,-126.57,-57.111,-79.755,-60.167,-77.969,-50.676,-30.432
-56.505,-118.253,-58.729,-80.779,-62.549,-78.798,-55.727,-46.998
-54.119,-117.013,-60.923,-90.071,-67.47,-88.049,-60.816,-65.746
-52.048,-114.167,-61.576,-89.408,-66.981,-87.113,-58.192,-55.234
-59.817,-110.346,-66.845,-78.147,-65.179,-75.647,-51.803,-29.437
-73.916,-113.46,-72.909,-72.966,-67.168,-70.785,-51.521,-26.908
-80.773,-121.357,-73.134,-80.623,-70.901,-78.976,-61.034,-52.732
-79.167,-125.618,-73.465,-93.364,-75.362,-91.862,-74.365,-83.266
-78.405,-124.074,-78.389,-100.744,-79.845,-98.842,-79.415,-96.696
-80.098,-120.904,-79.585,-99.108,-79.05,-96.687,-72.808,-87.685
-78.564,-118.837,-71.018,-93.36,-70.441,-90.808,-63.883,-70.333
-73.236,-115.769,-61.697,-88.693,-61.123,-86.373,-58.808,-58.785
-68.109,-109.122,-60.322,-83.812,-57.379,-81.543,-56.48,-52.117
-66.789,-101.65,-62.172,-75.851,-55.836,-73.052,-56.359,-44.832
-69.662,-97.956,-62.079,-66.789,-52.96,-63.141,-58.641,-38.628
-70.62,-96.781,-61.363,-60.701,-50.931,-56.455,-62.259,-40.167
-65.981,-94.537,-61.062,-58.614,-51.312,-54.194,-64.375,-49.9
-65.868,-94.052,-64.372,-60.516,-55.014,-56.002,-63.575,-60.403
-79.447,-101.066,-75.055,-67.671,-64.089,-62.868,-65.2,-65.801
-97.474,-114.107,-86.476,-77.43,-74.749,-72.162,-73.181,-65.127
-109.572,-127.279,-90.686,-85.282,-80.623,-79.415,-82.2,-64.041
-118.008,-137.804,-91.691,-92.75,-83.174,-86.376,-87.556,-71.497
-122.85,-143.52,-94.392,-99.985,-85.647,-93.565,-89.714,-83.664
-121.096,-142.553,-97.365,-100.756,-86.404,-94.643,-88.278,-87.014
-117.445,-138.009,-99.507,-94.729,-84.41,-88.835,-83.475,-80.838
-116.99,-135.008,-100.16,-88.02,-80.529,-82.113,-78.176,-73.031
-118.167,-134.505,-97.776,-81.391,-74.49,-75.447,-73.322,-63.004
-119.258,-135.184,-92.218,-74.664,-66.998,-68.94,-68.779,-51.188
-121.057,-137.908,-85.907,-74.083,-62.168,-68.878,-67.846,-50.841
-121.554,-142.626,-82.069,-80.485,-62.122,-75.801,-72.377,-66.485
-119.695,-145.721,-81.499,-83.493,-62.852,-79.077,-76.717,-75.059
-120.105,-144.765,-82.846,-78.426,-61.309,-74.069,-75.589,-61.175
-121.676,-140.876,-83.834,-73.245,-59.387,-68.914,-72.119,-47.771
-117.434,-135.832,-81.136,-72.029,-57.039,-68,-69.523,-54.151
-111.626,-130.575,-73.92,-67.585,-51.046,-64.372,-64.364,-58.015
-114.588,-126.139,-67.516,-56.878,-43.537,-54.455,-55.83,-37.907
-121.252,-122.778,-66.733,-49.154,-41.162,-46.747,-51.911,-17.919
-117.726,-119.148,-68.994,-50.996,-44.966,-48.233,-58.517,-28.472
-106.796,-115.44,-70.95,-57.147,-50.371,-54.56,-69.63,-57.11
-101.656,-112.495,-72.426,-60.207,-53.176,-58.305,-74.329,-73.682
-101.325,-108.05,-71.222,-57.41,-51.094,-56.008,-68.181,-69.224
-97.36,-100.423,-65.198,-49.648,-44.703,-48.233,-55.801,-51.794
-93.327,-92.949,-58.186,-41.95,-37.869,-40.33,-46.875,-33.086
-96.836,-89.759,-55.356,-40.148,-34.221,-38.583,-46.895,-25.411
-103.333,-89.114,-57,-43.081,-34.242,-41.968,-50.719,-31.935
-104.295,-86.117,-61.161,-44.1,-36.521,-43.496,-50.355,-39.193
-100.486,-80.885,-64.715,-40.58,-38.133,-40.04,-45.248,-34.751
-95.32,-77.607,-62.886,-35.87,-35.817,-34.861,-41.181,-24.728
-88.709,-76.144,-54.979,-32.011,-29.731,-30.244,-41.569,-19.145
-84.204,-72.976,-47.846,-28.109,-23.958,-25.555,-43.179,-18.138
-86.863,-70.193,-48.001,-26.808,-23.046,-23.635,-42.913,-22.697
-91.634,-70.84,-51.832,-29.528,-25.511,-25.885,-41.603,-32.25
-91.367,-70.723,-52.371,-30.281,-25.129,-26.326,-39.891,-35.493
-91.024,-67.944,-51.722,-27.454,-22.984,-23.476,-39.197,-27.341
-93.936,-66.478,-54.294,-26.39,-24.615,-22.542,-40.208,-16.713
-92.79,-66.017,-56.42,-27.021,-26.743,-23.211,-39.439,-11.908
-89.313,-65.257,-54.697,-26.158,-24.502,-22.305,-37.131,-15.104
-92.701,-67.318,-52.649,-24.314,-21.291,-20.458,-36.926,-19.666
-97.197,-70.623,-51.293,-21.799,-19.52,-17.878,-35.434,-15.471
-92.554,-68.964,-48.619,-18.812,-17.648,-14.635,-29.691,-8.081
-85.536,-62.8,-47.485,-16.835,-16.511,-12.505,-25.534,-8.069
-86.316,-57.419,-48.451,-14.664,-15.649,-10.591,-25.373,-10.143
-90.689,-54.529,-46.56,-11.529,-12.945,-7.781,-24.641,-10.01
-91.045,-52.763,-42.667,-11.056,-10.777,-7.104,-23.69,-14.508
-86.107,-49.342,-39.64,-12.428,-9.531,-7.777,-23.648,-20.903
-75.106,-39.72,-31.351,-6.042,-1.667,-0.933,-16.605,-13.846
-61.451,-25.431,-16.883,9.736,13.212,14.525,-0.096,7.372
-56.403,-18.273,-10.885,20.703,20.877,24.756,12.078,23.052
-60.706,-22.793,-18.188,19.077,15.444,22.757,10.339,22.469
-60.637,-27.409,-24.768,13.778,8.703,17.713,2.518,13.473
-54.945,-25.052,-24.906,11.576,7.49,15.914,-3.351,5.213
-56.701,-22.415,-24.493,10.029,7.572,14.356,-8.951,0.321
-66.392,-24.599,-24.023,8.255,7.484,12.302,-13.262,-0.825
-72.339,-28.09,-21.215,8.832,9.387,12.884,-9.083,2.497
-72.851,-29.97,-18.549,10.887,11.929,15.289,2.41,8.822
-75.165,-33.12,-20.262,10.096,10.312,14.909,7.77,14.214
-76.481,-36.425,-24.017,6.945,5.36,12.136,1.704,14.839
-67.997,-32.522,-22.706,7.346,4.739,12.906,-3.263,10.233
-54.522,-21.27,-17.082,14.825,10.388,20.697,1.904,8.622
-47.914,-10.869,-12.636,26.235,17.247,32.238,9.489,15.239
-49.242,-8.752,-10.629,29.599,20.592,35.543,9.252,15.278
-51.413,-14.857,-11.751,17.94,18.451,23.847,4.216,1.951
-49.733,-17.586,-13.863,7.525,15.725,13.567,5.338,-0.66
-46.001,-8.512,-11.077,14.723,18.925,21.037,13.516,18.736
-43.495,3.56,-4.147,29.29,25.591,35.991,20.712,38.357
-41.294,7.791,0.71,35.028,29.767,42.144,24.182,42.315
-39.306,5.712,0.832,32.4,30.002,39.645,24.884,35.622
-40.284,4.368,-2.333,30.829,27.808,37.796,22.404,29.371
-43.636,5.973,-5.964,33.027,25.117,39.644,18.005,28.739
-45.474,6.425,-8.054,32.314,22.541,38.792,14.341,28.444
-44.408,3.783,-8.827,27.006,19.693,33.354,13,25.009
-42.805,2.878,-9.329,25.745,18.106,31.727,14.067,24.595
-41.585,6.925,-8.25,31.995,20.944,37.575,16.777,31.125
-37.478,13.153,-2.976,39.661,28.097,44.962,20.703,41.142
-28.097,19.162,4.857,44.897,34.744,49.812,24.88,47.987
-17.894,24.367,8.945,47.064,36.42,51.484,27.724,44.067
-14.43,26.737,6.211,45.488,33.635,49.747,29.839,31.622
-17.755,25.703,2.21,43.093,30.898,47.635,31.813,26.601
-20.986,24.964,2.982,43.38,31.105,48.069,31.837,37.409
-21.072,27.573,6.892,46.131,33.599,50.389,31.289,53.281
-20.93,30.875,9.774,48.431,36.025,51.905,31.921,57.309
-22.583,30.785,8.664,45.339,33.882,48.027,29.701,43.389
-23.668,28.906,3.292,37.417,26.589,39.481,26.161,26.91
-21.295,29.369,0.319,34.626,22.979,36.336,29.312,29.194
-15.871,31.782,4.652,40.535,27.506,42.109,35.099,45.218
-9.52,32.56,9.421,43.421,30.679,44.831,32.481,47.582
-4.348,30.862,7.815,36.448,26.259,37.487,24.696,30.35
-4.848,28.745,3.244,29.516,20.923,30.094,23.157,17.834
-16.102,25.674,-1.719,28.609,18.269,28.836,27.829,19.653
-32.728,20.984,-7.419,29.185,15.785,29.14,32.288,25.427
-39.023,19.821,-6.199,33.933,18.447,33.617,37.967,39.136
-28.576,25.767,7.328,46.757,30.693,46.228,45.581,62.124
-12.481,33.743,21.979,57.24,42.449,56.427,47.166,70.723
-3.336,37.076,24.816,54.314,43.264,52.845,40.759,51.873
-3.509,33.85,17.796,41.621,36.716,39.338,34.082,23.806
-8.907,26.945,11.013,31.021,30.692,28.406,32.085,11.759
-12.506,23.224,11.347,31.749,29.034,29.257,36.517,27.223
-10.016,26.125,16.498,42.115,31.776,39.451,46.093,57.161
-6.686,29.276,15.701,49.009,33.095,45.548,53.057,71.38
-8.787,26.19,5.931,43.986,28.308,39.538,51.525,57.353
-14.412,20.286,-0.962,34.85,22.738,29.632,44.003,35.936
-18.191,18.718,2.38,32.896,23.25,27.154,37.024,30.195
-16.722,22.467,9.522,36.683,28.005,30.595,34.479,34.133
-11.341,26.062,13.835,37.25,30.578,30.892,33.547,29.683
-6.12,26.354,15.867,34.155,29.41,27.432,31.089,21.774
-3.006,26.662,17.12,35.366,28.784,28.16,31.493,29.482
-2.868,29.898,17.434,43.646,31.759,36.015,38.819,51.008
-4.546,34.477,17.946,52.386,36.171,44.513,47.143,63.801
-3.063,38.178,19.806,54.296,37.903,46.22,47.586,56.414
3.685,41.477,23.598,50.892,37.845,42.443,42.157,42.755
9.682,44.914,27.727,48.629,39.504,39.838,40.434,37.908
7.419,46.074,26.806,48.19,40.8,39.318,43.703,38.725
-1.34,43.405,21.954,46.494,39.786,37.456,45.192,37.006
-6.138,39.663,22.9,44.599,40.642,35.049,42.265,32.006
-1.158,38.659,29.939,46.205,44.349,36.13,38.697,30.541
6.632,40.513,30.792,49.83,44.758,39.507,37.798,36.941
7.93,42.233,22.49,49.794,39.926,39.495,38.057,42.282
3.656,42.087,16.458,45.449,35.835,35.351,36.432,36.697
0.081,40.889,18.173,42.211,36.014,32.257,34.375,27.386
-0.45,41.437,22.51,45.354,39.291,35.311,36.183,28.839
2.003,46.79,27.247,54.764,45.172,44.518,40.047,39.21
8.948,56.04,34.372,64.378,52.763,54.055,41.2,47.516
20.201,63.468,41.595,66.994,58.459,56.93,42.968,51.744
30.058,64.377,43.116,60.697,58.546,51.281,49.224,50.311
33.61,61.422,39.409,53.8,55.196,45.066,55.532,45.979
33.661,60.654,38.903,56.683,56.027,48.268,58.692,52.292
34.724,62.341,45.792,66.373,63.078,58.047,59.645,65.901
35.363,62.561,52.559,71.401,68.864,63.201,57.274,66.252
32.29,61.14,50.996,69.443,67.923,61.271,52.564,53.688
27.763,61.462,44.338,66.445,63.542,58.098,49.01,45.525
27.799,64.359,39.5,62.806,58.452,54.383,44.011,41.074
34.452,69.007,37.163,57.679,52.131,49.466,36.417,33.258
42.203,75.062,36.326,57.878,48.281,49.939,34.764,33.107
42.547,77.269,36.285,63.414,48.878,55.726,41.477,44.743
33.362,69.71,35.166,62.813,48.752,55.469,46.679,51.171
23.775,57.871,34.061,54.261,46.404,47.186,44.472,44.234
25.958,53.706,35.358,49.198,46.329,41.992,39.116,34.854
40.345,61.4,38.162,54.301,50.143,46.689,37.691,35.795
54.901,75.147,42.607,64.358,56.82,56.589,43.259,48.894
58.403,85.242,48.977,69.131,63.782,61.531,49.946,59.564
50.422,85.106,51.664,64.996,64.889,57.366,48.926,54.893
40.902,77.101,46.539,58.685,57.866,50.592,42.07,44.053
38.792,68.597,37.926,54.703,48.034,46.004,36.891,35.992
44.359,64.847,33.383,51.817,41.968,42.718,34.955,27.812
52.919,68.343,36.926,52.941,43.763,43.858,37.039,26.135
57.26,75.345,44.242,58.595,50.951,49.832,43.163,34.516
53.357,76.699,48.4,61.349,56.277,52.8,47.919,41.199
47.819,71.656,50.187,60.086,58.184,51.456,48.759,46.553
49.259,70.068,52.62,60.989,59.801,52.205,49.374,58.576
55.796,76.425,53.5,63.398,60.874,54.672,51.569,65.228
60.627,85.349,52.73,63.283,61.108,54.93,52.852,57.305
63.96,92.632,55.485,62.766,63.831,54.945,52.778,49.122
68.464,97.299,61.413,63.232,68.026,55.639,54.68,46.915
71.013,98.229,63.225,63.793,67.609,55.919,58.925,44.631
70.287,98.754,60.286,67.913,63.79,59.799,61.239,48.464
70.664,102.027,59.324,74.688,63.566,66.842,60.633,60.127
72.212,100.828,60.925,74.693,65.683,67.243,60.814,64.542
71.077,89.608,59.258,64.867,62.957,57.484,60.329,54.196
69.224,78.118,54.41,54.136,56.396,46.743,53.516,38.989
70.405,77.664,54.202,52.253,55.479,45.206,45.742,33.973
73.491,85.886,61.869,59.399,63.637,53.01,49.811,43.69
78.239,94.471,70.245,67.52,72.575,61.693,63.053,57.61
86.141,101.334,73.644,71.903,75.926,66.329,70.744,66.387
94.12,108.339,76.253,74.477,77.818,69.123,70.468,69.051
100.207,115.345,82.827,76.726,82.497,71.766,70.28,66.374
110.884,122.569,90.511,79.25,87.799,74.595,72.248,60.837
127.97,130.522,93.063,82.673,90.457,78.186,74.349,54.997
137.596,136.034,89.3,86.034,89.842,82.099,77.402,54.25
131.532,137.373,85.701,89.585,88.632,86.635,80.802,64.8
124.158,137.732,87.194,94.649,89.397,92.258,81.062,80.395
127.911,136.932,89.734,99.088,89.744,96.386,77.636,89.191
133.293,131.4,87.746,96.895,86.121,93.756,70.903,82.756
128.939,123.559,82.207,85.812,79.98,82.947,60.558,58.969
120.34,118.506,78.898,74.616,76.771,72.505,54.104,38.181
117.83,116.13,81.855,73.669,79.623,71.976,60.19,44.039
119.552,113.868,86.353,79.767,83.244,78.05,71.607,62.039
115.511,109.42,83.108,80.823,79.341,79.342,74.474,62.112
104.614,100.548,73.926,74.091,70.861,73.323,68.218,49.532
96.844,88.736,69.957,68.795,68.411,68.591,62.1,49.165
93.719,78.396,70.154,66.586,69.406,66.521,59.694,54.349
84.09,71.606,63.056,59.551,62.222,59.685,58.262,46.118
68.256,68.38,52.747,52.501,51.873,53.067,58.206,41.655
61.013,67.306,54.411,55.511,52.582,56.288,60.259,58.44
67.606,67.823,65.994,61.846,61.412,62.442,59.774,72.2
79.122,72.611,71.529,62.903,65.535,63.236,56.483,64.503
84.533,77.37,65.498,62.826,62.218,63.074,57.586,55.074
79.94,72.446,58.083,63.929,57.649,64.274,62.026,54.388
70.505,60.963,57.307,61.627,56.209,61.98,61.28,46.826
60.392,52.105,57.196,55.848,56.209,55.929,57.468,34.313
51.446,46.805,54.458,52.699,56.279,52.55,58.12,34.147
47.979,44.68,55.454,54.804,58.454,54.768,60.91,42.096
48.585,46.466,58.554,58.031,61.152,58.131,61.401,47.048
45.97,47.897,55.512,58.216,58.804,58.244,60.925,52.058
39.395,44.256,46.942,54.787,50.224,54.88,58.728,56.275
34.713,37.197,40.178,48.607,41.234,49.011,51.728,50.613
31.641,29.741,36.556,40.382,36.129,40.993,41.769,35.489
25.013,23.631,31.665,32.747,33.256,33.519,35.36,24.317
18.937,23.686,27.703,30.888,32.525,32.095,36.816,29.218
20.941,30.41,29.683,35.084,35.156,36.801,41.659,43.088
26.16,33.919,33.121,37.337,37.343,39.337,41.837,46.116
25.354,28.277,33.33,32.628,36.294,34.849,36.578,35.14
21.572,22.747,35.133,28.754,36.231,31.211,31.638,27.069
24.694,28.353,41.61,36.304,41.337,38.756,32.495,34.241
34.24,40.721,47.327,52.012,48.445,54.192,39.536,52.776
39.027,46.798,46.78,61.166,50.388,63.104,45.195,64.093
33.842,43.229,40.676,54.845,44.841,56.706,40.4,48.916
28.51,39.648,35.846,42.445,38.553,44.125,28.726,21.41
32.663,43.54,38.349,40.403,38.913,41.627,23.402,16.599
39.113,47.577,43.688,45.983,42.044,46.942,25.445,29.129
37.925,42.246,42.976,43.641,39.372,44.847,23.796,27.757
32.845,32.414,34.81,32.51,30.562,33.879,16.86,16.508
30.193,27.963,24.445,23.541,21.773,24.529,13.308,16.451
29.431,29.764,19.368,21.403,18.814,21.973,15.994,21.84
28.637,31.1,22.586,21.721,22.002,22.377,17.574,17.209
27.009,26.321,27.488,19.703,25.454,20.76,12.825,8.698
22.61,17.054,25.328,16.024,23.523,17.401,6.969,11.221
16.62,10.748,18.897,14.443,18.969,15.979,6.147,22.422
17.069,14.23,21.047,18.521,21.652,20.116,10.814,31.239
25.858,25.316,31.992,26.229,31.995,27.721,17.217,32.372
32.598,32.28,35.796,28.114,37.649,29.332,19.452,24.255
32.656,28.77,28.385,20.288,34.254,21.371,16.695,12.151
32.371,22.138,23.758,10.781,30.617,12.093,10.979,2.589
33.603,20.343,27.204,6.184,30.965,7.838,2.096,-5.626
32.889,20.857,26.695,4.464,29.922,6.341,-5.352,-10.035
31.873,19.565,18.16,4.225,26.944,6.173,-5.462,-3.797
35.025,20.114,16.543,8.561,30.501,10.308,-0.211,10.624
40.657,24.616,28.769,15.947,41.848,17.335,4.437,23.928
40.256,24.728,37.663,16.794,47.606,18.005,2.819,24.168
29.083,13.863,27.696,5.631,37.608,6.799,-6.055,4.724
15.652,0.237,9.47,-7.915,21.361,-6.995,-14.711,-16.822
13.166,-3.043,3.795,-9.706,16.425,-9.306,-16.348,-16.815
22.405,4.798,11.879,-0.837,24.312,-0.924,-13.191,-3.547
30.427,12.148,16.49,3.934,29.53,3.653,-11.093,-0.102
28.512,10.847,10.207,-1.686,24.377,-2.019,-12.374,-4.184
23.996,6.096,6.281,-6.899,20.155,-7.368,-14.912,-0.116
24.36,4.943,13.213,-4.076,24.472,-4.581,-15.906,8.832
24.183,4.331,19.621,-1.531,27.949,-1.756,-16.525,9.361
20.424,-0.107,16.199,-7.335,23.921,-7.275,-19.83,-2.494
18.545,-4.861,8.355,-16.85,17.925,-16.899,-23.381,-21.64
18.983,-5.139,4.047,-20.587,15.256,-21.017,-21.446,-33.599
16.83,-3.582,5.06,-17.42,15.252,-18.197,-15.162,-28.765
12.371,-6.418,8.334,-14.314,16.223,-15.375,-9.808,-15.401
10.89,-12.49,11.58,-13.476,17.794,-14.808,-7.704,-1.738
12.746,-14.965,13.236,-13.01,17.135,-14.482,-11.044,8.411
12.387,-12.483,9.531,-15.104,10.808,-16.558,-18.37,6.525
7.984,-11.227,-0.146,-21.989,0.426,-23.5,-23.109,-9.842
2.207,-17.385,-10.798,-31.616,-10.295,-33.36,-25.14,-31.074
-3.487,-28.741,-18.317,-38.867,-19.07,-40.747,-28.263,-43.465
-8.346,-36.682,-21.558,-39.178,-23.213,-40.832,-29.699,-39.357
-9.899,-36.916,-19.151,-33.836,-20.272,-35.216,-25.838,-25.125
-6.523,-32.579,-12.384,-29.011,-13.494,-30.497,-18.61,-13.771
-2.17,-29.506,-8.987,-29.586,-12.19,-31.286,-13.717,-12.853
-2.025,-31.117,-14.043,-35.926,-19.533,-37.55,-15.868,-22.631
-3.127,-32.885,-19.098,-41.456,-24.958,-42.927,-20.024,-31.162
2.901,-25.408,-12.13,-35.843,-18.142,-37.242,-15.727,-21.17
16.105,-10.591,1.96,-21.933,-5.969,-23.061,-5.899,-2.496
24.667,-2.357,7.191,-15.83,-2.911,-16.485,-1.833,-2.469
21.72,-4.561,2.123,-19.715,-8.75,-20.056,-1.944,-15.53
16.405,-7.79,-1.126,-21.841,-12.762,-22.112,-0.798,-20.152
18.499,-7.051,1.909,-20.801,-12.11,-21.064,-3.23,-21.565
22.626,-5.193,4.993,-22.006,-11.489,-22.271,-9.406,-27.86
19.994,-4.499,3.738,-23.004,-12.951,-23.252,-8.711,-26.718
15.655,-3.19,2.724,-18.266,-12.612,-18.323,2.323,-9.15
18.329,0.347,7.22,-10.592,-7.873,-10.274,12.541,9.792
25.289,3.251,12.87,-8.921,-4.293,-8.218,9.771,7.3
31.118,3.739,13.314,-13.682,-6.132,-12.668,-3.534,-13.665
35.633,5.108,11.226,-15.888,-7.95,-14.704,-12.27,-27.739
36.278,7.403,11.836,-13.665,-6.052,-12.521,-8.03,-23.242
28.83,4.866,12.328,-14.212,-6.901,-13.096,1.6,-9.844
17.836,-2.785,8.217,-18.854,-14.744,-17.459,6.626,1.458
13.156,-7.711,3.409,-22.216,-22.818,-20.297,5.769,2.999
16.512,-6.41,2.563,-23.939,-24.894,-21.533,1.567,-11.019
22.009,-3.713,3.379,-26.186,-23.818,-23.593,-3.899,-30.797
26.709,-2.03,4.674,-24.533,-22.818,-22.125,-6.453,-33.087
30.269,2.358,9.637,-14.987,-19.127,-12.733,-2.04,-13.427
29.609,9.039,16.156,-4.689,-12.874,-2.135,6.3,3.76
23.922,11.053,17.064,-3.688,-11.335,-0.76,10.585,1.078
18.54,7.143,12.42,-10.181,-16.064,-7.368,7.585,-9.404
16.35,3.734,7.687,-15.997,-20.927,-13.471,1.573,-14.763
13.716,2.61,3.451,-20.056,-25.439,-17.328,-2.071,-19.28
10.497,0.725,0.373,-22.614,-30.546,-19.346,-3.096,-19.746
11.349,-0.728,1.904,-20.374,-30.861,-16.905,-3.801,-7.661
12.25,-1.099,2.976,-18.193,-28.359,-14.982,-5.042,1.027
3.501,-5.693,-5.235,-25.472,-34.213,-22.614,-9.308,-15.994
-11.399,-15.53,-18.574,-38.915,-47.862,-36.452,-17.916,-46.463
-18.876,-23.398,-26.06,-47.109,-56.147,-45.139,-23.895,-54.775
-15.037,-24.661,-25.674,-45.94,-54.745,-44.303,-21.036,-32.907
-7.081,-21.627,-22.185,-40.236,-51.384,-38.611,-15.945,-13.047
-0.601,-18.283,-17.641,-36.611,-49.614,-34.824,-17.425,-18.652
3.852,-16.362,-11.661,-35.567,-45.501,-33.695,-21.056,-31.193
5.655,-15.189,-7.017,-32.791,-39.181,-31.076,-18.262,-26.856
2.362,-14.97,-8.046,-30.08,-37.325,-28.545,-14.328,-18.497
-5.206,-17.371,-12.699,-32.712,-41.688,-30.997,-18.975,-26.282
-9.467,-19.906,-12.475,-37.069,-44.118,-35.078,-26.379,-38.183
-6.838,-18.667,-6.482,-36.915,-40.837,-35.119,-27.733,-37.279
-6.05,-17.232,-7.024,-35.937,-41.465,-34.699,-29.53,-32.865
-12.519,-20.304,-19.142,-40.944,-51.826,-40.263,-39.102,-40.849
-18.414,-24.664,-29.951,-49.145,-62.253,-49.016,-49.104,-54.285
-18.424,-26.825,-32.102,-52.843,-65.363,-53.195,-49.991,-54.238
-17.48,-28.673,-34.04,-51.823,-66.977,-52.431,-45.593,-43.684
-18.239,-29.963,-38.286,-50.805,-70.316,-51.386,-45.446,-41.502
-16.61,-27.519,-36.846,-50.959,-69.926,-51.243,-49.546,-51.375
-11.003,-22.284,-28.546,-49.281,-63.767,-49.357,-49.67,-58.121
-5.605,-17.389,-20.625,-42.323,-55.848,-42.728,-41.74,-49.948
-5.296,-14.745,-18.885,-33.624,-51.729,-34.726,-32.453,-35.956
-9.984,-15.645,-23.289,-31.589,-54.75,-33.178,-31.091,-31.352
-12.388,-16.97,-27.651,-34.688,-59.96,-36.353,-35.483,-33.137
-7.034,-13.789,-27.261,-33.803,-59.944,-35.46,-35.653,-29.013
0.082,-8.471,-25.462,-29.645,-56.976,-31.533,-30.77,-22.077
1.61,-6.177,-25.187,-30.211,-56.468,-32.498,-28.523,-25.701
0.446,-5.688,-24.598,-34.963,-57.084,-37.512,-30.038,-39.057
1.733,-3.034,-23.719,-35.69,-55.916,-38.159,-28.327,-47.532
5.534,1.966,-21.967,-28.734,-51.946,-30.884,-21.64,-43.014
9.503,5.665,-17.775,-20.074,-46.77,-21.947,-18.658,-33.793
10.936,5.045,-14.72,-17.732,-45.382,-19.475,-22.472,-29.182
10.453,1.772,-14.223,-20.917,-47.66,-22.617,-23.375,-24.066
11.772,-0.33,-12.404,-22.781,-47.907,-24.528,-18.206,-13.666
14.25,-0.452,-10.519,-20.557,-45.939,-22.479,-14.606,-2.532
9.272,-5.066,-16.723,-24.211,-49.716,-26.372,-19.544,-9.05
-11.896,-24.311,-36.412,-47.99,-67.192,-50.37,-38.934,-52.189
-42.939,-54.807,-63.064,-82.324,-94.204,-84.949,-69.706,-103.316
-73.061,-84.916,-91.192,-109.565,-123.693,-112.488,-103.295,-126.082
-111.419,-120.962,-131.885,-142.682,-164.262,-145.845,-145.61,-146.715
-163.718,-170.423,-185.564,-194.088,-217.431,-197.347,-198.855,-193.108
-205.689,-212.844,-225.942,-237.681,-258.101,-240.99,-239.186,-237.466
-215.256,-225.482,-236.281,-246.329,-267.308,-249.934,-246.906,-249.237
-199.917,-214.276,-225.335,-229.868,-253.759,-234.167,-233.887,-237.418
-180.889,-199.805,-207.878,-214.155,-235.84,-219.026,-222.059,-227.539
-172.494,-193.067,-195.864,-209.979,-226.008,-214.569,-216.889,-228.975
-175.406,-192.694,-194.39,-210.573,-226.086,-214.228,-213.242,-225.861
-182.888,-194.918,-197.828,-208.41,-228.853,-211.461,-211.606,-207.171
-187.076,-196.295,-196.318,-205.667,-226.646,-208.852,-213.798,-195.416
-179.028,-189.532,-184.536,-201.332,-216.016,-204.719,-210.575,-203.008
-161.62,-174.956,-172.194,-191.507,-204.593,-194.564,-198.551,-206.546
-154.052,-168.26,-177.232,-187.214,-208.074,-189.78,-195.462,-202.959
-163.866,-176.013,-195.174,-196.343,-223.69,-198.692,-207.037,-211.014
-176.477,-185.132,-202.835,-203.639,-230.848,-205.802,-211.638,-216.412
-180.044,-186.252,-195.696,-196.579,-224.253,-198.54,-200.308,-196.34
-176.958,-183.277,-187.896,-185.223,-216.225,-187.38,-191.798,-172.4
-170.9,-181.15,-182.529,-180.988,-210.98,-183.628,-195.838,-171.79
-161.678,-180.191,-174.679,-182.924,-205.093,-185.708,-198.533,-185.308
-157.036,-183.002,-175.262,-193.388,-208.442,-195.926,-199.024,-208.443
-167.391,-193.069,-195.166,-214.207,-230.343,-216.654,-215.103,-244.104
-182.463,-202.332,-216.968,-230.088,-251.798,-232.723,-238.267,-265.123
-183.247,-200.712,-218.09,-227.513,-249.686,-230.309,-243.156,-249.691
-180.291,-200.824,-211.752,-220.566,-239.772,-223.479,-240.084,-224.863
-203.631,-225.264,-233.358,-236.729,-259.462,-239.86,-258.722,-237.66
-247.253,-265.051,-278.61,-274.035,-304.397,-277.281,-292.743,-287.992
-266.638,-283.792,-298.439,-295.295,-325.788,-298.361,-307.735,-317.616
-247.987,-271.875,-278.419,-284.315,-307.784,-287.213,-295.378,-299.29
-229.803,-259.588,-260.14,-269.679,-289.279,-272.652,-283.08,-278.579
-236.562,-265.791,-266.399,-272.449,-294.019,-275.42,-288.797,-285.54
-245.396,-273.38,-272.607,-276.535,-300.529,-279.366,-297.053,-289.19
-235.958,-267.123,-260.977,-265.37,-289.983,-268.268,-288.851,-268.477
-221.017,-256.633,-248.75,-249.392,-275.632,-252.459,-271.503,-248.485
-214.939,-251.698,-251.252,-244.056,-273.34,-247.083,-263.6,-247.279
-212.949,-247.087,-254.772,-245.39,-274.106,-248.388,-265.071,-248.357
-208.463,-238.343,-244.528,-242.338,-264.707,-245.554,-261.499,-240.863
-206.352,-232.797,-232.046,-239.431,-254.214,-242.82,-252.071,-241.236
-210.937,-237.46,-231.28,-246.692,-255.342,-249.958,-250.944,-260.413
-210.923,-242.271,-230.926,-251.899,-257.226,-254.9,-257.298,-273.845
-189.221,-228.263,-215.362,-232.991,-242.508,-235.624,-249.369,-252.453
-146.689,-192.533,-188.678,-194.564,-212.918,-196.7,-218.489,-212.908
-104.353,-150.49,-160.835,-156.868,-179.497,-158.796,-178.948,-182.317
-79.071,-116.283,-135.417,-126.35,-149.338,-128.685,-141.519,-153.584
-66.948,-92.397,-114.363,-103.709,-127.1,-106.47,-109.766,-124.91
-57.339,-76.385,-97.107,-90.431,-111.299,-92.845,-89.513,-105.427
-53.307,-71.034,-82.252,-82.135,-96.168,-83.712,-80.396,-86.041
-58.744,-75.745,-73.162,-75.647,-83.159,-76.765,-75.995,-65.814
-55.179,-73.385,-69.064,-69.828,-75.804,-70.985,-72.111,-60.041
-28.006,-51.32,-60.01,-59.309,-68.181,-60.669,-64.214,-64.958
8.315,-18.378,-37.177,-35.929,-48.16,-37.644,-44.576,-53.51
41.997,17.368,2.247,4.688,-8.296,2.556,-7.758,-11.327
74.425,54.313,46.913,48.343,37.923,46.18,35.816,37.156
101.712,86.48,75.042,72.05,64.675,70.291,64.467,59.839
122.437,111.109,85.052,77.923,72.113,76.444,75.071,61.606
137.888,127.645,91.857,85.552,80.482,83.959,84.119,70.379
145.818,135.342,97.891,99.591,92.037,97.858,97.796,94.893
142.443,136.803,99.884,108.885,96.629,107.311,106.188,113.847
123.396,129.169,101.212,108.017,95.7,106.823,105.748,115.599
103.019,112.91,105.619,105.855,98.574,105.091,107.876,118.583
109.939,106.105,113.169,107.269,106.454,106.856,116.252,119.776
140.867,120.055,120.649,106.175,111.879,105.929,118.704,98.058
158.525,139.412,124.051,102.745,111.141,102.597,111.365,75.6
155.33,151.128,125.701,106.091,110.485,106.242,107.568,84.297
163.129,160.556,132.099,118.698,117.708,119.281,120.774,111.483
173.231,159.573,136.111,125.826,124.102,126.569,141.615,129.005
146.909,133.834,123.299,113.02,112.294,113.689,141.858,126.227
111.689,107.103,101.63,93.443,89.754,94.263,118.675,111.289
114.808,107.593,91.228,88.17,79.292,89.26,100.803,98.906
126.06,115.786,92.173,91.095,80.656,92.057,99.027,91.278
101.951,108.841,92.576,88.899,79.618,89.532,99.496,88.269
65.818,100.19,89.132,85.821,74.719,86.502,94.855,93.645
62.072,105.069,90.226,89.321,76.539,90.238,91.641,97.096
99.682,124.909,111.709,106.196,98.982,106.974,106.343,100.572
152.495,156.279,152.174,139.662,139.079,140.095,144.117,129.215
184.909,184.917,181.831,171.154,167.862,171.516,178.647,172.271
181.43,193.16,178.766,174.301,163.912,174.646,182.213,178.854
152.18,177.807,152.42,149.711,137.136,149.748,160.13,139.725
92.765,128.417,102.841,100.466,87.923,100.359,112.774,82.187
-53.424,-12.184,-29.07,-30.749,-44.071,-30.363,-22.434,-44.869
-301.457,-263.496,-274.121,-278.21,-289.724,-277.037,-275.564,-295.608
-516.075,-492.459,-506.923,-511.368,-521.489,-509.796,-510.087,-532.049
-576.517,-567.944,-590.401,-587.654,-603.213,-586.211,-586.719,-592.47
-554.56,-549.512,-575.696,-566.962,-589.932,-565.555,-568.629,-554.815
-551.644,-539.86,-566.365,-561.392,-584.054,-559.532,-562.895,-553.481
-549.878,-528.726,-555.274,-556.786,-572.285,-554.45,-552.045,-558.369
-528.617,-500.567,-525.803,-528.784,-537.517,-526.275,-514.143,-523.7
-529.676,-500.62,-522.215,-525.579,-530.958,-522.795,-501.505,-505.937
-560.287,-531.89,-550.236,-554.503,-560.737,-551.139,-528.415,-529.413
-562.377,-527.888,-547.285,-547.916,-559.06,-544.097,-530.959,-527.207
-506.789,-463.839,-488.235,-483.919,-499.117,-479.904,-480.235,-470.443
-442.057,-402.939,-430.005,-428.473,-441.747,-424.055,-430.885,-420.93
-426.078,-404.85,-427.019,-433.534,-440.695,-428.474,-429.615,-424.826
-458.2,-448.734,-463.264,-471.854,-474.855,-466.437,-455.229,-456.239
-486.684,-467.946,-482.248,-485.259,-489.17,-479.729,-463.028,-469.276
-464.935,-432.369,-452.667,-452.438,-459.218,-446.631,-436.814,-441.48
-410.966,-381.382,-402.976,-406.361,-413.503,-400.262,-398.777,-395.315
-384.763,-366.8,-384.665,-389.812,-396.212,-383.722,-380.675,-378.03
-395.623,-379.191,-396.565,-396.589,-404.233,-390.707,-380.302,-390.954
-395.455,-369.999,-388.915,-385.8,-393.869,-380.026,-369.242,-389.022
-360.721,-329.014,-345.903,-346.582,-352.697,-340.661,-338.703,-354.321
-317.588,-292.079,-304.791,-308.572,-315.184,-302.396,-306.164,-312.189
-293.171,-279.21,-289.402,-290.218,-301.707,-283.96,-285.703,-280.61
-278.415,-265.644,-279.296,-273.367,-290.647,-267.25,-269.222,-251.596
-249.004,-226.901,-252.015,-240.199,-260.821,-234.289,-239.61,-221.231
-208.27,-180.835,-216.151,-204.278,-223.783,-198.54,-202.262,-201.411
-184.822,-161.9,-194.905,-189.339,-204.615,-183.699,-183.852,-199.367
-190.632,-174.15,-194.707,-195.549,-207.788,-189.927,-189.83,-202.51
-201.515,-187.557,-197.249,-198.04,-210.709,-192.412,-192.501,-190.638
-188.166,-175.085,-182.905,-177.561,-193.073,-171.979,-171.145,-160.408
-152.946,-140.573,-151.305,-140.912,-158.653,-135.625,-134.834,-123.283
-119.217,-106.254,-116.508,-106.797,-123.938,-102.018,-103.969,-90.207
-101.026,-86.822,-94.342,-87.736,-102.605,-83.175,-89.99,-75.148
-96.3,-80.634,-87.821,-84.1,-96.174,-79.325,-88.158,-84.369
-92.607,-75.298,-80.5,-82.548,-89.788,-77.565,-82.397,-95.45
-77.396,-60.888,-58.564,-68.005,-69.447,-63.046,-63.062,-83.264
-52.198,-39.748,-31.364,-41.912,-42.148,-37.059,-37.891,-53.776
-27.599,-17.718,-12.033,-16.926,-21.936,-12.099,-18.16,-23.105
-7.322,5.513,2.224,1.444,-8.466,6.364,-3.774,4.765
7.782,27.19,14.226,13.242,2.539,18.196,8.555,23.358
16.531,39.222,21.564,17.44,10.624,22.225,18.807,24.027
27.037,43.367,31.36,19.278,20.759,24.019,28.296,14.873
47.692,51.946,49.456,29.213,37.776,34.331,37.994,15.847
75.716,72.436,68.762,49.944,57.233,55.492,49.266,36.671
107.336,103.468,85.195,76.177,75.027,81.92,65.051,69.675
137.198,137.15,100.943,102.29,91.508,108.303,83.45,101.823
151.215,158.373,111.845,119.205,103.575,125.547,97.228,117.322
149.343,161.595,114.276,119.974,107.934,126.257,102.248,103.943
158.115,166.712,119.735,119.933,113.831,125.942,107.629,88.566
188.86,188.533,140.188,138.59,133.093,144.683,125.834,111.573
213.255,210.281,162.496,162.227,155.803,168.653,147.661,147.852
212.589,220.177,170.731,171.064,167.023,177.565,157.444,152.437
215.372,235.815,181.211,179.423,178.903,185.824,164.598,150.921
250.852,265.685,210.203,203.438,205.959,210.062,182.509,177.839
292.839,287.102,236.854,226.404,231.892,233.546,201.981,206.174
297.763,285.111,241.728,232.364,239.513,239.886,212.164,212.673
279.976,282.073,241.2,237.337,242.861,245.129,219.251,221.978
286.051,302.69,253.33,257.262,259.045,265.462,231.5,243.521
313.455,333.539,268.969,278.559,278.025,287.263,244.907,249.156
322.566,342.855,277.502,284.225,286.278,293.462,254.328,242.551
308.618,325.188,286.763,280.064,290.654,289.884,263.521,257.649
300.233,308.011,297.965,280.91,297.245,291.233,274.253,283.62
307.831,315.883,300.527,291.923,302.235,302.453,283.482,291.353
317.485,337.996,300.464,307.021,308.916,317.488,290.896,293.261
321.557,348.22,310.203,317.62,320.858,328.071,297.147,308.906
330.849,348.687,323.766,323.601,331.959,334.262,303.146,327.702
348.008,353.921,330.654,326.608,336.975,337.478,309.672,327.286
350.731,352.852,331.978,322.923,337.36,333.82,314.375,308.125
329.215,336.247,333.678,318.257,338.781,329.185,317.014,297.596
311.659,327.064,338.216,326.087,345.944,337.144,323.118,311.937
325.034,344.655,346.735,347.064,359.088,358.139,337.085,339.742
355.727,372.275,360.179,368.263,375.335,379.2,354.613,361.462
372.15,383.483,375.396,378.993,389.768,389.826,367.064,369.531
369.543,377.226,388.831,382.287,400.15,393.046,374.802,377.476
367.346,372.213,400.21,388.167,408.433,398.701,382.896,393.998
374.18,380.468,406.215,397.598,413.193,407.715,387.749,402.984
380.729,394.414,403.766,404.868,412.931,414.485,387.77,401.212
381.244,398.937,401.421,408.832,413.765,418.131,389.905,406.961
378.834,391.82,405.07,407.367,417.492,416.558,393.321,410.358
375.037,383.456,404.855,396.958,416.91,405.732,391.337,389.946
375.367,384.281,401.473,389.482,415.586,397.458,388.784,371.687
386.407,397.12,411.522,401.239,425.758,408.757,396.263,390.845
397.949,412.353,430.816,422.283,441.683,429.859,411.103,425.771
397.558,416.569,435.247,428.096,444.536,435.648,417.506,431.964
390.846,407.601,420.013,414.367,431.442,421.579,407.722,408.732
387.035,393.272,403.154,399.03,416.804,405.92,394.602,391.687
388.14,383.092,398.024,397.044,411.86,403.81,394.839,398.319
393.373,384.224,404.29,406.243,416.888,412.962,408.232,417.273
397.424,394.817,414.324,417.078,424.575,423.85,420.869,435.575
393.648,401.265,417.836,419.733,424.43,426.632,418.46,435.67
385.398,396.012,411.345,410.452,414.993,417.192,401.986,408.352
385.1,392.702,405.098,404.106,409.997,410.459,392.703,388.415
396.496,402.077,409.765,413.794,418.218,420.107,402.931,407.296
407.159,410.52,419.642,425.765,428.738,432.362,418.156,437.071
406.043,405.029,420.1,422.699,428.07,429.398,421.308,435.53
394.653,392.945,408.674,409.694,417.626,416.277,412.262,406.706
379.589,385.884,401.098,402.501,411.571,408.965,403.959,389.252
369.513,385.187,409.952,404.921,419.416,411.231,405.546,396.847
370.442,385.627,422.238,408.483,429.742,414.509,410.38,407.875
377.155,384.843,419.067,409.295,427.212,414.994,411.002,413.296
382.223,384.461,407.228,409.877,418.24,415.464,412.203,421.934
384.378,383.632,401.079,408.444,414.598,414.189,414.896,427.351
380.162,378.467,395.617,400.048,410.808,405.908,409.879,412.682
366.88,368.38,385.225,386.802,400.683,392.491,399.185,385.954
352.151,358.414,378.751,378.784,392.388,384.148,396.95,377.896
345.425,353.983,381.289,380.951,393.094,386.043,404.393,395.437
348.195,357.103,386.971,386.21,398.119,391.104,408.626,411.783
356.646,366.822,391.922,388.657,401.953,393.381,406.591,415.153
367.879,378.044,398.229,392.8,407.427,397.397,408.656,421.606
381.738,383.669,405.818,401.056,417.07,405.644,415.935,430.66
392.041,381.259,409.147,406.477,423.689,411.161,418.816,426.76
385.009,372.973,402.541,402.97,418.194,407.624,416.387,413.093
363.327,364.033,389.99,394.634,405.25,398.933,414.105,401.03
353.058,363.734,387.456,393.123,402.475,396.854,414.3,397.122
365.439,374.709,402.239,401.903,416.103,405.129,416.941,404.229
379.189,385.814,418.208,411.334,430.169,414.303,419.218,416.353
376.334,386.133,417.447,412.442,429.306,415.391,417.73,421.135
367.665,377.792,403.911,405.834,417.371,408.784,412.873,413.906
369.465,372.128,394.108,400.452,408.23,403.262,408.318,407.51
375.401,373.419,393.453,400.761,406.255,403.497,404.898,409.079
371.651,371.427,394.577,399.437,404.882,402.401,400.191,405.762
363.841,360.449,393.099,392.951,401.876,396.264,396.917,396.466
363.264,351.999,389.714,388.296,400.266,391.854,398.794,396.409
362.715,353.621,382.271,387.313,397.222,391.099,400.339,404.095
351.351,354.62,370.113,384.049,389.05,388.098,396.879,407.737
338.572,347.745,363.039,380.1,383.177,384.244,394.668,411.359
338.563,340.012,368.675,378.497,386.258,382.402,395.738,412.252
344.218,333.219,374.479,370.55,387.495,374.09,389.909,391.21
339.534,323.04,364.792,355.376,376.025,358.865,374.485,358.273
323.948,313.9,347.253,346.802,361.319,350.56,361.146,345.374
308.317,311.35,339.213,346.173,356.549,349.975,357.029,351.602
302.183,312.311,340.383,342.553,358.261,345.962,356.481,354.634
307.263,311.112,338.227,335.671,355.434,338.629,352.581,351.57
310.716,302.745,328.572,330.963,345.466,333.617,345.296,352.205
298.274,285.56,317.311,325.017,333.937,327.389,337.318,351.167
277.432,267.821,309.142,313.815,325.66,315.858,329.538,334.826
267.196,261.636,305.165,306.484,322.596,308.049,323.286,318.731
270.697,267.269,306.625,313.525,325.824,314.299,321.91,332.97
274.526,270.679,308.757,321.623,329.081,321.532,324.219,355.326
270.101,262.211,301.116,308.828,320.521,308.262,320.976,336.65
264.07,252.725,287.43,287.774,304.382,287.113,310.752,300.701
264.509,255.937,285.953,288.375,300.988,287.702,307.294,307.091
266.228,263.333,297.067,302.773,312.283,302.107,313.572,333.239
261.561,260.401,298.328,300.821,315.602,300.142,314.126,319.779
257.455,251.928,284.479,282.895,303.021,281.933,305.628,284.025
263.01,249.906,276.142,273.613,293.504,272.197,302.772,278.489
271.136,255.026,281.493,283.011,297.952,281.586,310.322,297.75
274.336,262.89,289.672,301.58,308.068,300.708,318.994,310.455
280.853,274.077,298.986,318.801,320.441,318.35,327.091,325.065
294.134,288.043,314.563,329.05,336.468,328.547,337.23,352.114
300.705,296.777,327.859,330.032,346.662,329.549,341.305,363.269
296.778,295.013,327.423,324.646,343.134,324.691,335.073,344.21
297.383,289.657,318.489,321.269,335.033,321.938,329.739,325.71
309.975,292.948,317.62,331.407,338.631,332.339,336.441,335.704
327.128,308.507,334.168,355.554,358.859,356.623,354.193,368.032
339.69,325.244,355.303,373.547,379.973,374.93,372.18,401.786
339.486,328.648,357.767,368.341,381.465,370.055,377.331,416.16
324.031,317.071,340.887,346.235,364.691,348.122,365.03,395.471
304.161,299.625,324.107,321.851,345.786,323.874,345.457,350.012
294.851,282.822,313.046,304.04,330.789,306.275,330.629,314.334
299.63,269.773,300.349,297.847,318.812,300.276,318.639,306.255
305.729,262.035,288.131,297.512,311.032,299.976,303.237,305.461
298.297,256.938,284.387,290.292,306.947,292.502,289.817,293.552
283.876,256.342,292.251,285.011,310.133,286.605,290.831,290.785
282.17,267.049,304.666,299.468,322.298,300.484,306.036,310.928
293.808,283.663,306.025,319.511,328.307,320.543,317.356,325.85
299.117,288.028,291.704,318.075,315.968,319.382,312.047,313.849
286.624,270.808,274.071,294.964,296.052,295.973,296.809,287.523
267.481,243.659,263.276,267.69,282.57,267.947,280.963,264.117
256.558,221.51,258.442,249.234,275.043,249.004,265.559,251.13
248.546,205.514,253.647,243.207,268.2,242.833,254.726,252.241
230.854,194.695,242.461,240.88,259.074,240.299,251.459,260.109
209.807,190.316,225.721,230.019,245.944,229.087,245.598,259.502
197.837,184.261,212.83,213.422,232.208,212.192,230.615,245.298
187.891,167.273,202.279,199.005,219.184,197.516,212.618,219.698
165.97,142.087,181.324,182.443,200.38,180.544,195.406,188.865
138.143,117.105,154.444,161.247,176.64,158.859,177.959,166.162
126.555,100.876,139.531,145.706,158.893,142.969,161.721,159.27
136.251,98.811,137.224,142.625,151.386,139.723,151.147,162.715
140.429,102.708,131.506,141.225,145.448,138.272,144.342,158.831
122.345,101.83,118.389,129.285,133.85,126.304,132.632,133.37
106.049,99.375,112.866,117.459,124.619,114.447,119.226,106.473
108.653,96.478,118.455,120.28,124.878,117.295,117.281,111.938
108.064,87.938,114.814,125.254,122.522,122.385,123.844,136.843
85.482,72.762,90.687,110.404,104.522,107.734,119.361,133.152
53.711,48.076,62.717,76.92,78.579,74.42,97.268,94.482
36.271,23.135,51.598,50.76,64.038,48.211,76.358,67.42
38.478,20.945,58.255,54.608,69.276,52.008,75.311,82.496
45.294,37.31,67.454,77.582,81.289,75.366,86.32,117.134
50.189,45.42,66.547,86.093,80.102,84.495,86.546,122.955
56.442,39.344,55.706,68.02,63.391,66.537,70.906,80.808
48.925,27.632,40.92,43.042,45.007,40.978,54.924,30.969
14.855,10.366,25.689,28.304,31.169,25.775,45.643,17.801
-21.653,-8.664,9.448,20.243,15.77,17.965,32.665,28.278
-35.674,-22.128,-11.551,7.328,-5.136,5.387,8.901,26.596
-40.687,-37.566,-36.551,-16.466,-28.179,-18.601,-19.581,1.831
-54.896,-61.801,-56.668,-45.303,-47.91,-47.605,-44.568,-37.294
-68.151,-82.754,-66.537,-67.283,-61.552,-69.193,-61.554,-72.601
-70.436,-90.41,-71.806,-77.821,-70.968,-79.274,-69.746,-88.089
-80.662,-93.624,-82.047,-81.159,-80.822,-82.523,-74.209,-83.585
-114.253,-104.329,-99.914,-85.521,-93.441,-86.713,-79.76,-71.974
-147.661,-121.279,-118.804,-98.847,-107.978,-99.418,-89.364,-74.783
-155.386,-136.533,-131.122,-117.357,-121.965,-117.342,-106.011,-97.517
-151.758,-150.059,-136.954,-130.39,-132.342,-130.276,-124.925,-117.074
-160.046,-168.265,-145.124,-142.106,-141.843,-141.976,-138.998,-129.032
-174.605,-187.541,-159.549,-158.59,-154.444,-158.051,-147.462,-148.09
-180.259,-195.747,-170.986,-168.863,-164.898,-167.769,-152.355,-162.102
-181.953,-194.718,-177.125,-170.829,-171.216,-169.361,-159.924,-163.911
-192.995,-197.802,-187.058,-177.3,-178.905,-175.595,-171.527,-171.132
-207.908,-203.928,-194.638,-183.403,-182.202,-181.705,-175.881,-177.498
-209.129,-202.593,-187.746,-177.664,-174.816,-176.439,-171.061,-168.439
-199.065,-199.303,-181.396,-172.312,-172.278,-171.729,-170.397,-160.472
-197.492,-205.643,-193.31,-180.047,-186.167,-179.835,-177.887,-168.352
-207.201,-217.993,-209.007,-193.612,-201.629,-193.574,-185.77,-186.179
-214.499,-228.204,-212.21,-206.344,-206.964,-206.469,-192.052,-203.638
-212.345,-231.971,-209.133,-213.848,-206.802,-213.997,-199.034,-206.997
-207.04,-226.808,-207.935,-209.122,-204.248,-209.229,-203.833,-195.721
-212.664,-220.363,-211.138,-200.856,-202.596,-201.309,-204.229,-194.064
-224.964,-218.627,-213.36,-200.662,-202.395,-201.892,-200.777,-208.845
-219.431,-212.375,-200.807,-197.24,-192.815,-199.064,-191.324,-206.776
-197.804,-199.86,-178.799,-181.371,-174.538,-183.278,-178.977,-173.646
-185.796,-194.193,-172.058,-169.697,-166.564,-171.608,-173.366,-149.781
-185.535,-200.64,-184.783,-178.141,-175.143,-180.375,-177.249,-166.64
-186.787,-214.468,-199.672,-197.823,-188.51,-200.547,-187.073,-200.751
-196.143,-230.439,-208.348,-210.464,-198.589,-213.787,-198.904,-215.189
-215.331,-240.465,-212.447,-211.567,-203.883,-215.735,-206.453,-203.821
-227.866,-238.04,-212.589,-207.062,-203.244,-212.031,-205.178,-186.346
-226.493,-229.135,-210.874,-200.479,-199.003,-205.827,-198.461,-179.92
-223.764,-225.978,-211.212,-196.995,-197.017,-202.423,-194.535,-183.851
-226.456,-229.092,-212.843,-200.3,-198.349,-205.76,-196.474,-187.318
-223.867,-229.489,-211.227,-201.701,-197.955,-207.202,-199.003,-185.086
-212.567,-229.866,-209.324,-200.453,-197.582,-206.103,-202.08,-191.859
-208.792,-239.935,-215.537,-211.363,-205.607,-217.319,-212.799,-220.109
-220.139,-251.402,-227.741,-228.532,-218.906,-234.777,-226.473,-243.582
-230.829,-249.655,-234.819,-229.065,-224.854,-235.362,-229.237,-232.393
-232.389,-242.518,-231.303,-215.921,-219.712,-221.94,-219.213,-202.818
-238.099,-246.257,-223.746,-211.41,-211.74,-216.964,-208.017,-191.198
-252.162,-257.338,-223.128,-221.601,-210.594,-226.768,-206.799,-207.043
-264.837,-267.459,-235.732,-239.195,-223.977,-244.153,-222.416,-236.713
-281.044,-285.977,-264.441,-263.276,-257.64,-268.143,-257.01,-269.212
-305.778,-314.948,-301.031,-290.068,-299.45,-294.972,-294.582,-293.23
-319.779,-332.835,-323.233,-306.541,-321.671,-311.653,-310.556,-300.378
-311.364,-328.784,-320.743,-307.969,-316.09,-313.204,-305.597,-297.893
-297.177,-314.407,-304.474,-298.199,-297.874,-303.175,-294.641,-289.21
-288.163,-295.243,-283.181,-277.758,-275.412,-282.289,-275.222,-273.063
-272.327,-267.466,-254.863,-248.727,-245.893,-252.984,-243.853,-257.999
-243.317,-237.872,-222.863,-220.137,-214.386,-224.358,-215.325,-241.109
-214.891,-217.739,-200.795,-199.826,-193.878,-204.099,-199.638,-211.417
-196.411,-204.397,-192.152,-187.165,-185.445,-191.47,-189.285,-183.7
-181.838,-193.172,-185.456,-180.477,-179.418,-184.9,-180.59,-180.434
-169.505,-191.9,-179.543,-183.225,-175.899,-187.825,-179.329,-191.874
-165.34,-200.749,-182.43,-191.226,-179.008,-195.759,-183.369,-192.218
-169.332,-203.191,-185.517,-190.355,-179.95,-194.692,-182.47,-178.882
-181.45,-196.023,-179.874,-181.947,-173.538,-186.464,-175.195,-170.444
-202.948,-195.191,-178.347,-181.915,-171.115,-187.039,-171.195,-175.217
-220.322,-203.313,-186.968,-189.308,-177.09,-195.041,-175.956,-182.986
-218.02,-207.968,-194.21,-192.037,-183.638,-198.062,-186.101,-185.256
-201.101,-205.429,-198.078,-190.939,-189.359,-197.156,-195.922,-181.802
-185.843,-200.918,-203.787,-192.509,-195.287,-199.261,-199.34,-178.83
-186.38,-201.214,-209.122,-197.988,-198.491,-205.434,-197.596,-188.353
-203.557,-207.513,-212.55,-203.883,-200.222,-211.677,-200.333,-207.215
-217.065,-208.276,-215.078,-203.383,-203.074,-211.37,-208.261,-216.957
-212.117,-199.128,-215.345,-197.876,-206.08,-206.314,-214.439,-216.381
-206.899,-199.612,-217.844,-201.396,-211.419,-210.234,-220.469,-217.897
-225.683,-222.653,-230.007,-218.911,-222.129,-227.641,-228.692,-222.457
-254.525,-245.322,-243.932,-234.181,-231.264,-242.657,-231.833,-225.043
-259.653,-240.653,-243.932,-233.533,-229.332,-242.281,-225.816,-223.924
-243.412,-222.599,-232.892,-226.206,-221.615,-235.579,-219.803,-221.169
-232.508,-220.353,-226.938,-225.951,-220.625,-235.744,-224.073,-222.647
-226.465,-225.874,-228.94,-228.454,-225.094,-238.671,-233.773,-227.876
-215.801,-217.612,-231.131,-225.445,-226.918,-236.465,-237.69,-232.101
-216.985,-208.997,-233.694,-223.781,-228.894,-235.5,-237.635,-237.887
-238.318,-219.371,-240.467,-229.766,-235.028,-241.506,-240.325,-242.926
-255.073,-232.7,-246.284,-231.907,-238.384,-243.407,-242.871,-231.126
-247.715,-227.799,-242.92,-220.803,-232.981,-232.59,-241.636,-200.374
-233.524,-216.968,-238.692,-216.784,-229.129,-229.362,-243.27,-192.262
-239.589,-222.064,-249.63,-241.361,-240.097,-254.6,-253.65,-241.915
-253.323,-232.313,-262.578,-267.047,-252.749,-280.469,-261.381,-300.245
-241.447,-223.255,-253.776,-258.68,-246.567,-271.833,-255.596,-304.403
-210.91,-199.437,-234.786,-233.71,-231.292,-246.35,-245.886,-276.985
-191.854,-179.734,-225.552,-220.287,-223.075,-232.54,-240.659,-257.228
-188.356,-168.965,-221.064,-215.638,-217.799,-227.873,-236.097,-240.355
-189.929,-165.26,-216.414,-211.273,-211.355,-223.763,-230.576,-224.443
-189.464,-165,-215.064,-207.603,-207.271,-220.388,-226.195,-221.216
-178.407,-160.638,-211.627,-204.118,-204.701,-217.007,-224.65,-228.144
-161.017,-152.345,-202.769,-198.232,-200.994,-210.937,-224.283,-230.975
-158.958,-151.953,-197.723,-194.233,-198.391,-206.55,-223.561,-226.722
-178.849,-165.736,-204.594,-200.927,-201.771,-212.8,-227.747,-226.694
-201.425,-182.72,-220.67,-216.283,-211.63,-227.808,-237.267,-235.031
-211.562,-191.021,-234.078,-231.228,-221.775,-242.516,-244.381,-246.958
-210.971,-193.883,-234.338,-239.904,-225.96,-250.978,-247.151,-254.044
-205.812,-197.867,-225.776,-235.413,-224.326,-246.298,-247.318,-241.236
-206.688,-205.803,-225.45,-223.797,-225.071,-234.387,-245.939,-215.393
-225.376,-222.862,-242.624,-229.029,-236.27,-239.108,-246.453,-213.981
-256.007,-247.703,-264.942,-253.73,-253.439,-263.374,-251.891,-248.164
-281.132,-270.727,-278.571,-273.814,-268.391,-283.281,-265.59,-285.065
-299.305,-290.491,-290.935,-283.088,-283.998,-292.42,-286.324,-302.421
-321.686,-311.822,-310.615,-295.566,-302.841,-304.663,-302.018,-309.678
-341.857,-328.551,-323.659,-308.552,-314.263,-317.297,-304.928,-311.99
-338.813,-328.081,-316.127,-304.2,-308.796,-312.327,-299.019,-298.018
-320.653,-317.672,-304.14,-288.838,-299.256,-296.137,-292.387,-280.313
-324.57,-322.952,-312.05,-291.67,-307.284,-298.496,-296.435,-291.751
-352.008,-345.131,-329.945,-312.161,-325.911,-319.151,-310.669,-318.659
-362.011,-354.524,-328.813,-319.623,-327.439,-326.908,-316.204,-321.138
-344.848,-341.61,-309.631,-308.877,-309.835,-316.185,-305.981,-305.909
-331.977,-328.067,-297.643,-295.517,-294.216,-302.715,-288.369,-284.441
-336.991,-327.3,-301.98,-284.175,-289.856,-291.359,-270.458,-251.405
-347.035,-336.109,-314.84,-288.053,-298.089,-295.486,-273.278,-258.528
-350.674,-344.775,-327.53,-315.686,-317.424,-323.474,-308.677,-337.736
-345.547,-341.451,-332.08,-337.781,-332.471,-345.616,-340.258,-399.202
-339.851,-331.506,-329.458,-332.845,-333.121,-340.369,-336.412,-377.266
-344.049,-332.72,-327.158,-318.353,-327.605,-325.473,-316.415,-328.742
-352.415,-341.733,-321.505,-307.034,-320.829,-313.839,-303.968,-304.76
-350.154,-341.141,-308.528,-294.055,-310.846,-300.748,-296.875,-292.358
-340.836,-335.526,-304.343,-288.326,-306.894,-295.308,-294.55,-287.152
-340.656,-341.28,-319.573,-302.681,-318.035,-310.302,-304.796,-302.323
-347.638,-351.269,-333.423,-320.989,-330.764,-328.934,-319.59,-321.168
-347.716,-348.066,-328.521,-319.794,-329.043,-327.308,-321.711,-315.162
-342.283,-337.659,-319.358,-306.274,-320.713,-313.277,-312.284,-290.543
-342.837,-338.15,-321.01,-302.917,-319.834,-310.12,-307.98,-282.036
-348.545,-348.164,-325.534,-313.971,-323.902,-321.684,-317.504,-309.416
-348.673,-351.151,-324.398,-323.529,-325.031,-331.242,-330.534,-338.905
-343.028,-345.19,-325.659,-322.238,-326.822,-329.672,-334.759,-327.906
-347.185,-349.595,-338.663,-327.475,-338.257,-335.13,-338.597,-316.213
-369.372,-374.567,-356.493,-352.03,-355.719,-360.339,-352.817,-357.301
-389.003,-396.414,-360.761,-367.083,-360.422,-375.791,-362.278,-395.938
-380.668,-386.303,-342.502,-344.304,-341.536,-353.136,-348.711,-363.008
-353.333,-354.305,-314.584,-306.485,-313.558,-315.713,-321.276,-297.284
-337.569,-334.845,-299.972,-291.177,-299.621,-301.008,-301.528,-264.623
-339.454,-337.815,-305.181,-297.404,-303.065,-307.509,-296.239,-264.011
-337.332,-342.358,-313.804,-304.048,-309.047,-314.173,-301.859,-280.078
-326.238,-335.185,-315.268,-311.625,-312.176,-321.991,-319.751,-326.663
-327.129,-328.882,-316.886,-326.106,-317.656,-336.824,-339.777,-378.138
-347.763,-339.4,-321.979,-333.996,-322.874,-344.698,-338.982,-375.942
-373.046,-363.87,-327.937,-330.997,-326.66,-341.345,-324.789,-334.099
-385.187,-382.669,-335.735,-331.197,-333.824,-341.359,-325.233,-314.811
-376.512,-381.872,-342.231,-336.603,-340.946,-347.036,-335.74,-325.984
-355.015,-366.552,-339.547,-336.986,-342.064,-347.959,-335.572,-333.256
-332.416,-344.073,-324.481,-325.652,-335.021,-337.099,-325.39,-321.454
-317.998,-323.29,-308.914,-307.911,-322.83,-319.642,-312.093,-296.133
-322.44,-324.141,-312.413,-303.795,-320.293,-315.599,-302.788,-272.608
-341.908,-348.981,-334.051,-323.502,-336.761,-335.147,-315.898,-281.022
-361.622,-374.175,-356.745,-352.264,-360.591,-363.754,-350.037,-329.434
-378.043,-386.372,-371.562,-373.217,-377.385,-384.779,-372.453,-376.532
-387.149,-387.131,-372.164,-377.852,-380.612,-389.441,-367.521,-384.634
-376.835,-375.232,-353.653,-359.489,-366.52,-370.791,-347.388,-352.993
-351.529,-356.794,-329.64,-329.053,-343.457,-340.006,-323.578,-304.984
-332.851,-347.939,-321.174,-315.62,-329.985,-326.39,-305.448,-278.374
-332.663,-354.918,-330.201,-326.263,-332.092,-336.76,-305.09,-283.828
-350.093,-373.881,-348.464,-349.466,-347.323,-359.398,-334.242,-316.574
-381.13,-400.163,-375.891,-389.884,-379.634,-399.305,-388.536,-396.965
-407.97,-417.794,-401.999,-431.666,-416.51,-440.982,-429.671,-484.835
-397.673,-397.957,-395.045,-420.308,-416.92,-429.682,-415.218,-479.288
-338.809,-332.473,-343.876,-344.846,-363.262,-354.108,-353.643,-384.753
-276.119,-269.732,-292.706,-276.339,-306.154,-285.389,-306.527,-313.321
-267.903,-272.884,-290.008,-278.241,-303.036,-287.044,-312.378,-314.89
-297.362,-318.952,-310.71,-313.927,-325.773,-322.303,-326.093,-322.716
-287.46,-316.651,-288.386,-297.524,-301.387,-305.299,-287.129,-270.762
-213.795,-241.845,-214.425,-219.484,-224.513,-226.69,-210.884,-190.664
-146.681,-171.871,-155.06,-158.543,-166.282,-165.338,-160.713,-160.786
-156.207,-172.896,-165.827,-169.77,-179.08,-176.24,-170.39,-201.507
-209.485,-213.595,-214.669,-213.297,-227.788,-219.387,-215.023,-251.926
-230.411,-233.809,-237.678,-230.903,-250.776,-236.56,-248.762,-256.984
-215.931,-236.3,-236.209,-232.387,-249.976,-237.673,-259.058,-238.858
-205.289,-239.146,-241.618,-241.232,-254.858,-246.26,-261.66,-237.262
-202.571,-224.238,-243.678,-238.188,-255.786,-242.97,-258.765,-243.249
-196.425,-194.909,-226.146,-216.117,-237.361,-220.492,-241.6,-238.606
-204.64,-199.318,-221.541,-216.229,-231.482,-220.072,-236.499,-247.511
-248.472,-253.253,-264.419,-263.111,-273.651,-266.53,-281.025,-295.695
-295.808,-297.77,-315.021,-305.171,-324.445,-308.245,-334.723,-330.728
-290.212,-277.178,-304.221,-280.603,-312.733,-283.217,-317.11,-281.78
-243.846,-225.511,-246.717,-224.378,-254.286,-226.541,-248.496,-206.097
-225.1,-216.107,-223.801,-220.366,-233.391,-222.297,-228.19,-217.944
-250.188,-248.679,-254.163,-261.551,-266.417,-263.266,-270.166,-280.165
-268.389,-263.46,-277.073,-274.237,-289.784,-275.493,-296.152,-278.699
-250.587,-244.274,-264.919,-254.61,-278.839,-255.383,-280.916,-246.147
-227.444,-230.892,-256.651,-256.965,-272.676,-257.523,-271.392,-272.393
-239.266,-248.772,-279.06,-288.461,-293.079,-288.859,-288.405,-322.913
-274.452,-274.05,-305.042,-307.829,-314.494,-307.767,-302.93,-329.648
-273.023,-261.467,-289.548,-283.416,-298.512,-282.717,-279.021,-290.655
-208.383,-200.919,-224.667,-219.455,-236.768,-218.263,-213.729,-221.035
-140.064,-141.231,-159.538,-158.222,-173.304,-156.541,-153.14,-150.383
-137.807,-133.552,-146.794,-144.216,-160.458,-141.704,-145.008,-131.814
-182.359,-164.853,-178.141,-172.277,-191.36,-168.788,-177.164,-171.917
-202.271,-183.659,-204.736,-196.895,-215.056,-192.799,-198.511,-207.919
-174.637,-167.53,-197.283,-188.328,-202.682,-183.993,-184.173,-189.654
-132.496,-131.843,-163.585,-155.62,-167.02,-150.976,-151.004,-139.389
-102.246,-95.721,-125.595,-119.526,-131.326,-114.351,-120.561,-104.611
-78.459,-65.771,-91.604,-86.982,-101.184,-81.249,-92.483,-90.524
-55.174,-46.602,-62.382,-62.979,-75.712,-56.828,-64.291,-75.065
-40.244,-38.55,-47.158,-53.769,-61.787,-47.467,-48.475,-54.631
-31.141,-27.895,-44.962,-49.104,-56.735,-42.896,-47.813,-39.167
-20.21,-11.969,-39.952,-40.697,-49.344,-34.445,-47.261,-33.287
-13.263,-6.298,-27.823,-37.3,-40.327,-30.69,-40.77,-36.85
-11.008,-6.751,-15.954,-35.737,-32.717,-28.933,-32.18,-38.682
-4.404,3.419,-6.888,-22.64,-22.351,-16.089,-18.153,-21.162
5.486,16.236,-0.723,-5.964,-11.685,0.335,0.194,9.809
17.717,21.974,4.192,1.574,-4.982,7.896,11.676,29.022
36.092,32.958,12.929,7.879,3.802,14.068,17.99,31.599
49.056,52.211,22.988,19.066,16.22,24.687,28.225,31.04
47.903,66.283,28.054,27.441,24.863,32.5,35.141,33.799
45.695,68.817,28.796,26.787,27.031,31.736,27.945,34.218
46.944,59.354,21.871,10.803,18.435,15.963,6.156,13.639
40.577,42.897,3.901,-17.6,-4.123,-12.326,-23.904,-29.394
30.043,35.832,-7.669,-29.493,-20.906,-24.409,-40.936,-51.943
28.587,45.437,3.052,-5.913,-10.978,-1.072,-23.039,-22.451
38.074,61.553,23.516,29.725,13.532,34.55,15.578,24.906
55.765,77.383,36.987,48.628,29.619,53.564,36.917,36.658
76.496,87.191,42.778,50.671,35.047,55.835,31.649,18.538
90.938,83.478,50.488,49.036,43.192,54.575,28.02,18.374
102.336,82.157,70.058,55.229,62.694,60.829,44.139,40.464
125.452,109.814,100.77,80.782,91.322,85.966,70.268,59.487
157.048,154.243,131.024,119.03,120.922,124.006,94.157,79.39
170.065,173.134,144.019,137.166,135.619,142.612,106.292,97.289
152.693,155.245,129.454,121.85,123.898,128.17,102.236,91.701
129.907,131.246,103.529,100.71,101.225,107.802,92.108,72.722
128.437,126.853,99.995,100.054,98.277,107.477,93.723,73.336
142.827,137.169,122.698,115.128,118.529,122.602,114.182,100.55
147.096,141.58,132.305,120.896,127.012,128.587,127.642,119.345
129.353,128.629,105.24,100.608,100.099,108.662,99.925,91.425
103.787,104.698,69.36,68.2,61.974,76.477,50.16,34.451
82.608,79.723,52.908,49.214,43.303,57.575,26.596,5.711
63.968,60.276,48.261,48.014,40.822,56.285,31.037,24.625
53.296,53.704,45.374,51.936,41.247,59.881,33.943,53.729
52.165,53.052,42.034,44.661,37.819,52.448,24.3,50.116
40.803,37.617,24.92,17.541,20.204,25.706,3.916,16.919
12.359,9.186,-9.162,-15.551,-11.116,-7.022,-22.884,-12.934
-6.989,-4.269,-33.789,-31.238,-32.618,-23.128,-39.708,-31.591
5.103,12.262,-22.245,-18.563,-21.224,-11.301,-27.712,-38.009
36.277,41.896,16.302,13.695,14.903,20.582,5.796,-10.988
53.636,54.767,40.696,35.356,37.171,42.365,25.554,30.557
38.24,36.87,22.781,19.649,18.173,26.699,7.785,22.605
4.356,3.904,-17.326,-19.27,-22.89,-12.446,-29.476,-35.334
-17.822,-14.535,-38.166,-40.888,-44.769,-34.558,-48.689,-66.955
-19.126,-10.577,-33.177,-34.133,-38.891,-28.614,-41.098,-47.972
-16.491,-5.486,-30.479,-25.491,-33.263,-20.703,-34.269,-34.333
-20.539,-13.031,-40.773,-31.562,-42.662,-27.005,-44.627,-45.69
-19.479,-17.337,-42.236,-36.502,-46.422,-32.045,-49.297,-37.91
-2.827,-1.674,-21.988,-22.634,-27.22,-18.512,-28.391,-0.707
16.769,21.656,1.001,-0.974,-2.495,2.935,-4.067,21.059
22.767,31.455,8.2,8.092,5.03,12.093,-2.556,13.454
18.243,29.155,3.597,4.85,-1.999,8.731,-14.299,1.803
14.405,28.869,-4.633,-1.131,-10.964,2.133,-19.94,-16.144
17.049,34.003,-10.475,-5.07,-14.437,-2.394,-15.956,-42.391
24.293,36.408,-8.585,-5.21,-12.083,-2.549,-9.416,-45.083
24.666,29.562,-6.558,-8.929,-13.732,-5.873,-12.385,-26.057
13.837,21.142,-13.018,-19.661,-23.247,-16.246,-25.615,-23.299
5.92,25.047,-18.28,-20.005,-27.251,-16.416,-29.312,-30.639
7.041,36.842,-14.819,-2.563,-20.627,1.04,-14.559,-18.199
1.872,37.181,-14.044,8.353,-18.475,11.825,-3.375,-5.199
-14.903,23.595,-22.385,-3.007,-27.067,0.332,-12.094,-18.255
-21.222,17.657,-24.63,-15.049,-29.482,-11.649,-22.114,-29.117
0.029,34.106,-5.891,-2.852,-11.197,0.719,-10.762,-5.613
30.292,57.73,20.072,23.106,14.996,26.744,12.876,31.582
41.151,66.179,26.007,33.725,24.154,37.349,23.42,41.655
37.859,63.989,14.714,25.289,15.695,28.921,16.125,20.82
42.755,70.801,13.951,22.271,13.044,26.007,11.84,7.027
58.205,91.26,33.831,41.326,30.582,45.331,29.6,31.029
78.149,116.224,62.036,72.876,60.74,77.059,63.351,77.065
99.432,135.393,84.789,95.071,85.458,99.075,88.636,103.508
115.781,144.952,97.549,99.732,95.139,103.532,93.279,97.381
129.01,152.633,106.187,101.319,98.985,105.317,90.099,88.364
142.702,163.294,115.397,111.178,107.94,115.585,93.479,101.955
148.521,170.037,123.716,121.784,119.869,126.46,103.773,129.427
144.873,170.844,129.081,126.55,127.394,131.375,112.857,149.732
138.573,168.809,122.791,124.721,121.506,129.555,107.023,144.605
127.29,160.488,100.622,112.916,101.029,117.517,85.768,107.999
113.573,145.846,83.806,97.04,85.982,101.485,74.686,66.685
113.487,137.681,93.594,93.476,95.17,98.101,87.75,57.682
133.524,149.282,121.945,108.373,121.69,113.119,108.28,81.947
162.624,176.807,151.223,132.563,149.291,137.127,126.439,113.451
187.658,201.656,173.787,153.962,170.193,158.464,148.498,139
200.496,210.498,183.714,163.982,178.85,168.737,165.301,154.791
197.887,206.78,178.599,162.305,173.684,167.207,160.621,151.414
189.256,205.029,175.022,161.973,171.621,166.748,151.445,139.474
192.415,215.696,194.441,177.755,194.297,182.515,170.618,154.509
211.11,234.876,229.233,208.257,234.166,213.219,213.181,211.078
235.106,253.755,253.286,238.505,262.642,243.574,244.773,276.731
256.007,268.964,258.745,253.659,267.407,258.68,247.745,297.148
263.152,274.749,251.716,244.996,254.735,250.045,228.562,249.032
251.96,268.622,238.104,221.19,236.37,226.467,206.007,178.66
240.573,265.005,230.319,208.786,228.755,214.441,200.603,156.119
240.992,270.384,232.364,215.63,233.611,221.762,208.506,183.385
238.99,267.694,229.243,219.389,231.427,226.053,205.192,206.715
231.721,254.495,219.536,211.537,220.002,218.6,192.681,206.08
240.493,257.01,226.758,215.021,225.359,222.252,203.734,209.07
270.346,286.883,261.598,246.655,259.777,254.009,247.354,239.443
297.681,319.508,301.219,288.772,299.778,296.327,288.285,288.119
305.418,329.095,315.061,309.319,315.041,317.133,295.371,319.453
300.956,319.823,296.917,298.418,301.516,306.538,279.865,305.566
297.952,312.54,271.682,279.171,282.23,287.524,270.188,271.959
302.303,320.594,271.022,281.533,282.963,290.004,274.556,267.617
311.838,340.099,294.897,302.87,303.703,311.664,283.282,287.425
320.227,355.256,316.652,315.493,323.196,324.962,292.554,300.264
325.462,357.472,325.833,312.209,331.433,322.306,304.898,305.102
328.277,351.234,329.945,308.966,333.918,319.399,312.363,306.652
324.59,340.529,327.947,312.473,332.844,323.245,306.944,308.875
315.752,329.616,316.935,315.939,326.41,327.209,297.688,316.961
315.966,329.889,308.611,314.387,319.404,325.99,292.904,310.824
332.042,343.629,316.792,309.887,322.742,321.448,291.011,285.257
346.567,352.783,333.332,307.965,336.019,319.441,295.375,281.668
336.679,340.419,330.278,304.15,336.924,315.773,298.532,299.358
309.305,316.305,302.404,287.749,315.174,299.458,281.585,280.627
296.141,306.851,284.764,271.374,298.409,282.809,260.022,238.702
307.464,320.375,299.389,282.795,308.953,293.999,270.187,256.479
322.232,339.971,323.522,317.764,330.752,329.287,303.405,330.184
324.079,348.194,328.688,334.368,337.403,346.302,313.329,349.963
319.044,343.402,314.427,312.352,322.732,324.096,288.617,278.683
319.234,335.282,301.319,289.262,306.331,300.535,269.654,228.263
324.484,332.451,304.539,302.779,311.51,313.954,283.438,280.64
326.638,334.543,313.383,329.868,329.713,341.174,305.835,353.705
324.295,334.366,308.643,324.884,330.456,335.916,305.286,338.571
324.579,331.45,296.082,293.216,312.653,303.56,289.699,269.321
332.216,336.552,296.208,281.302,306.267,291.209,286.527,248.618
340.619,351.499,310.273,301.759,320.774,311.655,297.938,281.622
344.881,363.891,325.702,323.078,337.579,332.886,306.812,305.695
355.703,369.53,339.122,328.33,346.729,337.787,309.696,309.586
376.465,375.513,349.194,329.589,351.65,338.762,313.044,317.057
388.167,381.741,348.782,333.186,351.285,342.348,313.219,321.62
379.45,379.091,339.872,332.189,344.188,341.427,305.666,312.747
364.683,367.074,334.338,326.197,337.977,335.261,299.414,309.478
360.175,356.863,334.011,321.301,337.918,329.86,301.47,317.948
362.053,352.588,328.651,316.162,336.678,324.328,302.355,312.08
361.385,352.025,317.18,307.501,329.006,315.706,293.133,285.24
364.319,357.727,310.012,299.154,321.464,307.327,280.108,263.937
374.912,363.027,309.099,294.138,318.693,301.859,273.485,260.382
381.132,354.499,309.951,291.946,319.213,299.387,275.421,265.784
373.852,338.603,311.546,292.504,320.865,300.027,279.661,276.269
358.254,333.182,310.378,293.533,318.679,300.838,277.053,283.446
346.392,338.092,306.061,292.489,311.285,299.183,267.638,276.959
343.25,337.484,303.171,290.116,304.73,296.476,260.713,268.118
336.797,323.797,297.314,285.966,300.377,292.452,258.318,270.715
319.413,306.159,287.539,278.149,296.964,284.601,255.64,274.494
308.178,296.074,287.477,268.045,298.399,273.984,253.189,263.859
312.598,292.622,292.936,256.623,298.233,262.108,250.412,243.967
316.521,290.788,282.027,246.4,284.218,251.809,241.735,232.426
310.02,292.142,262.697,243.858,267.022,249.079,228.408,228.616
291.162,287.29,255.038,241.456,259.503,246.146,216.294,213.001
257.241,260.692,246.679,225.651,249.261,229.877,207.078,188.187
225.409,226.924,227.111,205.595,230.879,209.522,200.442,176.215
216.595,215.39,215.998,197.162,220.26,200.715,193.712,172.928
224.32,226.174,221.53,198.907,222.328,202.107,188.193,169.786
228.913,230.958,221.025,198.27,221.993,201.351,190.053,182.233
221.024,210.114,201.532,186.539,209.06,189.718,190.912,199.196
207.644,181.752,180.501,172.108,192.719,175.376,176.72,182.428
201.378,175.737,172.922,168.263,184.561,171.391,155.699,141.631
202.974,188.18,175.668,170.81,183.833,173.721,146.877,129.307
203.489,195.695,185.143,173.593,187.89,176.53,155.325,164.969
196.296,189.117,194.645,177.374,193.355,180.584,169.037,206.794
180.539,170.674,190.933,169.46,188.841,172.933,168.29,195.581
166.989,152.343,180.586,147.563,175.474,150.951,150.632,138.922
185.4,157.943,191.386,144.418,177.028,147.296,140.397,110.246
248.241,192.75,224.68,176.366,201.947,178.702,153.246,138.779
289.701,222.354,236.507,207.897,220.324,209.985,173.409,179.949
236.656,215.968,196.817,201.475,202.947,203.584,172.785,180.16
140.522,184.748,134.351,162.425,156.866,164.75,134.24,121.709
83.849,136.904,79.555,106.312,98.686,108.866,69.368,44.87
44.169,61.605,26.754,35.781,37.279,38.451,14.338,4.226
3.801,-3.202,-8.058,-18.06,1.425,-15.135,-6.662,-4.413
15.231,4.613,9.474,-10.33,19.342,-6.926,7.528,-2.86
82.079,70.777,66.055,47.629,73.991,51.312,55.136,31.038
144.769,132.5,120.959,108.128,128.438,111.754,120.723,102.104
168.363,165.871,158.032,148.51,165.154,152.186,167.269,156.461
165.419,181.126,179.227,167.267,182.616,171.164,177.253,160.691
171.072,189.923,186.511,170.596,187.198,174.466,173.938,150.354
194.085,195.988,182.741,171.869,187.695,175.568,180.936,162.837
202.688,190.621,174.232,171.114,185.551,174.823,187.953,178.651
190.974,179.063,172.127,163.814,183.007,167.442,180.545,171.071
185.102,181.953,181.402,162.216,186.676,165.421,173.025,159.633
179.814,188.687,189.663,168.321,191.53,170.983,178.365,168.513
162.741,178.87,188.546,168.965,189.994,171.223,184.137,184.719
146.287,165.071,182.243,164.329,185.092,166.432,179.464,184.643
131.87,159.913,167.872,159.748,176.385,161.797,170.416,166.501
118.754,156.933,149.067,155.561,163.924,157.405,166.138,150.478
119.978,149.42,142.933,150.766,156.043,152.278,165.042,152.369
131.003,136.94,149.256,142.195,154.138,143.382,159.827,163.753
136.706,132.421,157.829,139.226,158.272,140.125,157.847,175.756
143.455,151.168,174.174,157.404,177.027,158.079,172.275,192.295
160.934,179.634,194.512,180.77,199.279,181.25,186.88,197.495
170.977,184.131,189.55,172.899,188.514,173.174,169.258,166.001
152.635,158.682,152.105,134.94,142.033,135.064,126.868,116.926
124.168,135.515,119.371,108.194,109.059,108.179,103.411,95.151
117.77,136.012,116.708,112.363,114.337,112.013,113.275,104.231
126.682,141.108,123.555,123.394,124.767,122.458,128.524,112.667
121.887,127.994,117.358,119.898,115.869,118.461,129.549,115.539
102.175,106.096,107.276,111.411,103.969,109.871,123.129,131.687
84.366,94.052,100.889,103.328,96.539,101.884,113.615,136.998
70.763,89.352,84.957,79.917,76.89,78.474,93.925,87.425
64.2,86.251,66.077,52.949,54.185,51.515,75.235,31.05
77.767,92.945,74.606,62.929,63.466,61.633,86.579,59.439
105.247,110.879,112.451,107.222,105.761,105.976,124.952,140.331
121.272,127.446,147.299,139.859,144.036,138.392,153.754,168.289
118.112,134.805,152.296,137.826,149.609,136.065,153.956,132.41
114.493,134.273,128.004,114.428,121.901,112.576,133.781,93.772
124.337,127.733,98.547,91.283,84.448,89.398,107.598,78.164
132.005,116.961,84.948,79.378,65.025,77.333,88.101,70.335
118.01,108.645,86.939,77.895,68.851,75.857,80.934,66.692
101.286,114.314,100.29,89.386,84.74,87.662,85.251,88.121
114.553,133.933,122.968,111.977,103.305,110.485,98.639,127.024
143.431,146.394,134.608,122.852,110.468,121.425,109.468,132.614
141.333,134.776,112.8,109.028,93.092,107.893,102.201,89.975
102.129,104.803,73.762,83.982,62.193,83.315,83.272,49.063
74.965,79.541,60.61,67.151,49.253,66.736,79.291,55.214
94.661,84.661,93.324,76.821,74.48,76.682,102.017,100.745
131.218,114.205,142.089,106.33,117.327,106.928,131.798,139.201
142.847,135.183,157.841,122.097,134.339,123.557,145.064,140.2
139.924,141.102,137.274,119.692,118.984,121.54,144.645,129.186
148.665,149.799,123.942,127.764,107.75,129.573,146.619,142.334
157.67,156.687,134.81,146.969,117.492,148.7,151.307,164.175
147.184,144.667,142.928,146.501,126.249,148.165,148.272,159.074
131.753,126.104,138.04,126.419,121.857,128.048,141.039,135.641
139.15,131.711,142.5,126.494,121.444,128.405,145.289,130.068
172.544,166.924,165.873,164.296,139.337,166.688,167.251,156.866
208.114,204.663,191.835,210.412,167.954,212.91,197.934,204.689
221.091,220.004,206.965,230.445,190.108,232.542,222.032,246.491
213.723,216.281,212.538,219.693,195.582,221.273,228.158,249.917
202.28,203.936,207.669,191.891,182.496,193.17,213.193,204.278
183.646,178.374,184.482,161.201,153.548,162.557,182.848,142.964
153.065,144.787,152.488,141.805,123.741,143.473,154.504,117.522
131.509,127.857,139.518,140.796,114.194,142.444,145.951,136.351
134.132,132.41,150.152,147.164,123.335,148.214,153.661,159.346
143.221,134.289,156.219,144.44,126.031,144.98,156.243,154.453
138.878,122.166,142.023,133.637,110.964,134.46,143.927,132.699
122.842,107.949,120.711,124.67,91.865,126.202,129.488,123.29
103.119,96.191,103.53,113.019,78.698,114.817,122.789,122.588
86.629,83.357,92.069,94.781,69.183,96.259,117.167,107.489
80.389,75.865,87.315,82.989,61.454,84.06,106.955,87.623
78.075,75.8,81.885,80.673,51.421,81.489,92.766,80.654
64.595,70.811,67.668,73.547,35.468,74.153,76.419,74.632
45.634,60.843,54.49,62.55,23.141,62.938,65.778,61.783
42.14,61.5,54.564,61.903,23.967,61.966,66.369,57.228
46.512,64.427,55.604,64.174,25.239,63.739,67.984,63.901
30.845,43.207,40.332,50.631,10.343,49.739,56.993,60.038
2.329,7.659,19.56,28.772,-10.586,27.586,37.036,35.801
-7.614,-7.594,12.616,18.553,-17.916,17.136,25.609,17.511
1.416,-1.9,17.267,20.438,-13.228,18.84,30.82,31.146
9.397,3.342,24.081,27.385,-7.297,25.621,42.825,61.038
17.283,11.229,34.763,39.85,0.831,37.917,50.807,74.633
27.603,27.256,44.768,49.916,8.573,47.942,51.278,64.095
19.08,27.596,34.274,42.394,-0.33,40.498,42.117,45.216
-11.487,4.493,6.473,26.224,-22.752,24.41,29.939,38.956
-28.734,-6.712,-3.561,28.426,-29.668,26.685,29.502,51.354
-15.358,11.433,12.4,46.993,-15.029,45.175,40.238,63.475
2.862,29.782,24.099,52.133,-3.741,49.893,46.767,59.821
5.432,27.232,21.528,38.873,-4.338,36.046,46.316,54.898
1.926,18.581,23.152,33.955,-2.214,30.828,49.05,66.31
0.001,16.839,30.321,44.426,4.041,41.415,54.014,82.016
-5.726,15.993,28.705,48.858,3.214,45.891,52.354,81.129
-5.926,21.245,25.239,48.651,2.169,45.292,50.461,70.246
12.842,44.091,35.689,65.322,13.924,61.532,58.468,70.369
31.61,62.452,47.665,83.594,24.93,79.668,64.058,80.258
