EEG 1,EEG 2,EEG 3,EEG 4,EEG 5,EEG 6,EEG 7,EEG 8
-176.558,-177.058,-183.974,-173.734,-167.089,-179.234,-195.165,-190.998
-71.986,-76.95,-77.855,-72.829,-61.292,-80.989,-95.607,-87.928
32.349,24.404,26.979,30.319,43.192,24.546,13.079,15.743
136.31,128.846,124.761,135.936,140.551,133.872,119.568,120.283
245.502,236.981,229.981,242.857,245.125,240.924,222.847,227.754
356.191,344.749,345.792,349.006,360.171,346.117,335.39,335.963
457.644,446.443,453.449,450.76,467.07,449.107,453.507,439.536
555.565,549.666,550.485,552.587,563.304,552.919,560.662,541.783
665.447,664.87,657.053,663.238,669.192,664.162,660.019,652.13
782.698,781.94,780.557,777.837,792.366,778.084,768.484,768.81
886.017,881.602,898.624,879.242,910.3,878.976,881.332,874.099
966.48,960.445,983.055,957.302,994.504,957.277,970.803,953.209
1036.589,1032.295,1036.823,1021.467,1047.728,1021.631,1027.826,1017.351
1117.811,1116.504,1098.975,1097.36,1109.075,1097.202,1088.303,1096.692
1217.094,1217.744,1196.99,1198.741,1206.492,1198.548,1185.234,1200.024
1313.693,1314.014,1305.009,1302.697,1314.299,1303.018,1292.885,1298.563
1383.74,1382.341,1378.788,1375.835,1387.849,1375.208,1367.528,1364.829
1432.176,1430.987,1420.406,1420.656,1428.91,1416.222,1415.489,1409.806
1488.419,1490.566,1474.632,1473.255,1482.295,1464.915,1476.469,1467.731
1569.1,1573.206,1562.916,1553.844,1569.648,1544.86,1562.391,1551.526
1652.397,1654.566,1653.966,1639.518,1659.815,1632.252,1644.965,1636.944
1710.812,1711.958,1715.366,1702.045,1720.355,1695.838,1703.476,1699.415
1757.875,1761.53,1763.234,1752.363,1767.464,1745.45,1757.646,1750.752
1825.29,1830.26,1831.799,1819.712,1835.631,1811.456,1833.626,1818.454
1912.42,1914.022,1920.591,1905.412,1924.278,1896.608,1923.582,1904.048
1990.736,1988.322,2000.182,1983.806,2003.444,1975.263,1999.887,1983.435
2040.286,2038.612,2050.658,2035.495,2053.152,2027.023,2047.802,2036.901
2069.989,2071.503,2079.847,2066.884,2081.725,2057.629,2076.707,2068.061
2108.35,2109.645,2114.144,2103.127,2115.667,2092.252,2112.274,2100.626
2168.924,2167.019,2169.235,2158.881,2170.234,2146.489,2169.48,2152.793
2232.866,2229.123,2229.632,2219.25,2229.761,2206.844,2230.895,2212.816
2276.071,2273.146,2271.314,2262.335,2270.62,2251.255,2270.3,2256.26
2301.293,2300.091,2297.467,2290.36,2296.459,2279.975,2293.051,2283.783
2333.427,2332.175,2332.637,2324.097,2331.877,2312.844,2329.428,2319.398
2386.616,2382.47,2386.589,2373.735,2386.185,2361.296,2387.957,2373.571
2443.511,2436.213,2439.551,2423.786,2439.019,2411.311,2439.757,2425.567
2477.591,2469.165,2471.02,2451.441,2469.878,2439.695,2460.828,2450.075
2491.124,2483.653,2492.857,2461.176,2491.158,2449.31,2466.374,2455.013
2509.49,2506.253,2524.153,2483.44,2522.094,2471.552,2486.885,2473.867
2543.276,2546.508,2551.009,2528.589,2548.52,2517.751,2529.054,2518.307
2577.844,2585.041,2558.903,2569.564,2555.955,2557.284,2571.503,2562.315
2596.385,2604.522,2563.813,2583.875,2560.638,2567.586,2591.561,2579.518
2602.204,2609.833,2574.21,2583.045,2570.957,2566.013,2593.141,2577.39
2616.757,2619.301,2586.915,2593.087,2583.391,2578.987,2601.865,2585.535
2651.364,2645.252,2618.047,2624.261,2613.986,2611.572,2630.348,2617.031
2686.657,2678.163,2667.677,2660.451,2663.089,2646.226,2664.17,2653.933
2699.78,2698.275,2696.599,2681.594,2691.652,2666.789,2687.272,2675.829
2700.929,2706.606,2692.014,2692.944,2686.626,2681.132,2702.696,2686.959
2714.979,2722.277,2692.909,2712.103,2686.832,2701.983,2721.954,2703.762
2743.763,2749.545,2723.288,2738.185,2716.65,2723.657,2746.279,2728.409
2768.245,2771.613,2759.84,2756.132,2752.974,2737.248,2763.622,2746.746
2773.982,2775.572,2772.081,2760.3,2764.783,2742.866,2765.477,2750.604
2765.202,2767.075,2759.13,2758.615,2751.016,2742.184,2761.444,2750.067
2758.212,2761.726,2749.959,2760.415,2741.341,2741.026,2764.498,2755.592
2763.793,2769.771,2765.19,2768.775,2756.67,2749.922,2772.959,2763.952
2777.762,2785.589,2781.967,2779.626,2773.616,2766.453,2779.535,2769.511
2786.905,2791.58,2774.917,2783.961,2766.453,2772.062,2781.252,2770.66
2783.998,2781.124,2762.486,2777.92,2753.735,2760.635,2778.153,2766.581
2777.39,2771.168,2767.737,2770.955,2758.589,2750.982,2776.526,2762.633
2779.479,2778.019,2783,2774.033,2773.416,2756.782,2784.245,2767.797
2788.827,2792.973,2794.693,2783.779,2784.999,2768.706,2796.99,2779.486
2794.726,2798.226,2800.2,2788.998,2790.818,2774.193,2802.496,2785.521
2793.632,2794.156,2801.496,2788.282,2792.138,2773.872,2798.949,2782.537
2791.102,2794.263,2802.578,2790.787,2792.425,2775.724,2797.821,2780.632
2790.126,2799.293,2801.153,2797.645,2789.947,2779.857,2803.742,2785.107
2785.608,2795.643,2790.912,2796.629,2779.191,2776.888,2803.593,2784.874
2775.027,2780.438,2782.394,2783.703,2770.686,2765.61,2788.33,2771.807
2764.5,2766.393,2786.066,2769.306,2774.355,2755.406,2768.515,2754.748
2757.213,2760.354,2780.114,2757.87,2768.074,2746.666,2756.404,2742.52
2746.624,2754.253,2744.894,2743.471,2732.422,2729.795,2749.089,2731.92
2727.443,2737.939,2706.497,2724.679,2693.766,2705.007,2737.125,2717.931
2706.562,2714.803,2695.665,2707.551,2682.882,2684.309,2721.359,2703.681
2693.429,2697.814,2700.409,2695.891,2688.022,2673.966,2708.902,2693.516
2685.376,2690.061,2696.73,2686.425,2685.199,2667.981,2697.432,2683.201
2674.673,2682.936,2683.581,2674.236,2672.429,2659.085,2681.232,2667.82
2661.059,2670.483,2669.946,2659.277,2658.294,2647.67,2664.046,2651.145
2647.502,2653.834,2653.729,2644.416,2641.833,2636.066,2650.948,2637.634
2632.718,2635.558,2626.133,2630.074,2614.98,2621.925,2638.685,2624.638
2616.628,2616.171,2597.159,2615.954,2586.93,2605.283,2622.176,2608.828
2603.416,2598.779,2587.936,2603.976,2577.97,2592.355,2601.647,2591.531
2590.909,2587.98,2590.156,2593.511,2580.041,2583.208,2582.019,2575.24
2572.783,2579.42,2577.794,2580.372,2567.702,2569.053,2568.942,2561.987
2553.07,2564.599,2553.589,2564.747,2543.649,2549.666,2561.695,2551.945
2538.588,2543.895,2538.979,2550.902,2529.024,2534.378,2552.847,2541.41
2524.609,2523.4,2533.425,2538.084,2523.518,2521.647,2538.48,2527.842
2504.87,2506.721,2520.264,2522.929,2510.757,2503.728,2521.832,2513.034
2483.309,2494.96,2498.032,2507.838,2488.95,2485.983,2506.002,2498.059
2464.276,2484.455,2476.962,2493.023,2468,2472.378,2487.504,2478.84
2442.66,2463.871,2457.372,2469.51,2448.401,2451.257,2460.278,2450.239
2415.26,2429.486,2433.237,2436.57,2424.146,2420.361,2428.761,2417.605
2392.434,2398.443,2406.361,2410.682,2396.755,2398.08,2407.908,2395.925
2382.109,2385.933,2384.632,2401.641,2374.351,2393.331,2403.297,2389.913
2372.626,2379.907,2370.551,2394.495,2360.023,2388.048,2399.179,2383.914
2350.425,2359.442,2357.531,2370.091,2347.092,2362.868,2376.855,2361.212
2325.043,2330.317,2342.637,2337.841,2332.108,2330.163,2345.401,2330.995
2311,2312.739,2329.257,2319.248,2318.662,2313.25,2326.553,2312.931
2294.188,2296.415,2307.515,2301.64,2297.267,2296.912,2309.945,2296.996
2255.93,2258.507,2263.799,2261.526,2253.822,2254.701,2274.289,2263.19
2209.252,2212.227,2211.716,2214.272,2201.651,2204.922,2230.845,2221.904
2173.505,2181.852,2175.687,2184.349,2165.931,2176.809,2197.333,2190.064
2148.51,2162.959,2156.55,2166.077,2147.645,2162.667,2170.918,2164.659
2126.444,2138.635,2138.73,2143.452,2130.234,2141.269,2144.869,2138.63
2099.01,2102.786,2112.767,2111.663,2104.014,2108.783,2116.335,2109.591
2062.759,2061.921,2079.629,2074.178,2070.769,2072.469,2084.058,2076.32
2025.511,2026.3,2042.623,2035.665,2034.002,2034.454,2049.959,2040.522
1993.668,1999.417,2003.825,1999.659,1995.146,1995.207,2017.481,2007.041
1965.296,1977.706,1970.458,1970.457,1961.228,1964.032,1990.277,1980.606
1938.932,1956.125,1948.624,1948.546,1939.038,1946.148,1967.163,1959.623
1908.834,1928.166,1925.453,1923.969,1916.331,1927.952,1939.588,1934.488
1863.169,1886.316,1880.277,1883.848,1872.102,1890.832,1900.119,1895.902
1805.185,1832.561,1818.806,1829.12,1811.439,1835.185,1850.021,1844.902
1756.46,1783.391,1771.719,1778.71,1765.175,1783.275,1801.777,1796.29
1728.067,1751.18,1752.813,1748.853,1747.473,1753.683,1770.233,1764.693
1709.191,1728.394,1742.203,1732.266,1738.003,1738.227,1754.94,1746.018
1685.017,1700.304,1714.845,1708.616,1711.162,1713.665,1739.751,1723.876
1648.656,1662.258,1670.066,1669.479,1666.722,1671.591,1708.273,1688.799
1606.309,1622.67,1630.457,1625.915,1627.956,1627.147,1660.096,1646.46
1576.73,1594.655,1609.855,1594.746,1608.416,1597.936,1616.729,1612.4
1565.062,1578.443,1589.984,1577.545,1589.163,1581.98,1593.787,1592.766
1544.237,1554.84,1547.716,1555.91,1547.138,1559.877,1572.341,1571.554
1492.258,1507.601,1492.5,1515.077,1492.275,1518.3,1529.456,1531.432
1431.258,1448.587,1449.63,1466.347,1449.794,1469.377,1478.356,1481.435
1391.446,1403.14,1420.71,1428.225,1421.003,1431.783,1440.736,1440.307
1363.947,1373.312,1388.705,1396.586,1389.266,1400.199,1409.22,1405.421
1327.013,1340.18,1351.231,1359.176,1352.602,1361.653,1372.087,1367.571
1286.962,1299.438,1321.902,1320.864,1324.146,1323.013,1338.418,1332.998
1262.52,1267.913,1302.786,1292.743,1305.568,1296.625,1317.028,1309.239
1251.32,1253.688,1281.556,1274.375,1284.91,1280.121,1302.858,1293.406
1237.719,1244.922,1258.688,1258.937,1262.744,1265.242,1290.051,1280.791
1216.776,1229.337,1246.275,1242.08,1250.699,1249.141,1276.694,1266.783
1189.236,1201.944,1233.831,1218.329,1238.339,1227.603,1256.212,1241.959
1155.412,1164.942,1198.133,1185.247,1202.947,1196.247,1222.974,1204.176
1123.609,1132.157,1148.547,1153.635,1153.903,1163.566,1186.446,1169.543
1100.199,1110.219,1112.384,1131.857,1118.328,1139.764,1154.984,1148.293
1078.321,1085.566,1090.229,1110.245,1096.958,1119.261,1118.678,1126.239
1051.746,1051.929,1068.765,1081.363,1076.35,1094.139,1077.014,1092.538
1020.532,1019.74,1042.501,1050.952,1050.521,1064.728,1047.298,1056.879
981.477,988.639,1005.839,1018.365,1013.912,1029.358,1026.774,1024.561
934.388,946.923,960.896,975.258,969.226,985.344,992.582,986.094
888.72,896.771,919.399,922.466,928.426,934.244,939.878,936.673
849.494,851.403,880.199,868.476,889.97,879.846,884.948,884.177
810.383,812.791,833.211,818.49,843.342,829.433,838.913,836.818
767.014,772.85,781.178,772.328,791.399,786.465,796.169,793.54
724.474,730.434,733.455,727.319,743.878,743.936,746.93,749.022
688.098,690.592,692.993,683.329,703.73,699.442,696.577,703.877
652.784,652.225,658.557,642.778,669.419,660.149,656.248,662.097
609.285,609.519,623.778,602.812,634.512,624.187,616.101,619.582
559.392,562.103,580.922,557.199,591.441,580.518,563.274,569.809
512.828,515.344,533.97,508.068,544.301,530.037,512.751,518.772
473.118,474.71,493.081,465.609,503.356,486.841,482.541,479.267
437.691,441.848,460.14,434.229,470.658,456.341,464.806,454.55
408.156,414.85,433.289,407.866,444.27,429.747,446.088,436.638
388.184,393.519,410.057,381.998,421.228,402.663,425.563,417.231
372.479,377.936,382.55,358.898,393.41,379.142,401.506,394.95
352.703,362.962,348.554,338.476,359.003,357.919,367.401,371.189
328.029,341.573,316.775,315.347,327.123,332.903,325.832,343.976
300.792,311.349,292.82,287.809,303.378,305.786,288.058,312.529
275.137,279.136,278.365,263.384,289.159,285.428,263.145,284.755
259.26,258.988,278.528,251.055,289.271,274.523,254.114,270.932
257.116,257.984,287.343,250.706,297.92,268.429,257.267,271.187
258.277,263.123,276.254,250.102,287.196,261.359,259.404,272.447
241.24,248.627,227.691,230.101,239.866,240.812,240.054,255.649
195.608,203.598,165.073,183.024,179.014,195.382,193.095,212.534
134.57,142.235,116.964,123.457,132.569,135.257,139.16,155.613
76.695,83.44,81.59,71.234,98.357,83.732,96.28,103.967
33.103,39.51,49.488,34.432,67.126,51.302,60.123,65.365
7.886,13.627,23.14,8.809,41.683,29.002,23.616,35.381
-9.363,-5.276,1.251,-15.144,20.514,4.343,-10.59,7.525
-35.155,-30.706,-27.221,-42.367,-7.575,-23.641,-37.059,-19.439
-69.609,-64.855,-63.651,-72.621,-43.56,-51.2,-57.104,-46.331
-103.441,-101.997,-94.529,-106.869,-73.804,-81.725,-83.542,-78.761
-138.156,-136.591,-115.79,-145.332,-94.588,-119.383,-124.904,-118.766
-176.794,-167.973,-144.956,-183.682,-123.535,-159.677,-169.44,-159.542
-212.776,-199.394,-193.65,-218.549,-172.128,-197.38,-202.717,-195.201
-243.459,-234.011,-246.704,-252.746,-225.109,-234.591,-228.656,-227.035
-275.941,-273.944,-286.885,-289.664,-265.091,-272.091,-259.775,-258.828
-313.129,-315.859,-313.832,-326.503,-291.738,-306.524,-297.632,-292.26
-349.549,-351.728,-333.403,-359.984,-311.227,-339.301,-335.277,-327.306
-381.712,-380.367,-356.762,-391.571,-334.791,-372.158,-371.141,-362.601
-406.702,-403.509,-392.34,-418.721,-370.761,-398.225,-403.178,-391.961
-422.443,-419.001,-427.06,-436.479,-406.189,-413.714,-424.307,-410.318
-442.609,-435.566,-449.073,-454.06,-429.048,-431.328,-440.663,-428.03
-484.21,-471.448,-478.537,-488.692,-459.077,-466.948,-471.737,-462.887
-537.356,-523.736,-532.811,-537.899,-513.783,-516.148,-520.206,-512.714
-575.298,-564.328,-583.799,-577.578,-565.214,-556.124,-562.761,-554.133
-587.91,-577.654,-597.531,-593.541,-579.098,-573.389,-581.751,-572.926
-590.165,-582.454,-589.93,-598.517,-571.504,-578.595,-587.648,-579.342
-606.919,-605.357,-601.808,-613.921,-583.54,-590.631,-601.772,-594.144
-647.53,-645.075,-638.647,-646.722,-620.318,-617.858,-633.302,-628.066
-693.154,-679.453,-671.892,-685.645,-653.012,-654.75,-675.047,-670.202
-720.251,-700.315,-693.295,-716.399,-673.708,-689.02,-710.913,-700.562
-729.481,-718.477,-721.721,-737.757,-701.668,-714.93,-731.55,-715.678
-738.998,-740.695,-756.694,-757.887,-736.444,-736.934,-746.161,-729.76
-760.977,-764.051,-778.693,-780.431,-758.192,-758.145,-768.958,-752.417
-796.342,-786.664,-789.053,-802.782,-768.173,-776.684,-797.134,-778.802
-835.544,-808.629,-805.285,-823.028,-784.439,-793.453,-819.924,-802.562
-863.996,-833.47,-832.995,-844.423,-812.88,-815.397,-841.091,-826.403
-881.445,-866.662,-866.704,-871.641,-847.475,-847.08,-870.021,-854.162
-898.827,-900.096,-898.224,-899.291,-879.592,-878.601,-899.48,-880.144
-919.037,-920.649,-919.9,-916.233,-901.77,-896.238,-914.247,-895.278
-937.734,-931.298,-930.655,-922.723,-912.959,-901.814,-915.323,-900.81
-953.179,-941.612,-936.552,-929.283,-918.941,-908.463,-919.761,-908.077
-971.991,-959.169,-948.204,-946.046,-930.483,-929.15,-941.846,-927.224
-997.553,-986.495,-970.087,-972.784,-952.412,-961.563,-977.907,-957.077
-1017.574,-1011.255,-992.422,-995.519,-974.724,-984.035,-1009.22,-985.73
-1028.982,-1026.151,-1009.75,-1008.471,-991.66,-990.312,-1026.863,-1006.693
-1050.008,-1043.458,-1031.013,-1025.29,-1012.518,-1002.205,-1042.445,-1026.398
-1082.137,-1066.652,-1059.255,-1052.964,-1040.562,-1029.332,-1065.917,-1050.032
-1102.736,-1085.267,-1083.267,-1079.676,-1064.253,-1055.101,-1091.44,-1073.311
-1108.429,-1100.83,-1094.944,-1096.074,-1075.597,-1069.256,-1109.927,-1090.85
-1121.615,-1122.628,-1103.819,-1108.004,-1084.661,-1081.527,-1121.879,-1104.344
-1150.067,-1147.672,-1126.431,-1123.886,-1107.872,-1099.854,-1134.637,-1119.825
-1176.72,-1166.34,-1159.193,-1142.154,-1140.985,-1118.511,-1151.996,-1138.235
-1191.823,-1179.285,-1180.701,-1158.454,-1162.41,-1133.27,-1171.555,-1155.501
-1205.238,-1194.615,-1188.138,-1175.876,-1169.808,-1150.456,-1192.351,-1172.28
-1224.075,-1214.448,-1199.379,-1197.799,-1181.386,-1172.959,-1215.946,-1192.483
-1242.111,-1233.676,-1217.626,-1219.137,-1200.084,-1192.495,-1238.265,-1213.221
-1255.814,-1246.858,-1230.863,-1234.262,-1213.65,-1205.161,-1252.375,-1228.081
-1270.127,-1256.139,-1237.902,-1245.605,-1221.161,-1219.418,-1259.128,-1237.469
-1284.111,-1269.572,-1246.643,-1257.921,-1230.71,-1239.303,-1266.305,-1247.536
-1293.754,-1289.284,-1261.323,-1272.701,-1246.328,-1258.487,-1280.299,-1262.116
-1303.468,-1310.316,-1283.603,-1289.587,-1269.576,-1274.323,-1300.315,-1279.012
-1317.41,-1326.135,-1309.705,-1305.534,-1296.678,-1287.823,-1317.434,-1292.268
-1335.47,-1334.731,-1329.496,-1317.572,-1317.37,-1297.331,-1325.406,-1299.55
-1356.215,-1346.29,-1341.957,-1329.416,-1330.635,-1305.991,-1333.106,-1307.512
-1376.035,-1371.059,-1358.173,-1348.383,-1347.58,-1323.492,-1354.032,-1325.814
-1396.217,-1400.607,-1380.435,-1374.976,-1370.349,-1352.12,-1385.299,-1355.165
-1420.026,-1420.927,-1397.224,-1399.979,-1387.562,-1379.637,-1410.929,-1383.806
-1441.461,-1432.529,-1406.045,-1416.49,-1397.122,-1395.72,-1425.523,-1401.92
-1450.956,-1440.898,-1417.608,-1428.865,-1409.676,-1406.279,-1439.391,-1415.132
-1452.403,-1448.867,-1433.108,-1442.863,-1426.044,-1420.09,-1457.422,-1431.603
-1463.582,-1462.484,-1444.788,-1456.485,-1438.581,-1433.894,-1471.613,-1447.272
-1484.613,-1478.67,-1450.73,-1463.984,-1445.602,-1439.373,-1476.11,-1454.689
-1492.931,-1486.018,-1452.066,-1464.154,-1447.91,-1437.515,-1472.878,-1453.549
-1485.86,-1488.15,-1455.978,-1462.802,-1452.385,-1437.602,-1466.759,-1449.07
-1482.346,-1492.683,-1470.664,-1463.5,-1467.417,-1441.271,-1463.635,-1446.184
-1486.686,-1493.502,-1482.693,-1462.556,-1479.834,-1441.298,-1465.229,-1444.644
-1488.211,-1485.259,-1472.878,-1455.935,-1470.468,-1434.328,-1465.345,-1440.187
-1482.385,-1473.251,-1451.596,-1445.115,-1449.598,-1423.044,-1460.785,-1432.68
-1478.567,-1468.52,-1445.566,-1439.801,-1443.981,-1416.176,-1460.349,-1430.635
-1486.418,-1476.974,-1461.389,-1449.725,-1460.3,-1424.906,-1472.699,-1442.091
-1498.662,-1491.151,-1482.082,-1469.839,-1481.368,-1448.033,-1493.037,-1463.482
-1506.27,-1502.558,-1493.929,-1486.261,-1493.188,-1470.278,-1510.644,-1483.214
-1514.237,-1513.516,-1502.357,-1494.36,-1501.286,-1480.175,-1523.004,-1492.827
-1521.212,-1525.09,-1512.13,-1498.068,-1510.828,-1480.811,-1532.696,-1493.392
-1519.39,-1528.188,-1510.832,-1498.201,-1509.593,-1480.109,-1535.265,-1493.681
-1518.801,-1518.732,-1494.964,-1493.891,-1493.795,-1479.442,-1524.912,-1497.639
-1528.319,-1509.035,-1485.512,-1489.463,-1484.177,-1477.684,-1509.321,-1498.636
-1537.032,-1512.802,-1494.769,-1490.606,-1493.261,-1478.333,-1503.425,-1495.456
-1540.76,-1525.789,-1508.341,-1496.487,-1506.858,-1484.283,-1508.77,-1496.039
-1543.589,-1531.767,-1511.146,-1499.913,-1509.723,-1489.681,-1513.587,-1499.093
-1538.575,-1525.234,-1506.621,-1496.195,-1504.988,-1486.599,-1512.905,-1496.703
-1524.874,-1517.96,-1504.352,-1489.882,-1502.183,-1478.706,-1511.758,-1491.011
-1519.13,-1522.293,-1503.948,-1490.305,-1501.292,-1478.708,-1513.93,-1491.166
-1530.167,-1535.007,-1504.845,-1500.787,-1501.948,-1491.447,-1521.256,-1501.615
-1547.676,-1544.595,-1518.024,-1515.136,-1514.823,-1507.74,-1533.393,-1517.075
-1557.039,-1548.496,-1541.484,-1524.728,-1537.823,-1515.79,-1543.462,-1526.043
-1549.943,-1549.709,-1547.975,-1525.101,-1543.989,-1512.143,-1543.661,-1522.899
-1531.063,-1546.181,-1526.013,-1518.284,-1521.917,-1502.99,-1534.655,-1514.498
-1514.206,-1535.349,-1499.184,-1510.219,-1495.013,-1496.23,-1524.076,-1509.342
-1505.855,-1522.079,-1491.276,-1503.963,-1486.975,-1492.394,-1517.573,-1505.817
-1505.759,-1518.183,-1501.22,-1501.452,-1496.815,-1491.358,-1516.962,-1500.723
-1514.772,-1528.558,-1515.203,-1505.421,-1510.913,-1496.41,-1522.416,-1499.348
-1525.564,-1538.887,-1525.672,-1509.738,-1521.722,-1500.775,-1527.868,-1502.849
-1524.645,-1535.159,-1529.067,-1505.005,-1525.106,-1494.081,-1524.768,-1501.657
-1511.806,-1524.466,-1520.747,-1495.027,-1515.992,-1481.684,-1515.082,-1492.28
-1500.265,-1518.55,-1505.271,-1489.676,-1499.688,-1475.76,-1508.615,-1483.407
-1498.701,-1517.741,-1496.328,-1491.42,-1490.684,-1479.346,-1510.494,-1483.309
-1503.665,-1517.463,-1499.217,-1496.369,-1493.769,-1486.597,-1516.544,-1490.127
-1507.148,-1514.094,-1504.018,-1497.899,-1498.408,-1488.966,-1517.404,-1493.494
-1503.088,-1504.554,-1496.891,-1489.738,-1491.064,-1481.233,-1508.013,-1485.665
-1491.427,-1488.605,-1475.255,-1472.536,-1469.297,-1464.792,-1493.245,-1470.483
-1479.58,-1474.472,-1453.202,-1456.868,-1446.627,-1448.562,-1482.743,-1458.76
-1470.12,-1472.167,-1446.114,-1451.149,-1438.111,-1441.295,-1479.524,-1454.507
-1456.653,-1474.899,-1453.72,-1447.841,-1444.125,-1437.197,-1475.362,-1449.936
-1442.123,-1466.451,-1462.803,-1435.985,-1452.371,-1424.88,-1461.672,-1437.551
-1437.681,-1449.367,-1459.117,-1421.015,-1448.666,-1409.99,-1442.234,-1421.688
-1437.64,-1436.859,-1442.316,-1412.909,-1432.062,-1403.774,-1427.736,-1411.43
-1430.187,-1428.73,-1426.847,-1408.532,-1416.822,-1401.157,-1422.404,-1407.675
-1424.346,-1423.685,-1421.54,-1404.587,-1411.904,-1396.244,-1424.918,-1407.405
-1429.691,-1430.043,-1424.572,-1407.534,-1415.164,-1398.476,-1433.596,-1411.892
-1436.12,-1444.297,-1432.79,-1415.216,-1423.053,-1409.784,-1441.725,-1418
-1432.44,-1445.128,-1437.226,-1411.511,-1426.787,-1410.593,-1439.912,-1415.349
-1417.601,-1422.777,-1426.746,-1391.252,-1415.823,-1390.187,-1428.191,-1401.986
-1400.164,-1395.655,-1406.415,-1371.205,-1395.712,-1367.421,-1415.911,-1389.114
-1393.292,-1386.507,-1391.97,-1366.836,-1382.037,-1362.53,-1410.82,-1386.292
-1394.118,-1392.122,-1386.78,-1370.414,-1377.659,-1366.694,-1410.492,-1388.812
-1386.511,-1390.698,-1383.536,-1364.144,-1375.077,-1359.479,-1404.956,-1384.693
-1373.872,-1378.177,-1378.155,-1348.191,-1370.153,-1343.11,-1390.89,-1372.497
-1372.648,-1370.2,-1367.553,-1336.273,-1359.836,-1333.361,-1372.776,-1359.801
-1375.62,-1368.565,-1351.638,-1330.716,-1344.346,-1329.439,-1354.555,-1349.12
-1365.247,-1362.84,-1340.725,-1324.901,-1334.086,-1320.37,-1346.224,-1340.992
-1347.349,-1353.199,-1340.589,-1317.871,-1334.595,-1305.843,-1354.927,-1337.209
-1338.191,-1345.653,-1341.206,-1312.627,-1335.744,-1295.733,-1364.983,-1334.193
-1343.487,-1344.758,-1338.99,-1314.352,-1333.95,-1300.714,-1363.708,-1331.768
-1358.959,-1352.666,-1343.01,-1326.229,-1338.242,-1319.018,-1363.55,-1336.838
-1367.927,-1359.953,-1346.095,-1337.792,-1341.526,-1331.484,-1368.372,-1343.652
-1354.693,-1351.627,-1334.456,-1333.949,-1330.26,-1324.168,-1362.583,-1338.398
-1331.402,-1328.244,-1323.843,-1317.719,-1320.33,-1308.096,-1345.065,-1326.071
-1320.855,-1308.15,-1331.441,-1304.722,-1328.842,-1299.587,-1331.764,-1319.278
-1319.971,-1305.496,-1337.18,-1298.97,-1335.644,-1295.422,-1327.836,-1314.124
-1313.038,-1311.302,-1320.201,-1292.651,-1319.809,-1286.416,-1323.887,-1304.041
-1301.048,-1308.471,-1294.044,-1282.828,-1294.708,-1275.195,-1313.396,-1293.344
-1292.286,-1298.223,-1278.933,-1272.699,-1280.469,-1265.691,-1298.78,-1283.601
-1285.362,-1289.286,-1273.041,-1262.133,-1275.312,-1254.699,-1284.55,-1269.662
-1274.984,-1277.473,-1263.544,-1248.544,-1266.41,-1240.586,-1273.703,-1253.524
-1262.073,-1260.095,-1250.52,-1234.529,-1253.841,-1227.797,-1266.62,-1243.821
-1251.401,-1246.993,-1245.058,-1224.134,-1248.875,-1218.292,-1258.548,-1239.335
-1239.057,-1236.942,-1242.086,-1213.075,-1246.638,-1206.124,-1244.356,-1228.992
-1217.401,-1215.818,-1222.132,-1195.425,-1227.506,-1188.018,-1226.916,-1209.893
-1197.008,-1189.726,-1191.238,-1176.86,-1197.127,-1172.131,-1213.142,-1191.238
-1193.426,-1181.437,-1180.859,-1168.299,-1186.886,-1168.43,-1204.445,-1180.631
-1194.87,-1188.757,-1191.13,-1166.579,-1197.296,-1171.201,-1196.18,-1174.744
-1175.84,-1179.44,-1177.95,-1151.986,-1184.55,-1157.877,-1179.976,-1161.139
-1136.071,-1139.851,-1125.865,-1117.104,-1133.166,-1120.726,-1152.302,-1134.107
-1103.416,-1100.284,-1086.17,-1085.192,-1094.326,-1086.951,-1125.777,-1109.023
-1097.53,-1090.575,-1096.049,-1077.451,-1105.081,-1080.11,-1114.616,-1102.316
-1109.443,-1102.468,-1119.987,-1084.313,-1129.792,-1088.027,-1114.172,-1106.079
-1120.184,-1112.426,-1119.748,-1088.042,-1130.236,-1091.331,-1113.387,-1104.442
-1119.095,-1109.702,-1106.844,-1084.305,-1117.871,-1086.677,-1110.738,-1096.227
-1103.088,-1093.041,-1093.785,-1072.027,-1104.975,-1072.564,-1104.037,-1084.52
-1072.569,-1062.82,-1068.043,-1047.953,-1079.159,-1046.232,-1084.816,-1064.769
-1037.388,-1028.561,-1032.314,-1018.242,-1043.712,-1016.7,-1055.782,-1037.878
-1016.077,-1007.955,-1011.566,-998.394,-1023.669,-999.097,-1035.143,-1017.497
-1011.367,-1003.371,-1010.151,-992.906,-1022.852,-993.502,-1031.027,-1010.559
-1006.327,-999,-1007.588,-989.026,-1020.79,-985.301,-1029.49,-1006.736
-994.611,-987.982,-995.27,-978.438,-1009.393,-971.14,-1017.5,-996.611
-986.485,-978.756,-983.183,-967.998,-998.584,-963.144,-1000.27,-983.943
-983.774,-973.343,-977.761,-961.442,-994.077,-961.643,-986.545,-973.357
-972.724,-960.849,-971.103,-950.58,-987.589,-952.593,-973.551,-961.149
-949.709,-939.8,-953.292,-933.312,-969.607,-934.611,-957.392,-945.02
-928.205,-920.702,-928.531,-917.146,-944.872,-917.453,-941.427,-928.823
-909.35,-901.86,-907.854,-901.378,-924.535,-900.297,-926.598,-913.429
-885.372,-878.907,-892.46,-880.941,-909.589,-878.455,-908.877,-895.397
-865.495,-862.134,-875.298,-860.267,-892.755,-856.299,-887.888,-874.567
-855.944,-850.488,-853.51,-842.349,-871.186,-836.612,-867.056,-854.115
-842.66,-827.025,-834.121,-822.556,-851.971,-817.783,-847.988,-835.701
-819.825,-797.851,-824.795,-804.042,-842.616,-804.312,-832.352,-820.6
-800.799,-787.006,-821.752,-795.36,-839.297,-799.816,-823.184,-810.861
-793.821,-792.048,-816.246,-792.458,-833.561,-797.194,-817.524,-803.809
-790.643,-787.064,-804.756,-782.346,-822.237,-786.12,-806.246,-792.129
-779.549,-763.958,-786.162,-762.564,-804.238,-765.312,-787.412,-774.592
-763.408,-741.802,-765.136,-746.109,-783.744,-747.154,-771.217,-759.859
-756.897,-738.255,-755.614,-743.411,-774.284,-744.333,-766.306,-755.159
-759.005,-746.324,-759.16,-745.577,-777.823,-749.12,-767.085,-755.185
-747.307,-740.849,-753.029,-734.725,-772.043,-739.958,-759.489,-746.95
-715.715,-713.394,-724.726,-709.598,-744.185,-713.453,-738.898,-726.886
-691.656,-688.036,-695.434,-687.478,-715.293,-689.893,-715.558,-705.431
-690.194,-678.388,-683.262,-675.274,-703.701,-678.25,-697.209,-688.995
-686.397,-664.577,-675.022,-660.28,-696.058,-664.431,-679.639,-671.206
-662.645,-639.498,-655.924,-639.183,-677.152,-644.671,-662.019,-650.724
-638.385,-623.902,-635.546,-625.705,-656.548,-633.093,-651.835,-638.5
-629.31,-621.154,-630.547,-622.122,-651.361,-629.899,-648.102,-637.271
-622.083,-611.19,-636.626,-615.11,-657.643,-620.267,-640.453,-635.151
-608.532,-593.431,-635.182,-602.07,-656.462,-604.98,-627.779,-626.62
-600.812,-586.092,-622.304,-592.369,-643.422,-597.507,-616.82,-616.638
-596.164,-584.228,-602.063,-583.357,-622.818,-593.045,-603.945,-603.06
-576.833,-566.95,-572.966,-564.328,-593.54,-575.283,-581.801,-580.092
-545.48,-535.301,-540.713,-538.526,-561.132,-546.918,-556.326,-553.54
-517.35,-505.682,-515.603,-516.739,-535.818,-522.984,-536.561,-532.536
-497.65,-484.616,-502.455,-501.028,-522.718,-507.811,-520.559,-516.687
-482.531,-467.083,-496.226,-485.645,-516.698,-493.676,-501.714,-499.83
-464.973,-447.834,-480.085,-465.109,-500.408,-472.627,-478.74,-478.321
-444.321,-427.79,-450.184,-441.889,-469.957,-448.649,-456.811,-455.554
-429.304,-412.588,-430.099,-425.813,-449.386,-434.015,-441.755,-439.141
-425.503,-408.668,-434.444,-421.874,-453.563,-431.1,-434.854,-432.153
-427.124,-412.315,-443.853,-421.827,-462.897,-428.423,-431.954,-428.727
-424.744,-408.556,-435.463,-413.671,-454.181,-416.981,-425.871,-420.226
-414.931,-392.658,-411.894,-396.654,-430.127,-401.273,-412.934,-405.405
-399.141,-372.871,-389.132,-378.342,-407.121,-388.052,-396.902,-390.452
-381.6,-353.488,-375.501,-362.352,-393.527,-374.138,-383.734,-379.236
-368.132,-338.006,-366.293,-347.623,-384.344,-356.021,-373.636,-368.759
-357.82,-327.758,-352.686,-332.194,-370.758,-338.821,-360.169,-353.938
-343.026,-312.48,-335.088,-314.467,-353.441,-326.257,-337.935,-332.737
-322.777,-289.859,-320.253,-296.713,-338.985,-314.588,-311.532,-308.894
-304.381,-273.342,-309.151,-283.613,-327.853,-301.061,-293.6,-290.923
-291.954,-265.449,-297.923,-275.236,-315.89,-288.489,-289.611,-282.657
-284.094,-256.817,-285.54,-269.226,-302.106,-280.488,-291.449,-279.584
-281.37,-251.866,-279.548,-268.272,-294.443,-278.41,-291.431,-278.997
-285.412,-259.636,-287.722,-273.535,-301.024,-279.787,-290.565,-282.33
-289.775,-268.595,-299.388,-275.84,-311.046,-278.154,-288.631,-285.777
-284.01,-264.011,-296.884,-267.991,-307.005,-271.716,-280.119,-279.912
-269.122,-250.819,-280.908,-254.793,-290.217,-264.438,-263.834,-261.781
-254.226,-236.55,-259.447,-240.928,-268.596,-253.865,-246.311,-239.964
-239.027,-219.242,-233.299,-226.143,-242.383,-236.881,-233.715,-223.823
-220.176,-201.371,-212.248,-213.363,-221.344,-221.877,-225.032,-214.851
-203.717,-188.272,-208.978,-204.246,-218.42,-213.756,-213.743,-208.517
-189.943,-175.194,-208.42,-192.842,-218.34,-203.543,-196.209,-197.966
-170.551,-155.771,-188.711,-175.058,-198.738,-186.132,-176.196,-180.403
-150.986,-135.651,-162.7,-156.611,-172.477,-169.618,-158.918,-161.143
-142.717,-125.041,-153.137,-144.955,-162.764,-160.525,-145.445,-146.119
-139.749,-121.959,-152.651,-138.053,-162.159,-152.805,-134.671,-134.822
-133.352,-117.434,-145.298,-130.482,-154.492,-141.997,-127.636,-126.165
-129.001,-113.209,-136.009,-125.98,-145.093,-137.685,-127.273,-123.965
-127.032,-112.419,-129.422,-126.375,-138.726,-142.593,-130.017,-127.495
-115.281,-104.255,-113.912,-119.198,-123.223,-139.224,-124.155,-125.292
-93.54,-81.417,-92.421,-96.331,-101.408,-117.279,-104.315,-108.638
-76.212,-56.048,-84.498,-68.063,-93.233,-89.773,-79.049,-83.17
-66.742,-41.681,-84.632,-47.008,-93.323,-70.236,-59.873,-62.084
-55.113,-36.02,-71.919,-34.062,-80.736,-56.825,-48.723,-51.111
-38.554,-29.683,-49.129,-23.099,-58.174,-43.016,-38.503,-42.391
-25.294,-20.272,-29.326,-11.619,-38.426,-28.382,-25.828,-28.546
-19.037,-10.394,-12.664,-3.04,-21.556,-16.792,-15.998,-15.268
-12.191,0.81,1.841,2.76,-7.025,-9.301,-10.277,-8.129
2.701,14.406,10.348,11.748,1.017,-1.747,-1.51,-1.47
23.032,29.654,16.258,25.719,6.403,9.339,12.277,9.326
41.098,45.328,25.704,39.097,15.723,21.169,24.919,20.203
52.311,54.79,36.682,45.824,26.766,28.095,32.364,26.592
57.897,55.992,46.886,46.934,36.951,30.342,35.784,29.496
63.668,60.911,59.029,50.667,49.076,35.137,40.737,35.21
72.665,75.002,71.643,61.427,61.693,45.449,53.189,48.952
83.226,88.916,77.418,73.775,67.229,55.063,70.146,65.641
96.094,99.703,77.395,83.287,66.65,62.062,82.477,75.466
111.76,114.294,82.893,93.945,71.528,73.819,89.218,79.602
125.681,132.321,96.552,108.605,84.549,91.231,97.922,87.598
134.122,142.059,110.03,120.884,97.19,103.42,109.817,99.926
139.489,137.674,120.029,124.055,106.352,102.866,117.813,108.161
146.223,131.916,128.507,122.847,114.413,97.335,120.932,111.481
151.36,137.505,133.187,126.656,119.008,100.908,125.921,116.971
151.165,149.437,133.207,136.687,118.959,115.036,136.277,127.496
154.881,160.452,137.412,148.811,123.114,129.701,150.952,141.572
170.606,173.175,153.991,160.973,139.664,140.567,166.987,156.958
190.086,188.17,176.736,172.392,162.159,151.457,179.996,169.883
202.672,197.292,190.111,181.224,175.057,163.205,188.378,178.317
207.195,197.155,190.072,186.61,174.638,172.059,194.406,184.136
209.464,200.199,190.816,191.752,175.15,177.866,200.54,190.267
217.529,216.858,201.171,200.381,185.013,184.352,208.155,198.576
232.184,237.418,212.549,211.53,195.457,193.56,217.797,208.757
247.009,251.363,221.419,223.751,203.403,206.35,230.697,220.854
260.907,261.464,236.634,238.825,218.09,222.829,248.347,237.11
273.169,266.825,257.77,254.309,238.938,237.903,266.014,254.341
276.462,265.117,273.692,263.285,254.711,245.291,275.096,264.033
274.249,267.241,281.563,267.267,262.72,248.83,276.823,266.367
281.789,280.082,287.532,274.701,269.086,257.11,280.906,270.621
300.496,295.624,294.68,286.984,276.668,269.071,291.067,281.505
317.656,310.29,299.596,299.901,281.964,279.193,303.532,295.247
326.998,324.994,300.989,311.042,284.065,287.829,313.645,305.522
330.569,333.016,306.147,317.926,290.732,295.126,318.739,310.018
331.924,331.746,318.344,319.629,304.989,298.117,321.408,312.734
334.835,329.334,328.096,320.196,316.761,298.854,326.34,316.827
339.866,331.95,329.269,323.585,319.718,302.714,332.577,320.827
344.359,337.48,328.873,329.612,320.909,309.298,337.338,325.727
349.473,342.236,333.14,336.137,326.653,314.347,341.899,333.154
360.06,348.813,341.32,343.155,336.331,318.771,348.33,340.097
373.052,360.286,352.026,351.508,348.451,326.165,356.05,345.375
378.406,371.825,361.493,357.761,358.829,333.71,362.754,351.02
379.683,380.13,369.009,360.89,366.59,338.649,368.91,358.039
391.547,389.199,381.941,367.999,379.455,345.959,378.36,367.419
411.557,400.106,398.312,381.824,395.797,358.345,391.723,379.472
423.928,409.266,405.905,394.972,403.499,370.594,404.855,392.291
426.555,415.302,405.364,401.876,403.151,377.66,414.241,402.98
428.775,420.236,408.152,405.702,405.941,381.085,420.299,409.664
434.158,425.659,416.167,411.012,413.801,385.493,425.141,412.815
441.355,428.772,422.983,416.511,420.91,390.383,429.12,414.405
452.391,430.218,430.501,421.558,429.126,394.374,433.764,418.435
467.415,440.062,444.967,431.662,443.773,403.443,443.438,429.353
478.442,459,458.598,447.081,456.906,419.745,457.554,444.441
479.871,470.853,459.888,457.559,457.597,432.455,467.939,454.328
476.699,469.167,454.683,458.224,451.681,434.223,469.547,455.456
476.983,467.769,455.763,456.726,451.845,431.762,467.317,454.055
482.379,475.805,464.16,458.336,459.616,431.877,467.079,454.195
488.646,484.734,471.946,460.853,467.139,435.566,468.993,453.88
493.503,486.238,474.978,464.497,469.7,443.68,474.411,455.822
498.073,485.867,475.169,469.824,469.002,451.855,484.273,463.881
502.798,491.408,475.073,473.683,467.862,453.224,493.123,472.698
509.215,499.504,479.385,477.457,471.343,452.566,498.848,478.915
518.51,503.906,490.827,485.89,482.347,459.397,506.149,487.668
525.325,506.832,502.187,496.304,493.269,471.087,514.798,498.583
525.174,512.434,508.735,502.578,498.994,479.124,520.04,505.007
523.007,517.015,515.758,505.036,505.097,483.159,522.204,506.76
524.879,515.623,523.182,507.602,511.922,487.681,525.303,509.116
531.87,516.144,524.901,513.106,513.29,494.494,531.714,514.977
541.9,529.207,524.371,522.179,512.24,502.818,540.381,523.25
547.97,542.643,528.564,529.103,515.785,507.559,545.521,528.702
543.087,535.309,531.348,525.944,518.311,501.758,541.952,526.019
531.703,516.87,526.033,517.637,512.92,491.835,534.576,518.421
525.449,515.784,522.992,518.496,509.366,493.636,533.866,515.343
526.209,529.259,530.035,528.074,515.833,504.005,540.582,519.294
527.221,530.502,536.599,533.472,522.421,507.859,547.218,525.017
528.202,519.373,535.198,533.787,521.45,508.191,551.051,529.033
531.689,516.102,533.631,535.191,520.4,513.215,551.676,529.369
533.335,519.753,537.18,534.165,524.796,515.179,546.646,524.643
528.117,515.418,536.327,525.384,525.283,505.621,537.804,517.597
517.424,504.305,523.211,512.809,513.478,491.254,530.284,511.431
510.876,501.124,510.347,505.827,501.296,485.072,527.395,508.071
517.887,510.791,514.099,508.626,505.371,489.537,530.254,510.083
532.089,520.573,529.068,514.594,520.924,495.27,535.02,515.231
540.112,520.979,539.639,515.94,532.247,495.937,535.256,516.988
542.403,522.957,544.286,515.783,537.363,496.125,532.529,515.832
545.812,535.507,548.358,520.953,541.468,502.637,534.604,517.938
545.82,542.215,544.794,526.261,537.54,510.443,540.18,520.978
535.154,527.199,526.136,519.246,518.415,504.498,538.552,515.819
522.177,505.649,506.953,502.216,499.132,484.721,527.957,503.885
520.188,501.123,504.941,493.273,497.422,473.146,519.805,497.134
526.789,510.957,512.199,499.806,505.083,480.975,521.365,500.064
534.965,519.183,516.231,511.104,509.758,493.98,528.673,507.628
548.875,526.094,525.626,521.116,520.282,502.626,538.294,517.913
568.963,538.963,545.276,533.488,540.99,513.537,551.307,530.944
580.56,551.122,557.054,544.126,553.18,525.871,562.989,540.552
574.6,551.936,549.826,542.682,546.216,527.207,562.698,539.329
561.306,541.907,538.17,529.557,535.342,513.906,548.831,527.551
552.537,530.462,535.308,518.033,533.483,499.63,534.453,514.763
551.711,528.393,536.972,519.825,535.675,501.213,532.979,512.268
559.753,537.399,540.142,531.131,538.792,516.702,542.147,519.949
569.577,546.202,548.535,537.332,547.033,526.381,548.545,526.709
569.812,546.653,557.033,533.615,555.639,521.213,547.422,527.511
564.987,544.619,556.062,530.669,554.904,515.177,548.133,529.235
569.156,548.128,549.949,537.382,548.891,522.356,558.499,538.39
583.122,559.005,551.279,550.527,550.12,537.981,573.38,551.57
594.863,572.744,559.757,560.947,558.331,548.272,580.916,558.613
594.605,577.958,564.25,561.652,562.548,547.266,576.249,554.088
584.709,568.841,559.854,554.41,558.028,540.394,567.085,544.617
576.075,556.724,550.709,549.037,548.901,536.354,563.938,540.954
575.876,556.057,546.856,552.287,545.259,539.163,568.075,545.613
580.91,563.335,553.738,560.206,552.609,547.062,573.09,552.912
581.7,562.411,559.747,563.088,559.087,553.912,573.515,556.299
573.925,549.903,553.637,556.4,553.01,552.152,567.793,551.936
561.422,537.283,543.609,543.824,542.557,538.972,557.156,540.342
549.445,529.562,540.052,531.011,538.773,521.368,544.896,526.169
542.409,523.476,538.743,521.462,537.825,510.657,535.064,514.207
540.08,518.681,532.762,515.837,532.095,508.819,529.973,506.997
536.931,514.886,525.765,512.136,524.585,508.552,528.295,504.475
530.959,509.396,524.492,508.403,522.487,506.409,526.239,503.486
523.962,501.969,526.425,503.624,523.919,503.066,521.847,500.491
517.925,494.538,523.723,498.209,520.928,498.407,518.521,496.995
517.511,492.733,516.254,497.409,512.904,497.621,521.638,498.767
523.696,502.633,512.298,504.94,508.083,506.198,528.705,505.008
526.229,514.278,512.716,511.754,507.745,515.256,529.434,505.998
518.925,510.5,508.79,506.884,503.449,511.863,521.166,498.787
513.709,499.09,502.734,496.602,497.214,500.557,514.304,493.121
520.204,500.789,506.115,494.224,500.229,495.548,516.362,495.407
527.559,510.072,515.457,497.355,509.086,497.501,520.991,499.405
524.431,507.608,515.349,494.589,508.809,495.859,518.576,497.062
515.385,495.593,503.456,486.276,496.972,488.496,509.93,489.346
507.912,488.968,494.283,481.495,487.57,482.858,503.495,483.244
505.859,492.396,500.446,483.687,493.186,483.402,503.572,483.038
511.047,500.559,516.57,489.456,508.838,488.223,507.135,486.847
515.343,503.85,522.611,492.128,514.535,490.288,508.646,488.961
507.869,495.035,507.485,486.248,498.906,482.657,504.575,485.129
494.813,480.342,485.207,476.294,476.168,471.105,497.44,478.357
492.852,474.684,477.721,473.975,468.736,470.772,495.005,476.92
503.949,483.176,488.041,482.597,479.384,483.788,500.853,483.767
514.582,497.867,502.071,493.338,493.553,495.719,509.588,493.315
518.6,509.823,509.706,499.557,501.224,499.418,516.186,500.829
520.481,514.416,512.529,503.145,504.018,501.766,521.254,506.004
519.097,508.708,513.452,503.27,504.642,502.757,522.943,506.384
512.392,497.254,510.016,496.299,500.78,496.361,518.312,500.117
508.561,494.974,503.367,488.237,493.872,489.349,512.433,493.377
511.783,506.077,501.221,487.377,491.59,490.591,511.391,492.516
513.602,513.249,503.923,489.842,494.075,493.636,512.468,494.356
507.066,503.558,501.892,487.281,491.736,488.856,509.764,491.795
495.426,486.446,494.926,480.163,484.528,479.311,502.496,483.762
487.498,475.949,494.321,474.612,483.736,473.987,494.836,475.651
486.891,472.497,496.951,472.352,486.105,473.385,490.806,471.957
486.749,469.309,488.037,469.599,477.065,470.147,489.708,471.335
481.844,465.245,471.448,464.286,460.663,462.104,488.14,470.102
480.173,465.758,463.687,460.651,452.995,457.119,487.068,468.939
489.55,472.007,467.8,462.553,456.885,460.567,489.544,469.956
500.774,475.734,475.924,466.068,464.895,466.145,492.602,469.755
501.452,471.687,483.305,466.025,472.367,467.095,491.302,465.289
494.143,464.202,484.586,461.838,473.523,463.445,484.93,458.893
486.319,457.324,473.093,453.986,461.786,455.127,475.159,452.47
478.475,450.183,457.481,445.52,446.404,445.354,466.187,446.527
469.591,442.257,456.709,441.837,446.296,442.293,462.845,442.865
463.61,439.077,471.499,443.738,461.47,446.663,465.452,443.996
465.68,447.189,480.481,447.672,470.411,452.235,470.277,449.919
471.483,458.404,468.631,448.402,458.653,453.322,471.166,453.329
468.26,455.727,446.768,440.956,437.11,444.81,463.168,446.49
453.875,439.238,432.016,426.793,422.492,427.863,449.043,433.493
441.659,424.599,424.113,412.832,414.521,411.826,436.453,423.148
439.376,419.653,417.709,404.586,408.278,404.739,429.826,416.443
439.799,419.149,415.638,403.348,406.852,406.584,428.809,411.735
436.213,416.409,416.127,404.429,408.228,409.763,429.83,410.282
432.163,411.333,413.215,401.859,406.095,407.571,428.406,410.495
429.259,406.347,408.653,395.99,402.134,401.275,422.361,407.474
420.641,400.397,403.553,389.823,397.345,394.481,413.555,400.873
408.271,394.722,398.184,385.828,391.957,389.982,408.376,397.39
404.676,394.073,397.788,386.287,391.672,390.271,410.65,400.16
409.287,396.724,397.98,387.977,392.33,391.457,413.387,401.107
409.736,397.489,389.525,386.045,384.298,388.457,408.464,393.461
404.807,396.335,381.313,383.06,376.356,384.35,399.085,382.398
401.434,393.949,386.465,383.194,381.852,382.156,392.456,375.673
396.536,387.063,392.851,383.764,388.487,379.159,388.321,373.006
384.629,374.84,380.701,380.398,376.196,374.391,382.398,368.657
371.599,362.49,361.038,373.896,356.319,369.776,374.208,360.21
361.352,351.911,356.586,365.877,352.141,363.348,365.374,351.143
348.868,340.372,359.563,355.514,355.693,351.854,356.562,345.103
336.587,330.867,350.897,344.906,347.178,340.461,349.645,341.154
334.082,330.067,335.911,339.246,331.845,337.765,347.449,337.641
341.411,337.807,330.421,339.88,326.315,342.33,350.191,336.843
349.055,345.858,335.416,342.07,332.051,345.888,353.645,338.919
349.576,347.518,339.366,339.956,336.982,344.603,351.65,337.686
343.147,343.718,336.696,332.058,334.993,338.42,342.856,330.193
335.938,337.004,335.349,321.938,334.251,327.867,333.326,322.065
331.95,327.515,338.391,313.242,338.05,316.161,327.482,316.915
326.377,316.549,331.711,305.365,331.791,307.131,321.43,310.342
314.674,308.017,310.207,297.333,310.083,301.009,311.978,300.291
302.534,304.067,294.334,291.978,294.077,296.03,303.624,292.305
296.703,301.641,295.73,291.452,295.837,292.964,300.398,289.669
295.941,298.026,299.237,293.154,299.748,292.891,299.97,289.179
297.647,297.257,298.295,293.59,299.088,291.885,299.88,289.034
301.375,301.896,304.608,292.301,305.791,287.253,300.505,290.105
304.261,303.163,313.225,289.586,314.751,282.761,300.207,289.988
303.646,295.524,308.26,286.482,309.918,280.877,297.4,286.872
300.538,289.308,297.177,286.585,298.928,279.733,295.477,284.895
296.56,291.785,295.906,290.591,297.773,278.917,296.962,286.751
293.755,295.061,301.983,293.986,303.955,280.531,298.574,288.314
293.48,292.369,304.661,293.741,306.82,284.065,296.977,285.911
293.069,288.205,300.4,290.687,302.796,285.211,292.518,281.225
287.314,285.086,290.545,283.973,292.98,279.365,285.981,275.466
273.826,276.135,275.778,271.029,278.119,265.216,277.497,266.577
259.766,261.597,261.369,256.232,264.047,249.039,269.275,256.399
255.916,253.81,255.81,248.533,259.296,240.08,264.213,251.113
260.561,257.074,256.665,248.402,260.687,239,261.475,251.258
262.851,262.315,254.318,249.14,258.456,240.092,258.173,251.087
258.171,261.585,247.875,246.724,252.271,239.717,253.036,247.001
249.248,253.53,241.962,239.887,246.706,234.521,246.322,239.98
240.135,241.724,235.786,229.412,240.439,222.669,239.715,232.604
233.397,233.215,226.209,219.72,230.51,209.897,234.852,226.232
229.512,230.61,217.835,214.419,222.282,203.484,231.689,221.179
227.251,227.955,217.865,212.782,223.138,203.378,230.213,218.442
224.442,220.488,222.874,212.521,228.934,205.371,229.942,217.814
219.622,212.202,225.651,212.137,231.905,206.341,228.191,216.431
211.034,207.441,224.049,209.659,230.325,203.563,222.793,211.782
199.512,203.717,215.747,203.271,222.352,196.246,214.636,204.058
193.853,200.173,202.493,196.459,209.52,190.454,207.192,196.579
198.884,201.08,195.013,196.312,202.282,193.43,204.307,194.065
204.985,207.042,199.715,202.919,207.147,200.914,205.764,196.773
203.144,211.76,210.708,208.267,218.361,202.478,206.404,198.254
196.175,207.268,219.871,206.304,227.797,196.573,201.493,192.585
189.693,194.774,221.198,198.464,229.359,188.942,191.444,181.694
184.8,186.149,207.03,190.762,215.305,183.916,181.972,172.882
180.5,185.508,180.128,186.142,188.407,180.592,178.254,170.113
176.518,183.36,160.4,181.165,168.582,174.2,177.733,170.033
172.143,174.621,157.053,172.494,164.911,163.944,173.01,166.457
166.541,164.768,154.185,161.118,161.487,152.896,161.926,157.181
162.518,159.559,140.601,149.813,147.459,142.12,150.021,146.142
163.774,160.647,127.432,141.489,134.29,134.202,143.331,138.743
168.074,166.439,126.499,137.547,133.695,132.673,142.845,137.029
169.35,171.229,132.289,135.607,139.704,133.865,145.155,139.126
163.089,165.909,131.535,130.083,138.766,129.289,144.128,138.919
148.757,147.897,121.621,118.694,128.628,117.491,135.498,130.507
131.094,128.295,112.447,107.239,119.732,106.745,122.551,116.249
115.344,116.546,109.688,100.943,117.656,102.072,111.779,104.158
104.157,108.781,109.072,98.386,117.538,99.467,105.593,98.948
100.006,99.871,107.16,98.04,115.675,96.878,103.116,98.661
100.146,91.683,104.826,99.192,113.29,96.419,102.282,97.307
96.773,87.825,103.966,99.502,112.661,97.328,101.269,92.967
90.111,87.408,102.948,98.681,112.018,98.302,100.986,90.746
87.245,86.961,98.065,98.779,107.356,100.339,103.051,93.463
88.563,88.098,95.117,100.301,104.553,103.123,105.723,96.885
89.481,93.442,104.986,101.253,114.611,104.073,105.218,96.714
88.755,96.27,120.491,98.83,130.259,100.648,99.756,92.872
84.382,87.989,116.013,91.516,125.892,92.629,90.525,86.166
74.046,74.527,85.047,81.294,94.984,82.65,81.084,77.366
64.728,69.598,57.368,73.354,67.263,73.874,75.97,70.012
63.709,72.16,56.514,70.33,66.643,68.003,75.602,67.047
65.145,69.907,67.511,68.052,78.372,64.232,74.277,65.334
61.722,60.947,66.346,60.288,77.952,58.945,66.972,59.913
56.125,53.434,52.884,47.206,64.972,50.181,55.159,51.362
52.913,52.794,38.576,37.075,51.209,42.546,44.41,44.554
51.755,58.31,26.139,35.621,39.5,40.564,37.991,41.848
49.233,63.183,14.993,36.02,29.038,38.786,33.081,39.489
41.206,60.013,7.066,28.651,21.676,29.478,24.587,31.326
27.448,49.385,1.628,15.874,16.753,15.589,12.654,17.176
13.139,34.723,-4.428,5.076,11.147,4.139,2.116,3.681
2.976,16.577,-10.732,-3.397,5.078,-4.354,-5.004,-5.623
-2.562,1.082,-12.06,-9.27,3.718,-9.29,-9.559,-11.825
-5.882,-3.503,-6.317,-8.086,9.43,-7.604,-10.215,-12.968
-7.355,0.448,0.682,-1.138,16.685,-2.611,-5.618,-7.217
-5.733,6.755,5.555,6.113,21.984,2.3,2.317,1.471
-4.339,13.303,13.828,12.697,30.444,10.536,10.044,8.318
-5.614,16.676,24.022,17.546,40.367,18.88,13.587,11.236
-7.132,13.558,20.975,16.831,36.796,17.878,11.245,9.293
-10.094,6.265,3.034,11.308,18.422,10.732,5.792,3.065
-17.889,-2.004,-11.825,4.284,3.392,5.791,-0.56,-5.774
-28.296,-11.211,-18.278,-4.753,-3.06,-1.481,-8.097,-14.88
-34.919,-18.115,-23.645,-13.868,-8.556,-13.187,-14.444,-20.429
-32.241,-17.092,-23.096,-16.665,-8.381,-17.698,-16.28,-20.527
-21.671,-10.974,-11.99,-13.472,2.375,-12.007,-15.242,-18.35
-12.193,-6.546,-2.851,-11.008,11.29,-7.209,-14.559,-17.345
-8.742,-3.409,-6.374,-11.353,7.435,-7.893,-13.408,-16.218
-6.929,-0.515,-15.235,-13.524,-1.785,-10.529,-10.846,-13.308
-3.168,0.016,-17.799,-18.167,-4.446,-13.991,-9.802,-11.524
-0.472,-0.499,-15.582,-24.237,-2.084,-18.472,-12.965,-14.166
-3.106,-2.849,-19.034,-30.643,-5.276,-24.536,-20.538,-20.944
-10.663,-11.461,-31.245,-38.562,-17.24,-33.128,-31.257,-29.67
-18.985,-22.112,-45.244,-45.888,-31.217,-40.888,-40.754,-37.013
-24.689,-25.297,-52.797,-46.321,-38.896,-41.402,-43.311,-39.257
-26.966,-21.357,-49.907,-38.524,-35.832,-34.079,-39.049,-36.508
-29.161,-20.478,-43.634,-31.798,-29.04,-27.876,-35.784,-34.781
-35.738,-28.109,-47.987,-34.801,-33.019,-29.626,-40.128,-40.034
-46.823,-40.018,-61.431,-43.413,-46.369,-34.382,-49.761,-50.964
-60.598,-53.036,-65.338,-49.908,-50.133,-36.925,-57.984,-60.924
-72.606,-64.494,-52.796,-53.45,-37.274,-39.599,-61.093,-64.672
-76.36,-67.813,-40.128,-55.578,-24.277,-43.239,-60.05,-62.759
-74.907,-65.256,-42.317,-57.491,-26.243,-45.652,-59.178,-61.174
-77.959,-67.518,-55.429,-61.081,-39.205,-47.517,-61.608,-64.352
-84.442,-73.7,-67.569,-65.13,-51.125,-49.43,-65.29,-69.51
-85.591,-72.638,-69.783,-65.096,-53.004,-48.435,-66.148,-71.02
-83.732,-65.236,-63.669,-61.734,-46.69,-44.709,-65.459,-69.756
-88.161,-65.008,-62.412,-63.531,-45.555,-46.821,-69.699,-73.081
-96.065,-73.82,-70.976,-73.749,-54.301,-59.899,-79.853,-82.653
-97.85,-79.384,-78.748,-83.841,-62.069,-73.642,-88.646,-90.96
-93.023,-78.738,-79.188,-86.725,-62.564,-77.006,-91.378,-92.858
-86.41,-78.661,-77.106,-84.707,-60.834,-73.954,-89.21,-89.45
-80.294,-77.589,-75.306,-81.293,-59.378,-71.738,-83.162,-82.166
-75.79,-71.4,-71.661,-77.856,-55.734,-70.377,-75.338,-73.849
-74.29,-66.546,-69.585,-77.504,-53.67,-70.006,-72.043,-71.061
-77.115,-70.589,-76.181,-83.519,-60.823,-74.364,-77.635,-77.064
-83.309,-79.571,-89.792,-94.502,-75.336,-84.386,-87.629,-86.189
-88.224,-84.77,-101.988,-104.82,-88.164,-95.21,-93.663,-90.936
-89.684,-86.35,-109.133,-111.479,-95.478,-102.332,-95.263,-92.304
-93.052,-92.354,-112.98,-117.169,-99.443,-106.973,-99.436,-96.778
-103.421,-104.866,-115.316,-124.046,-102.237,-111.926,-107.914,-105.166
-115.086,-114.948,-116.576,-128.805,-104.131,-116.11,-113.884,-111.337
-117.725,-114.966,-115.311,-127.004,-103.453,-116.331,-112.389,-110.746
-111.388,-107.518,-109.762,-119.355,-98.506,-111.276,-106.18,-105.147
-105.031,-99.322,-102.481,-111.419,-91.721,-104.069,-101.144,-99.74
-104.248,-95.204,-98.883,-108.707,-88.353,-101.743,-101.856,-99.204
-107.303,-95.775,-98.744,-110.907,-88.41,-106.054,-108.166,-104.069
-107.483,-95.214,-94.231,-110.368,-84.302,-107.622,-112.173,-107.64
-99.585,-88.206,-82.361,-101.521,-72.886,-99.289,-106.92,-103.025
-88.331,-80.111,-73.361,-90.527,-64.034,-89.156,-98.574,-95.191
-84.156,-79.994,-76.664,-87.537,-67.164,-88.826,-98.09,-94.644
-88.587,-84.922,-86.206,-90.598,-76.6,-93.689,-103.677,-100.029
-93.249,-84.295,-91.118,-88.862,-81.566,-90.418,-104.764,-101.456
-93.916,-78.103,-93.774,-83.273,-84.064,-83.235,-100.078,-97.941
-93.419,-75.39,-100.494,-85.484,-90.383,-87.741,-97.785,-96.602
-93.383,-78.146,-103.528,-94.812,-93.107,-100.578,-100.714,-99.093
-95.729,-83.791,-96.845,-102.12,-86.166,-108.591,-106.591,-103.48
-104.967,-95.566,-93.96,-110.4,-82.836,-115.81,-116.784,-111.984
-118.901,-113.661,-105.086,-124.528,-93.498,-128.906,-130.756,-124.241
-126.883,-127.154,-120.856,-136.162,-109.049,-138.723,-141.357,-133.422
-125.145,-128.328,-134.819,-139.838,-122.847,-139.399,-144.764,-136.954
-122.796,-123.064,-150.844,-144.107,-138.47,-140.125,-145.838,-140.017
-128.57,-121.169,-166.422,-155.573,-153.678,-147.842,-150.18,-145.974
-142.875,-128.909,-177.771,-171.074,-165.184,-160.788,-158.533,-153.891
-159.908,-145.559,-187.748,-184.736,-175.8,-174.792,-167.543,-161.729
-171.188,-159.97,-192.853,-190.008,-181.517,-182.951,-171.216,-164.67
-174.482,-166.287,-186.653,-185.474,-175.57,-182.757,-168.073,-160.625
-175.953,-173.879,-176.587,-179.574,-165.566,-180.715,-165.654,-156.991
-179.524,-185.212,-172.829,-178.083,-162.075,-179.418,-169.882,-160.214
-183.201,-188.227,-168.615,-176.733,-158.303,-175.614,-176.152,-165.622
-183.598,-178.578,-155.698,-171.345,-145.5,-170.615,-176.175,-164.995
-179.686,-166.906,-148.438,-164.179,-137.913,-167.1,-168.695,-158.145
-174.289,-162.891,-157.504,-159.732,-146.578,-164.127,-161.326,-152.743
-170.751,-165.052,-164.258,-159.012,-152.874,-161.086,-160.902,-153.39
-171.466,-168.456,-161.418,-159.381,-149.373,-158.346,-164.2,-156.463
-176.644,-172.429,-166.328,-159.074,-153.766,-155.318,-164.905,-158.002
-180.157,-175.589,-174.329,-157.3,-161.738,-150.7,-164.034,-158.739
-177.94,-174.73,-167.418,-154.059,-154.996,-146.734,-165.085,-159.463
-177.757,-173.232,-157.857,-154.447,-145.413,-152.102,-168.416,-160.567
-185.361,-177.732,-164.876,-163.148,-152.353,-168.072,-174.464,-165.118
-192.756,-185.381,-176.677,-175.168,-164.233,-180.87,-182.959,-173.718
-193.83,-188.032,-175.139,-183.675,-162.738,-184.269,-191.203,-181.733
-194.644,-186.456,-171.396,-190.362,-158.788,-188.985,-198.243,-187.602
-200.631,-188.674,-186.083,-199.839,-173.133,-200.623,-205.586,-194.987
-206.961,-194.533,-210.857,-209.615,-197.686,-210.508,-210.857,-201.904
-198.21,-187.154,-215.101,-205.333,-202.018,-203.858,-201.018,-192.815
-157.098,-146.558,-178.635,-167.547,-165.906,-165.072,-158.86,-149.39
-89.036,-77.547,-108.029,-96.93,-95.713,-94.765,-88.086,-76.851
-26.368,-13.566,-34.273,-25.368,-22.26,-22.879,-20.805,-8.73
6.899,18.958,10.463,17.056,22.267,19.67,15.99,28.201
15.86,25.779,22.171,32.021,33.729,32.912,26.178,38.309
15.126,24.751,19.513,36.063,30.858,34.158,26.8,37.866
9.45,20.033,14.727,33.934,26.043,29.961,22.98,31.918
-1.636,7.683,11.458,23.291,22.7,18.638,12.092,19.931
-13.28,-6.51,13.919,11.513,24.751,7.978,0.956,9.339
-20.4,-13.696,14.015,7.272,24.242,6.266,-0.982,7.517
-27.595,-20.435,-3.085,2.805,6.633,3.627,-1.155,6.561
-39.878,-35.797,-28.441,-11.817,-18.992,-10.56,-11.803,-4.406
-50.018,-49.784,-37.87,-26.848,-28.483,-25.139,-24.472,-17.129
-50.158,-50.087,-28.125,-28.603,-18.889,-25.947,-24.627,-17.856
-48.787,-47.315,-17.652,-24.909,-8.903,-20.841,-21.496,-14.929
-58.982,-59.648,-18.474,-33.159,-10.288,-27.306,-33.786,-25.882
-76.979,-82.465,-29.625,-52.256,-21.656,-45.234,-57.136,-47.303
-89.609,-96.43,-50.623,-66.116,-42.782,-58.355,-71.426,-61.405
-93.914,-97.507,-73.536,-68.739,-66.321,-60.562,-70.81,-61.844
-97.704,-98.282,-83.756,-70.257,-77.365,-63.48,-68.933,-59.038
-105.501,-106.115,-86.018,-80.271,-79.876,-75.079,-77.333,-64.897
-110.636,-114.077,-92.171,-94.871,-85.924,-88.22,-90.187,-77.413
-107.031,-113.28,-96.532,-104.58,-90.489,-95.073,-96.801,-86.355
-102.795,-108.03,-95.349,-109.686,-89.521,-99.333,-99.574,-90.891
-110.589,-111.444,-100.86,-118.438,-94.67,-108.917,-108.153,-98.878
-129.265,-127.448,-120.301,-132.729,-113.519,-123.666,-123.305,-112.366
-145.212,-145.868,-143.959,-144.776,-137.126,-135.219,-136.508,-124.661
-150.838,-155.117,-157.7,-148.279,-151.464,-137.504,-142.467,-130.635
-150.986,-154.834,-156.706,-145.978,-151.109,-133.928,-143.944,-132.345
-151.686,-154.147,-150.525,-145.148,-145.187,-133.169,-144.961,-133.894
-157.451,-160.365,-153.563,-150.77,-148.407,-139.762,-147.694,-137.837
-171.495,-172.801,-165.56,-161.414,-160.955,-149.807,-153.737,-145.26
-185.964,-183.727,-170.894,-169.429,-166.896,-155.321,-161.41,-153.73
-187.491,-184.695,-160.209,-168.679,-156.186,-153.341,-165.143,-157.518
-177.029,-177.07,-145.468,-162.128,-140.99,-150.588,-162.053,-153.77
-169.999,-172.574,-146.737,-158.747,-142.3,-154.438,-157.042,-148.132
-175.293,-177.974,-162.133,-162.236,-158.344,-161.583,-156.63,-148.339
-184.728,-187.082,-169.91,-167.466,-166.543,-164.938,-160.419,-153.189
-187.481,-192.143,-164.379,-169.605,-160.912,-164.509,-164.055,-156.677
-183.879,-192.04,-159.19,-168.493,-155.791,-161.722,-165.413,-157.848
-179.333,-187.569,-158.406,-164.056,-155.613,-154.8,-164.055,-158.15
-175.733,-179.626,-154.903,-156.879,-152.596,-146.436,-160.094,-156.122
-173.182,-172.68,-149.604,-152.039,-147.069,-144.22,-156.341,-151.726
-172.719,-171.947,-149.955,-154.92,-146.954,-150.166,-157.769,-150.491
-174.553,-176.692,-155.497,-163.943,-152.465,-158.402,-165.216,-156.21
-177.88,-182.97,-160.722,-173.441,-157.936,-164.737,-173.342,-164.456
-182.023,-189.373,-165.933,-181.404,-163.22,-171.06,-177.803,-169.433
-185.651,-194.637,-172.697,-188.272,-169.919,-178.483,-179.493,-171.259
-187.438,-196.451,-177.671,-193.083,-174.943,-183.555,-180.823,-172.648
-187.045,-194.868,-178.916,-195.288,-176.3,-183.246,-182.331,-174.004
-185.998,-192.766,-179.715,-196.217,-176.901,-179.857,-183.77,-174.506
-185.629,-191.105,-182.276,-196.318,-178.852,-178.909,-184.866,-173.758
-184.815,-188.915,-186.216,-195.216,-182.356,-182.657,-185.835,-172.843
-186.589,-190.284,-195.706,-196.496,-192.049,-189.724,-190.009,-176.308
-196.041,-199.092,-211.12,-203.771,-207.811,-198.272,-199.819,-186.566
-207.919,-209.393,-217.631,-211.939,-214.212,-204.443,-210.076,-197.233
-211.697,-213.329,-206.685,-212.998,-202.841,-204.667,-213.343,-200.394
-205.785,-210.642,-191.853,-206.459,-187.719,-200.007,-208.288,-195.612
-197.324,-205.152,-185.34,-196.336,-181.208,-191.937,-197.887,-186.854
-192.636,-199.702,-182.532,-185.091,-178.43,-180.96,-185.838,-177.433
-191.868,-196.262,-175.901,-176.082,-171.681,-171.852,-177.976,-171.407
-193.379,-196.862,-168.041,-175.143,-163.848,-171.132,-179.872,-173.448
-198.111,-201.661,-167.18,-183.393,-163.254,-178.396,-188.643,-181.966
-204.09,-207.4,-173.972,-193.025,-170.212,-186.384,-194.856,-188.75
-206.59,-212.021,-181.703,-197.495,-177.994,-191.276,-195.981,-190.613
-206.721,-217.097,-185.209,-199.252,-181.718,-195.273,-197.657,-192.196
-208.545,-222.063,-184.29,-200.904,-180.993,-197.78,-200.649,-194.828
-210.845,-223.575,-185.947,-199.703,-182.419,-194.927,-199.573,-194.221
-209.385,-221.088,-193.327,-195.109,-189.361,-188.143,-194.368,-189.736
-202.526,-216.456,-195.875,-191.003,-191.76,-184.442,-189.888,-184.793
-192.488,-210.307,-187.627,-189.487,-183.594,-186.319,-187.028,-180.286
-185.131,-203.789,-178.434,-190.256,-174.414,-188.847,-185.77,-176.96
-185.233,-200.193,-177.98,-192.431,-173.913,-188.949,-187.799,-176.935
-188.9,-200.152,-184.86,-193.501,-180.847,-188.026,-190.024,-178.323
-188.711,-200.354,-191.286,-193.286,-187.533,-187.707,-188.848,-178.518
-185.511,-198.972,-192.456,-195.259,-189.078,-189.085,-187.549,-179.082
-186.551,-198.232,-193.583,-199.816,-190.384,-192.26,-190.169,-181.425
-194.906,-202.016,-201.403,-204.782,-197.949,-197.014,-196.222,-185.501
-205.071,-210.046,-210.135,-209.612,-206.086,-202.676,-202.436,-190.797
-210.01,-216.424,-211.316,-212.994,-206.756,-205.93,-205.453,-194.591
-210.396,-218.291,-208.932,-212.729,-204.416,-204.248,-204.855,-194.633
-210.899,-218.156,-207.897,-208.312,-204.051,-199.512,-201.777,-191.43
-209.319,-214.64,-200.199,-199.082,-197.222,-192.35,-195.144,-184.777
-200.28,-204.548,-180.126,-185.248,-177.771,-181.082,-184.487,-174.532
-189.471,-194.196,-162.884,-172.943,-160.782,-170.64,-173.962,-165.392
-187.5,-193.01,-165.216,-169.187,-163.129,-168.477,-168.551,-163.236
-192.924,-199.336,-178.7,-172.632,-176.594,-172.37,-169.712,-168.339
-198.222,-204.595,-185.448,-176.987,-183.286,-175.803,-175.813,-176.262
-201.41,-204.756,-182.786,-178.897,-180.29,-178.209,-182.293,-181.643
-203.33,-203.041,-177.923,-179.21,-174.713,-181.516,-185.659,-182.939
-204.704,-205.46,-174.204,-180.519,-170.141,-184.949,-188.287,-184.532
-205.586,-212.029,-172.284,-183.363,-167.681,-186.978,-191.762,-188.552
-205.375,-216.796,-177.756,-186.323,-173.145,-187.96,-192.054,-190.727
-205.597,-218.125,-190.696,-190.12,-186.23,-189.827,-188.852,-189.657
-207.997,-218.858,-197.275,-196.9,-192.701,-194.404,-189.351,-190.649
-210.11,-218.29,-193.04,-205.435,-188.379,-200.593,-196.421,-196.221
-208.526,-213.694,-189.344,-210.611,-185.018,-203.418,-202.735,-200.823
-203.636,-206.089,-188.269,-209.034,-184.535,-199.707,-202.244,-199.35
-198.521,-198.936,-187.498,-203.626,-184.26,-192.732,-198.929,-194.98
-197.406,-195.86,-196.02,-200.294,-193.111,-187.989,-199.256,-193.498
-201.068,-198.119,-212.56,-199.368,-209.938,-185.82,-201.831,-193.707
-203.394,-200.934,-219.441,-195.997,-217.157,-181.943,-200.887,-190.823
-200.87,-199.727,-212.92,-191.395,-211.065,-177.138,-198.013,-187.576
-197.857,-197.119,-205.831,-191.901,-204.451,-177.291,-199.977,-190.561
-196.127,-195.31,-203.106,-195.656,-202.043,-181.368,-205.739,-197.344
-192.484,-191.542,-199.546,-195.201,-198.56,-182.237,-208.161,-200.336
-190.449,-188.804,-195.532,-192.644,-194.528,-180.898,-207.369,-200.743
-197.627,-196.207,-199.012,-197.464,-198.049,-187.112,-210.951,-206.246
-210.044,-212.147,-208.835,-209.396,-208.108,-202.017,-220.853,-217.026
-218.371,-224.266,-213.805,-218.657,-213.526,-214.603,-230.522,-226.135
-223.45,-227.817,-214.208,-222.165,-214.495,-219.706,-235.398,-231.425
-228.274,-228.342,-217.498,-224.265,-218.354,-222.278,-236.791,-235.277
-229.777,-230.663,-220.499,-226.154,-221.778,-224.47,-236.72,-236.751
-227.861,-234.956,-220.408,-225.648,-222.029,-223.188,-235.185,-233.486
-225.018,-236.376,-219.731,-220.898,-221.718,-216.586,-230.628,-226.011
-217.685,-228.282,-216.101,-212.067,-218.344,-206.885,-222.439,-216.52
-205.31,-214.469,-211.807,-205.128,-214.345,-200.512,-214.853,-209.038
-199.167,-208.54,-215.712,-207.382,-218.899,-202.648,-213.565,-207.978
-204.68,-212.852,-222.084,-214.987,-225.998,-208.743,-216.591,-211.114
-208.988,-213.949,-215.039,-216.109,-219.302,-208.885,-215.351,-209.895
-200.216,-204.039,-196.828,-207.177,-201.162,-200.082,-205.982,-200.343
-184.113,-190.867,-184.59,-195.177,-189.011,-187.699,-193.656,-187.619
-172.43,-182.494,-182.303,-186.311,-186.784,-177.823,-185.115,-178.373
-167.942,-176.051,-179.738,-180.659,-184.202,-171.036,-181.476,-173.684
-167.394,-168.315,-174.113,-176.837,-178.701,-166.194,-179.397,-170.37
-168.087,-164.364,-170.437,-175.451,-175.269,-166.38,-176.645,-166.397
-167.369,-166.48,-168.114,-175.463,-172.945,-170.532,-174.184,-162.964
-163.857,-167.987,-167.182,-173.343,-171.798,-170.262,-172.698,-161.238
-158.694,-163.953,-171.076,-167.902,-175.66,-162.826,-170.042,-159.599
-151.989,-155.805,-172.85,-160.388,-177.749,-153.106,-164.118,-155.765
-142.262,-143.964,-161.834,-150.527,-167.391,-143.24,-155.511,-149.207
-130.068,-126.344,-140.908,-136.224,-147.283,-130.265,-145.153,-139.553
-119.75,-108.502,-121.604,-118.973,-128.418,-114.217,-133.236,-126.831
-114.946,-101.191,-110.256,-105.321,-116.956,-101.065,-121.151,-114.218
-112.177,-101.763,-104.477,-97.697,-111.132,-93.196,-110.607,-104.984
-106.178,-99.204,-99.596,-92.06,-106.704,-86.911,-102.551,-98.426
-99.53,-93.734,-93.363,-86.6,-101.023,-81.004,-97.602,-92.858
-96.281,-90.254,-85.303,-82.504,-93.202,-77.207,-94.371,-88.547
-92.777,-86.411,-77.906,-78.699,-85.901,-74.08,-89.498,-84.971
-85.907,-80.605,-75.572,-74.057,-83.797,-68.916,-83.525,-81.105
-80.923,-78.26,-80.363,-71.851,-88.86,-64.582,-82.288,-79.484
-81.198,-81.361,-89.178,-75.238,-97.784,-66.037,-86.944,-81.736
-79.823,-80.593,-92.212,-80.308,-100.873,-70.482,-89.966,-82.96
-71.071,-69.561,-82.584,-81.112,-91.408,-70.501,-86.63,-79.181
-62.211,-59.823,-70.435,-79.881,-79.331,-66.752,-82.295,-74.839
-62.074,-62.879,-69.88,-82.463,-78.515,-67.543,-82.23,-74.688
-65.168,-69.04,-72.405,-85.717,-80.579,-73.358,-81.72,-74.249
-61.685,-66.853,-60.48,-82.878,-68.396,-74.953,-75.936,-68.515
-53.676,-61.628,-43.753,-75.671,-51.894,-68.985,-69.503,-61.648
-47.97,-58.894,-44.377,-67.852,-52.943,-59.253,-65.556,-57.43
-44.706,-55.266,-56.594,-58.441,-65.271,-47.539,-60.231,-52.822
-40.477,-48.584,-57.75,-47.392,-66.229,-34.809,-52.61,-46.023
-34.594,-39.91,-42.245,-35.914,-50.514,-21.324,-45.546,-38.592
-29.345,-30.619,-24.682,-24.644,-33.043,-7.328,-39.48,-31.515
-26.644,-23.656,-19.077,-17.269,-28.024,-0.007,-34.003,-25.88
-26.813,-21.628,-20.158,-16.583,-29.659,-4.011,-29.881,-22.807
-30.112,-23.477,-18.239,-18.502,-27.692,-9.28,-26.8,-21.566
-35.791,-26.893,-19.971,-18.758,-29.168,-7.66,-24.5,-21.542
-39.779,-30.009,-26.859,-17.559,-35.992,-4.396,-24.16,-22.442
-37.608,-29.132,-23.509,-14.019,-32.369,-1.866,-23.892,-20.974
-29.131,-20.894,-8.244,-6.458,-16.367,5.316,-19.11,-14.239
-18.317,-8.148,0.076,1.913,-7.312,16.422,-11.068,-5.46
-10.588,1.131,-4.969,5.235,-12.019,22.05,-6.544,0.12
-6.286,5.046,-4.106,3.561,-10.93,18.235,-6.611,2.461
0.422,9.569,13.399,2.754,7.075,13.693,-5.988,4.21
9.042,15.469,21.196,3.734,15.367,15.018,-3.854,4.723
12.517,18.455,-2.849,1.825,-8.69,16.209,-4.346,2.47
11.427,19.035,-32.181,-2.664,-38.375,12.493,-7.944,-0.723
12.67,20.233,-33.314,-4.176,-39.731,9.332,-9.911,-1.435
17.289,22.354,-14.682,-1.108,-21.183,11.087,-7.034,1.08
21.331,24.168,-0.61,3.403,-7.202,15.149,-1.412,4.855
23.973,25.545,5.01,7.579,-1.561,18.831,4.073,9.026
25.712,25.437,8.052,10.048,1.85,20.449,7.626,12.075
25.809,22.206,8.371,9.71,2.88,19.246,7.811,11.317
24.386,18.399,7.371,10.618,2.597,19.882,7.185,9.429
20.995,16.557,9.981,16.326,5.718,26.07,9.018,10.883
18.323,16.258,18.221,24.563,14.321,34.611,12.75,15.131
23.58,19.42,30.96,34.302,27.279,43.865,19.844,21.994
34.588,25.9,43.954,45.263,40.347,53.94,31.761,32.061
38.896,30.009,51.259,52,47.682,59.158,41.602,40.496
35.511,32.58,53.069,52.758,49.597,58.182,43.446,43.4
37.622,40.98,58.195,55.105,54.871,60.634,42.911,44.829
49.304,52.723,70.922,61.989,67.587,69.256,45.69,48.566
60.107,59.209,81.014,67.354,77.586,76.239,48.576,52.589
62.284,60.106,73.631,68.453,70.322,79.477,49.293,55.027
57.898,58.885,51.114,66.942,48.07,79.821,50.843,56.524
54.902,58.901,37.648,65.081,34.823,76.408,55.132,59.082
60.354,65.157,46.519,66.84,43.935,74.416,61.732,65.53
71.179,75.87,60.039,71.014,57.787,76.619,68.049,74.012
76.876,81.445,59.538,69.116,57.641,75.312,68.658,76.588
73.289,78.719,51.564,59.226,50.147,67.034,61.801,70.104
68.403,77.208,50.912,52.471,50.338,61.469,54.767,62.709
71.614,84.497,55.227,58.034,55.855,67.019,55.614,63.072
78.189,91.591,52.857,68.54,54.734,76.839,61.49,67.993
75.226,86.718,46.515,70.936,49.313,79.212,62.965,68.37
64.676,76.236,49.839,66.916,53.113,75.955,59.475,64.432
61.384,73.224,63.485,68.186,67.129,77.108,60.227,64.933
67.094,76.69,73.459,76.417,77.668,83.475,68.294,72.109
70.36,78.923,74.715,83.899,79.34,89.022,76.53,79.746
70.414,80.699,77.841,89.099,82.209,94.097,81.642,85.959
76.592,86.413,90.71,96.874,94.487,103.276,88.117,94.493
86.505,91.99,105.583,105.879,109.208,113.177,96.042,103.474
87.579,89.699,106.543,109.028,110.421,115.347,98.997,105.592
79.164,82.471,92.204,106.276,96.316,110.867,95.464,100.153
73.299,80.254,80.994,104.942,85.286,108.198,91.366,95.099
75.824,85.039,83.565,108.148,87.929,110.104,91.208,95.801
80.499,89.501,89.211,111.04,93.474,112.5,92.661,98.126
80.734,88.351,86.605,108.045,90.807,110.141,90.626,95.309
79.272,85.805,79.784,101.028,84.202,102.067,85.877,89.055
81.899,87.225,78.852,96.657,83.954,94.457,85.21,87.814
88.324,90.08,85.7,96.765,91.88,93.308,90.893,93.956
93.747,91.02,92.801,97.562,99.777,96.037,97.566,101.06
93.497,90.965,91.391,96.171,98.23,96.415,100.352,103.804
88.866,91.847,83.083,94.059,89.157,93.855,98.845,102.598
87.501,95.334,78.244,94.761,83.914,92.505,95.032,99.756
91.056,98.954,77.982,97.838,83.898,93.356,91.585,96.656
92.987,97.169,75.013,98.68,81.115,93.028,90.376,94.318
91.896,91.381,70.976,96.437,76.747,90.973,91.888,94.195
92.888,89.211,74.684,96.31,79.847,91.818,96.556,97.764
97.796,93.902,87.98,102.724,92.534,99.228,104.595,105.151
103.445,102.019,102.837,113.983,106.865,111.02,113.683,113.912
105.425,108.046,111.613,123.157,115.239,120.868,118.617,119.024
101.244,108.083,114.434,124.812,117.731,124.873,116.371,116.873
94.724,104.45,115.752,122.54,118.736,125.652,112.323,112.057
94.904,105.053,120.438,124.903,123.163,127.568,114.953,113.661
103.61,111.133,129.853,132.288,132.261,130.339,122.666,121.08
110.451,113.468,138.038,135.935,139.83,130.15,125.038,123.716
108.13,107.899,137.593,132.058,138.578,125.903,118.448,117.458
100.778,101.437,128.404,126.208,128.716,121.039,109.844,109.117
94.252,99.737,118.443,122.623,118.325,118.273,105.1,104.424
92.512,102.145,115.588,121.049,115.236,117.61,104.553,103.848
97.266,106.557,117.199,121.02,116.596,118.237,106.86,106.39
104.52,111.639,115.236,121.501,114.252,118.536,109.988,109.925
110.873,117.314,110.087,121.465,108.943,118.143,112.415,112.7
117.612,123.072,107.313,121.69,106.389,119.164,114.284,115.016
124.213,126.678,107.527,122.721,106.781,121.285,116.056,117.743
126.655,125.893,108.463,122.461,107.583,119.564,116.739,120.031
122.959,120.753,108.557,117.989,107.533,112.047,113.826,118.407
117.989,116.084,106.394,110.965,105.516,105.006,108.125,112.336
117.801,115.578,102.17,106.304,101.452,103.327,104.524,107.323
118.854,113.594,96.802,103.821,95.852,101.907,103.888,106.253
115.261,106.15,93.046,100.356,91.678,96.56,103.094,106.119
111.379,101.261,97.534,98.246,96.099,93.27,103.014,106.15
112.341,104.014,110.01,100.962,108.934,96.757,106.302,108.779
113.207,107.077,118.168,105.551,117.397,102.638,111.037,112.981
109.229,105.94,114.746,108.127,113.871,106.184,114.076,115.085
104.04,105.212,108.577,110.191,107.471,108.201,115.919,114.956
101.024,105.646,109.519,113.547,108.452,110.691,117.959,115.508
98.984,102.922,115.268,116.053,114.254,112.799,118.943,116.869
96.842,97.255,119.711,115.111,118.309,112.308,116.389,115.042
95.001,92.791,120.355,111.016,118.363,109.328,110.334,107.989
94.589,92.935,116.865,107.469,114.56,107.13,105.097,100.989
94.823,97.073,109.485,107.359,107.017,106.856,104.381,100.03
93.349,100.04,99.238,107.997,96.545,104.794,105.531,102.08
91.984,98.815,91.403,105.44,88.485,99.771,103.743,100.581
94.397,96.153,90.849,100.739,87.631,96.743,99.148,96.342
100.022,96.984,94.859,98.643,91.295,99.312,96.6,95.792
106.902,103.878,99.804,102.095,96.064,104.809,100.482,102.078
115.407,113.619,105.533,108.752,101.686,109.059,109.141,111.463
123.746,120.575,110.197,113.642,106.153,111.124,115.671,117.773
125.533,122.863,110.017,114.051,105.77,110.946,115.444,118.137
119.612,121.175,104.928,111.104,100.487,108.51,110.016,114.174
114.283,117.239,99.46,108.395,94.661,106.518,104.786,110.265
113.701,113.327,94.178,106.75,88.794,105.82,102.901,108.392
110.972,107.803,84.173,101.297,78.212,100.93,100.116,103.802
102.803,100.066,73.026,92.044,66.704,91.299,93.381,94.765
98.978,98.128,74.423,90.56,67.877,88.948,91.339,92.049
105.498,104.235,90.905,101.355,84.177,99.314,100.37,102.204
113.306,107.162,107.871,111.065,100.995,109.433,110.761,113.683
116.022,104.495,116.921,111.771,109.778,110.867,113.763,116.582
118.381,106.554,123.651,112.283,116.017,111.537,114.771,116.393
121.249,112.898,128.707,116.357,120.518,114.979,117.689,117.378
120.113,113.754,127.426,116.175,118.82,114.319,117.044,114.865
117.054,109.341,124.896,110.713,116.104,109.435,112.163,108.872
116.489,105.562,126.706,107.492,117.908,107.434,109.833,106.068
116.014,102.425,126.641,107.825,117.866,108.933,110.534,106.924
114.739,100.267,122.914,107.445,114.363,109.37,108.52,105.81
118.301,104.11,126.063,106.686,118.242,107.776,104.31,102.723
126.926,114.253,136.453,108.48,129.587,106.286,103.732,102.857
133.593,123.488,140.814,111.593,134.665,106.815,106.746,106.26
135.456,126.399,133.595,111.53,128.005,108.208,106.86,106.777
134.489,123.109,116.052,105.65,111.21,105.124,101.479,101.234
132.892,116.847,92.354,97.626,88.507,97.003,95.57,94.618
134.68,113.881,77.205,95.056,74.131,93.342,93.251,92.974
140.98,117.953,78.468,98.617,75.531,98.293,92.895,94.894
144.188,123.718,85.369,101.471,82.293,102.891,93.504,96.942
139.303,124.744,89.535,102.297,86.578,103.047,97.272,100.512
131.567,122.053,90.686,104.299,87.95,104.304,102.314,104.844
124.172,118.124,86.104,104.648,83.309,106.516,102.734,104.432
114.871,111.345,78.976,99.717,76.051,103.864,97.184,98.327
106.175,101.444,80.964,93.063,78.244,95.604,90.227,92.051
103.356,93.604,89.756,89.876,87.325,87.761,86.52,89.44
103.481,90.895,87.929,88.967,85.437,85.178,85.383,87.883
98.029,89.366,73.94,86.275,71.302,85.353,83.166,84.433
88.358,86.471,66.074,84.347,63.566,85.912,81.436,82.7
86.124,85.972,73.643,88.651,71.332,89.961,84.207,85.992
93.325,90.002,88.666,95.991,86.333,96.39,88.345,89.212
98.398,93.293,99.547,97.82,97.095,97.345,87.572,86.324
95.29,90.604,98.319,93.288,95.977,91.256,82.547,79.5
87.192,81.806,84.854,87.861,82.872,84.369,77.65,73.697
76.992,69.213,69.181,83.159,67.449,79.371,73.502,69.372
70.221,60.485,63.684,79.628,61.968,77.172,71.004,67.132
73.415,63.653,72.252,80.426,70.608,80.533,73.859,70.664
84.75,75.896,86.158,84.893,84.731,86.334,80.789,79.209
98.164,89.16,92.411,87.653,91.063,87.209,85.661,86.165
108.67,97.965,88.072,85.037,86.436,81.532,86.193,87.548
109.989,97.791,79.725,76.992,77.527,72.936,83.144,83.962
100.359,88.352,71.244,66.291,68.586,64.86,75.731,76.623
88.161,77.254,62.979,58.702,60.211,60.472,66.034,68.582
80.931,71.687,56.673,58.968,53.918,61.694,60.394,64.36
76.877,70.131,52.219,64.574,49.29,65.472,60.6,63.876
71.568,67.069,47.655,68.189,44.445,66.646,61.388,62.954
64.768,61.557,45.725,67.689,42.475,65.827,59.956,60.939
61.531,58.786,51.833,68.654,48.814,69.036,60.686,62.161
64.551,62.225,63.579,73.685,60.638,76.776,66.599,68.246
66.864,66.388,70.439,76.135,67.289,80.435,72.583,73.6
63.132,65.131,67.826,70.949,64.422,75.138,72.287,72.215
58.658,61.525,63.431,63.638,59.555,67.356,66.969,65.523
58.479,61.255,65.536,62.51,60.602,65.092,63.392,60.503
61.54,64.879,73.041,69.363,67.019,69.469,65.461,61.959
67.403,70.834,79.858,80.595,73.736,77.875,71.022,68.455
76.446,78.832,83.446,91.654,77.973,87.711,76.075,75.465
84.312,86.348,85.255,97.589,80.039,93.989,77.675,78.637
85.121,87.784,85.731,94.779,80.312,90.803,74.511,75.441
80.222,83.48,84.109,86.764,78.939,80.61,69.732,69.242
77.233,81.434,81.219,81.762,76.857,72.966,68.522,66.498
80.056,84.387,78.311,81.788,74.395,70.902,70.328,67.255
86.44,86.987,75.889,82.395,71.66,69.133,70.356,66.541
94.354,88.662,75.419,82.077,70.737,65.671,68.344,64
100.896,92.87,76.172,81.811,71.327,63.089,67.342,62.913
100.606,96.248,73.468,79.863,68.56,60.944,67.037,63.367
94.507,95.519,67.505,76.572,62.487,58.613,66.609,64.493
89.772,93.092,63.964,75.207,58.706,58.299,66.968,66.474
86.685,88.135,62.381,73.907,56.69,58.415,65.621,66.313
78.021,78.169,57.433,68.107,51.277,54.596,58.982,60.495
64.324,67.439,50.997,60.238,44.52,48.807,50.581,52.491
57.109,62.861,50.006,57.067,43.355,47.273,47.935,49.543
60.716,65.447,55.079,60.041,48.245,50.995,52.139,52.752
68.267,72.178,63.19,67.094,55.923,57.871,59.519,58.789
74.909,80.344,73.253,76.559,65.331,66.868,68.461,66.589
77.343,83.883,80.112,82.295,71.711,72.663,75.369,72.933
72.579,78.343,78.374,79.178,69.82,70.347,75.24,72.567
64.229,70.744,73.359,73.629,64.638,65.799,71.82,68.567
57.461,68.238,72.61,72.863,63.611,65.579,72.949,68.305
53.038,66.035,73.601,72.383,64.426,64.817,76.65,70.123
52.385,61.326,72.125,68.143,62.749,59.601,76.362,68.63
59.599,62.832,72.748,67.288,62.933,57.912,74.87,67.621
72.243,73.525,79.105,73.713,68.903,64.07,77.993,72.669
78.571,81.144,83.443,77.871,73.164,67.838,81.181,77.805
72.795,75.542,76.624,70.918,66.331,60.208,75.505,72.714
61.898,61.588,61.074,56.097,50.667,45.436,61.083,57.427
53.722,50.693,47.74,42.948,37.198,33.265,47.398,42.38
49.735,47.173,42.811,37.322,32.006,28.276,41.943,35.934
47.184,46.608,41.254,36.572,30.118,27.067,41.625,35.474
45.064,46.295,37.219,35.491,26.016,25.188,39.436,34.202
45.719,48.557,33.096,34.899,21.916,24.337,35.571,32.033
47.384,52.472,31.615,37.929,20.157,27.59,34.075,32.21
45.127,53.036,30.191,42.439,18.338,32.331,33.833,32.905
39.442,49.531,27.446,44.052,15.383,34.222,31.358,30.605
35.543,47.593,26.307,43.187,14.09,34.418,28.687,27.959
36.14,49.803,28.499,42.827,16.094,36.096,30.564,29.977
37.969,50.21,31.192,42.11,18.685,37.28,35.76,34.719
37.739,45.354,32.104,39.261,19.466,35.242,39.248,36.678
37.303,40.915,33.778,37.033,20.829,33.007,40.798,36.452
39.926,43.223,40.216,40.035,27.063,35.894,44.551,39.041
45.746,51.441,50.974,48.021,37.926,43.907,51.49,44.894
47.31,54.335,57.029,51.655,44.011,47.458,55.217,47.273
35.183,41.364,48.18,41.384,34.932,36.913,48.24,40.119
15.316,20.797,28.779,22.407,15.352,17.852,32.925,26.399
5.094,10.648,15.137,9.888,1.498,5.556,20.293,15.286
9.1,14.277,15.566,10.272,1.46,6.185,17.704,12.957
15.107,18.879,22.51,16.022,8.151,12.306,22.121,17.134
13.097,15.661,24.961,17.879,10.93,14.878,25.831,20.852
6.439,9.725,22.019,15.282,8.397,12.765,26.125,21.571
3.022,7.222,18.947,11.38,5.262,8.915,24.927,21.009
4.059,7.412,17.04,6.753,2.954,5.008,22.762,19.14
6.583,9.86,16.952,3.49,2.685,3.229,21.407,17.238
10.294,15.354,21.646,5.353,7.706,5.843,24.917,19.136
16.609,22.178,29.48,11.682,16.092,11.934,31.985,24.21
23.789,28.089,35.455,19.153,22.421,18.637,37.542,28.9
27.811,32.164,38.955,27.495,25.881,24.708,42.092,34.276
29.665,36.106,43.131,38.547,29.669,32.178,49.876,43.529
36.082,44.1,50.985,52.586,37.15,43.951,61.83,56.511
51.399,58.811,65.859,69.983,51.922,61.614,78.962,74.107
73.473,78.968,89.032,91.938,74.878,85.15,103.765,98.64
94.381,99.18,111.998,112.751,97.175,107.711,128.887,122.438
104.402,111.499,120.92,120.289,105.532,116.801,138.707,130.813
100.243,109.216,113.619,110.934,98.406,108.663,130.001,121.789
87.568,92.071,100.666,93.412,86.125,91.981,115.088,107.245
74.328,70.073,89.606,76.128,75.653,75.185,102.625,94.632
64.321,55.498,80.815,61.568,67.219,60.735,91.766,82.946
59.63,52.384,76.609,52.689,63.3,51.562,83.667,74.185
64.133,59.53,80.305,53.164,67.28,51.336,82.08,72.815
73.896,70.625,85.904,58.492,73.181,55.478,83.359,74.692
73.123,71.686,81.618,56.908,69.284,52.14,78.504,69.57
56.562,57.694,67.048,44.893,55.096,37.697,65.687,55.558
42.338,44.526,57.175,35.424,45.495,25.203,55.055,44.239
46.371,48.315,63.342,42.906,51.832,29.748,57.939,47.858
61.86,64.469,78.16,63.378,66.647,48.391,71.913,63.445
72.898,76.131,86.488,78.825,74.919,63.965,83.297,76.634
71.107,73.023,82.949,78.072,71.694,65.264,84.053,79.037
58.367,59.126,72.025,65.465,61.499,55.202,77.483,73.52
43.442,46.173,59.657,51.683,49.777,43.043,69.401,65.963
34.601,41.017,50.701,43.535,41.166,35.787,63.273,60.318
34.452,42.276,48.386,43.401,39.216,36.705,62.506,60.091
40.776,47.295,52.15,50.935,43.5,45.536,68.237,66.673
48.422,54.554,58.073,61.369,49.733,57.508,75.735,75.413
53.631,61.315,62.367,68.061,53.937,66.32,79.817,79.882
58.947,66.731,65.171,69.793,56.6,69.364,81.558,80.354
67.29,71.944,68.948,70.494,60.409,68.638,83.735,81.215
72.951,74.268,72.608,71.478,64.12,66.911,84.046,81.732
70.489,71.747,74.106,71.352,65.718,65.161,80.998,79.318
65.733,68.246,75.44,70.798,67.349,63.741,79.09,76.96
63.351,64.425,76.478,68.679,68.823,61.162,79.14,76.01
59.944,58.067,74.139,61.956,67.015,54.957,75.917,71.877
57.647,54.251,71.534,54.807,65.096,48.155,70.309,64.875
57.484,54.268,71.094,51.794,65.308,43.786,66.087,59.295
47.994,46.342,63.862,45.686,58.373,35.679,57.925,51.309
27.228,28.104,45.528,32.069,40.195,21.636,42.434,37.183
11.919,15.723,29.597,22.73,24.831,13.773,29.963,26.237
11.221,17.249,26.947,26.664,23.002,19.491,28.753,27.203
16.709,22.362,29.785,34.56,26.281,28.141,31.824,33.093
19.286,22.575,28.279,34.972,24.932,28.611,30.696,33.832
17.366,19.299,24.08,29.137,21.169,23.387,26.818,30.318
11.404,13.59,19.53,21.126,17.253,16.805,22.454,26.129
4.432,6.468,13.662,11.874,11.783,9.036,17.228,21.852
3.434,4.082,10.837,6.17,9.211,4.745,15.404,21.269
7.747,7.059,12.471,5.609,11.175,5.691,17.678,24.108
3.423,3.669,7.166,0.058,6.072,1.161,12.28,18.21
-18.563,-13.994,-12.234,-16.637,-13.272,-14.894,-7.645,-2.725
-46.515,-36.593,-35.023,-34.488,-35.771,-31.636,-30.192,-25.881
-61.858,-49.064,-47.959,-42.464,-48.179,-39.101,-41.892,-37.68
-60.889,-48.187,-49.634,-41.891,-49.418,-40.358,-43.458,-39.588
-54.151,-43.033,-45.415,-39.221,-44.905,-40.164,-40.836,-38.069
-51.321,-42.725,-41.118,-38.316,-40.443,-39.356,-37.653,-36.579
-52.663,-47.594,-40.791,-40.483,-40.068,-40.368,-37.485,-38.07
-55.179,-52.848,-43.309,-45.087,-42.28,-45.986,-41.038,-42.722
-61.245,-58.062,-46.405,-52.229,-44.68,-56.137,-46.178,-48.624
-72.047,-64.84,-51.515,-61.936,-49.351,-67.863,-52.12,-55.31
-81.038,-69.971,-58.469,-70.463,-56.446,-76.172,-57.757,-61.03
-83.863,-72.893,-64.754,-75.297,-62.755,-79.278,-61.815,-63.729
-83.09,-77.789,-70.227,-78.316,-67.616,-79.986,-64.9,-64.549
-81.524,-82.518,-75.121,-80.334,-71.737,-79.998,-67.971,-65.738
-81.053,-82.688,-78.32,-81.182,-74.581,-79.547,-72.015,-68.536
-81.564,-80.174,-78.798,-81.717,-74.931,-79.428,-76.168,-71.634
-80.353,-77.009,-77.093,-82.098,-72.706,-80.044,-77.705,-72.801
-79.746,-74.757,-77.338,-83.799,-71.799,-82.969,-78.522,-74.312
-84.383,-78.199,-82.295,-88.054,-75.35,-88.966,-82.608,-78.58
-90.149,-86.701,-86.161,-89.473,-77.995,-91.654,-86.05,-80.352
-90.059,-90.468,-81.952,-82.12,-72.835,-84.134,-82.021,-74.348
-85.335,-84.276,-73.074,-71.084,-63.292,-72.04,-74.121,-66.05
-82.723,-76.559,-70.13,-67.674,-60.015,-67.655,-73.7,-66.036
-87.042,-78.578,-78.71,-75.013,-68.485,-73.838,-83.995,-76.035
-95.061,-87.779,-91.268,-83.677,-80.992,-81.576,-94.415,-85.588
-98.305,-91.78,-95.57,-83.885,-85.223,-82.719,-95.121,-85.857
-97.514,-90.673,-92.633,-79.838,-82.279,-81.286,-91.165,-82.459
-102.033,-96.552,-91.22,-82.735,-81.104,-86.039,-92.97,-85.718
-112.797,-110.75,-90.53,-93.992,-80.777,-97.596,-100.685,-95.23
-122.809,-123.31,-90.441,-106.501,-80.809,-110.966,-107.789,-104.072
-130.976,-130.603,-99.662,-115.575,-89.95,-121.312,-111.593,-109.774
-139.62,-136.88,-115.698,-120.517,-106.174,-124.301,-112.843,-113.024
-144.973,-143.135,-124.907,-121.495,-115.936,-120.81,-111.601,-113.009
-142.848,-144.783,-124.477,-119.304,-115.905,-116.566,-108.741,-110.164
-134.533,-137.987,-118.258,-114.063,-109.508,-111.954,-105.991,-106.518
-122.99,-124.319,-104.642,-105.575,-95.419,-105.059,-102.468,-101.411
-113.22,-110.758,-87.917,-97.858,-78.563,-101.378,-97.585,-94.809
-110.158,-104.057,-83.692,-96.133,-74.699,-104.148,-95.113,-91.495
-111.793,-104.414,-96.656,-99.619,-87.999,-107.351,-98.777,-95.111
-114.593,-108.955,-111.003,-106.458,-102.226,-111.089,-108.899,-104.655
-120.705,-118.167,-117.557,-118.849,-108.503,-123.556,-124.256,-118.644
-128.456,-128.153,-122.942,-132.388,-114.004,-139.013,-139.963,-133.186
-127.916,-126.828,-126.716,-134.211,-118.123,-139.856,-147.886,-140.097
-117.326,-112.137,-125.427,-122.67,-116.752,-126.769,-144.855,-135.788
-106.585,-96.735,-125.85,-109.043,-116.751,-115.371,-133.408,-124.085
-99.78,-89.203,-126.717,-98.266,-117.497,-106.572,-118.438,-110.764
-95.984,-90.014,-118.414,-91.655,-109.326,-97.441,-109.29,-103.222
-100.463,-99.64,-110.553,-95.638,-101.497,-100.218,-111.752,-105.484
-113.826,-114.527,-117.926,-107.888,-109.108,-116.322,-118.613,-111.802
-123.838,-124.414,-127.176,-114.765,-118.996,-125.288,-120.818,-114.783
-123.414,-125.517,-122.077,-112,-114.373,-119.43,-118.823,-114.163
-122.234,-127.863,-112.414,-109.504,-104.654,-113.464,-117.685,-114.283
-130.788,-139.898,-112.57,-114.345,-104.688,-115.397,-120.237,-118.619
-146.059,-156.197,-125.371,-123.416,-117.909,-119.944,-124.898,-125.797
-158.759,-167.535,-139.485,-130.914,-132.93,-124.667,-128.361,-130.687
-166.008,-173.267,-142.511,-135.794,-136.76,-132.648,-132.41,-133.184
-174.49,-179.933,-145.937,-143.122,-140.603,-147.083,-143.613,-140.8
-189.983,-190.415,-164.775,-154.142,-159.796,-163.935,-160.691,-154.672
-205.656,-199.746,-186.789,-160.676,-182.432,-171.182,-171.289,-163.974
-211.352,-204.075,-191.546,-159.385,-187.833,-166.363,-170.832,-163.854
-209.114,-204.434,-182.437,-158.459,-178.885,-162.174,-169.899,-163.161
-205.24,-200.813,-175.393,-162.544,-171.517,-165.764,-174.034,-166.665
-195.739,-189.334,-168.057,-163.644,-163.826,-167.115,-173.465,-165.202
-176.319,-168.732,-156.449,-155.159,-152.007,-156.661,-162.305,-153.606
-157.893,-149.477,-156.029,-146.741,-151.354,-144.391,-153.008,-144.505
-154.512,-144.943,-170.676,-151.774,-165.669,-146.886,-158.732,-149.531
-163.753,-152.919,-183.557,-167.416,-178.301,-163.595,-173.997,-161.853
-173.394,-161.558,-190.408,-180.749,-185.159,-180.348,-185.5,-169.962
-180.118,-170.125,-198.907,-187.613,-193.756,-189.355,-192.374,-175.034
-190.013,-185.256,-207.803,-193.647,-202.706,-194.264,-203.259,-185.128
-204.877,-202.967,-215.158,-199.797,-210.311,-196.768,-217.319,-198.938
-217.101,-212.39,-224.349,-199.034,-220.035,-191.437,-223.211,-206.085
-217.478,-209.326,-227.722,-187.566,-223.918,-177.307,-215.726,-201.315
-206.846,-199.145,-210.05,-171.142,-206.485,-163.061,-201.485,-189.395
-198.941,-193.709,-181.283,-160.471,-177.767,-158.008,-189.947,-179.126
-203.713,-199.776,-172.369,-159.924,-168.958,-161.251,-182.984,-174.672
-213.212,-210.115,-184.219,-162.386,-181.021,-162.688,-175.367,-171.844
-215.536,-214.224,-185.146,-160.198,-182.134,-156.736,-165.494,-166.115
-211.018,-209.413,-164.672,-154.292,-161.77,-147.844,-157.537,-159.071
-205.369,-199.206,-146.051,-149.506,-143.16,-142.266,-153.683,-153.655
-198.519,-189.039,-146.364,-147.727,-143.322,-141.352,-152.008,-150.092
-185.95,-179.354,-153.671,-144.544,-150.339,-139.351,-148.505,-145.715
-167.676,-165.633,-147.882,-134.071,-144.186,-129.471,-140.123,-137.263
-151.533,-149.343,-130.307,-120.106,-126.28,-116.072,-130.828,-127.745
-142.511,-136.498,-120.057,-112.963,-115.825,-110.557,-128.419,-124.417
-136.67,-128.454,-126.509,-114.844,-122.01,-114.748,-132.892,-127.226
-130.924,-122.959,-138.365,-119.235,-133.335,-120.591,-137.331,-129.857
-126.039,-116.242,-139.764,-121.886,-134.05,-123.46,-138.739,-130.211
-120.594,-106.875,-131.372,-124.603,-124.912,-126.132,-139.696,-130.725
-113.331,-100.793,-127.588,-129.303,-120.429,-131.366,-141.557,-131.808
-106.537,-100.637,-131.478,-132.119,-124.064,-135.365,-141.801,-130.999
-101.728,-97.317,-128.273,-126.952,-121.135,-131.559,-138.247,-127.038
-98.068,-86.464,-112.942,-114.555,-106.11,-120.908,-132.684,-121.776
-96.196,-77.907,-105.503,-101.874,-98.671,-110.695,-127.382,-117.093
-95.62,-77.64,-116.926,-91.72,-109.947,-102.163,-119.898,-110.99
-91.804,-79.041,-126.235,-81.134,-119.176,-90.462,-107.105,-100.621
-85.816,-78.681,-118.025,-70.163,-111.031,-76.8,-92.039,-88.28
-86.141,-82.885,-103.459,-63.115,-96.681,-67.263,-80.218,-78.76
-94.939,-94.536,-92.235,-62.016,-85.638,-62.483,-73.449,-73.67
-104.986,-106.585,-80.905,-64.345,-74.265,-59.974,-70.311,-71.513
-108.875,-111.36,-65.044,-64.179,-58.372,-57.241,-66.532,-68.083
-105.376,-108.948,-48.707,-57.615,-42.322,-50.677,-57.914,-59.493
-98.68,-104.592,-43.957,-49.412,-38.086,-42.473,-48.137,-49.757
-92.088,-100.664,-50.676,-45.587,-45.342,-38.6,-44.654,-46.461
-86.23,-93.396,-51.303,-42.391,-46.416,-36.197,-45.253,-47.549
-81.326,-79.366,-41.331,-34.501,-36.582,-28.814,-42.025,-45.286
-75.145,-61.865,-33.912,-25.841,-28.911,-20.226,-36.166,-40.342
-66.155,-49.345,-32.525,-23.859,-27.302,-20.691,-35.84,-40.244
-59.528,-49.26,-31.476,-31.003,-26.599,-33.31,-43.446,-47.755
-58.529,-57.162,-31.823,-41.535,-27.802,-47.894,-51.923,-56.256
-58.942,-59.376,-40.278,-47.091,-37.036,-53.011,-54.187,-58.306
-58.62,-54.357,-55.954,-48.638,-53.067,-52.231,-53.062,-56.717
-55.794,-50.154,-60.555,-50.885,-57.747,-53.363,-52.523,-56.043
-44.502,-43.452,-44.358,-48.961,-41.542,-50.562,-47.251,-51.104
-27.975,-29.547,-29.909,-39.358,-27.156,-38.609,-35.937,-40.346
-19.537,-18.814,-34.183,-31.109,-31.811,-29.305,-28.591,-33.395
-22.694,-20.115,-41.856,-31.495,-40.057,-32.972,-29.771,-34.273
-29.219,-26.884,-40.819,-37.437,-39.419,-42.633,-34.401,-37.887
-34.177,-30.605,-41.815,-44.096,-40.84,-47.897,-39.533,-42.177
-37.579,-31.786,-48.37,-48.35,-48.121,-46.692,-44.314,-47.244
-38.924,-35.814,-46.118,-48.85,-46.451,-43.663,-46.318,-50.117
-38.965,-44.53,-35.531,-46.978,-35.924,-42.918,-44.479,-48.087
-41.272,-53.038,-35.631,-44.501,-35.836,-41.515,-40.187,-42.585
-47.457,-56.055,-44.808,-42.236,-44.88,-36.866,-36.216,-38.111
-52.032,-51.93,-41.91,-38.848,-42.004,-31.491,-33.895,-36.342
-48.756,-42.047,-29.154,-33.12,-29.433,-26.416,-31.588,-34.585
-40.559,-31.899,-26.94,-28.634,-27.295,-21.838,-29.471,-32.628
-34.662,-27.472,-32.577,-29.347,-32.591,-20.498,-31.586,-34.31
-33.384,-29.66,-27.812,-33.454,-27.253,-24.179,-38.659,-40.185
-33.161,-32.168,-15.731,-35.277,-14.942,-28.674,-42.609,-43.863
-28.224,-27.02,-14.455,-31.193,-14.042,-26.808,-36.022,-39.468
-17.804,-16.236,-22.407,-22.713,-22.563,-17.067,-23.596,-29.895
-7.964,-8.318,-22.91,-12.512,-23.376,-2.695,-13.982,-21.637
-2.717,-4.244,-14.601,-2.226,-15.253,10.598,-7.898,-15.414
-0.277,-0.077,-5.183,4.339,-6.063,13.111,-3.874,-9.593
0.127,1.972,6.385,2.986,5.359,2.602,-6.146,-8.938
-2.52,-2.931,16.229,-4.815,15.025,-9.358,-16.383,-17.865
-5.805,-11.437,10.164,-12.025,8.599,-14.034,-25.194,-28.287
-6.822,-15.408,-11.164,-14.107,-12.961,-14.27,-24.645,-30.052
-6.505,-13.572,-27.945,-14.052,-29.667,-14.897,-20.126,-26.07
-6.315,-11.179,-28.974,-16.466,-30.796,-17.257,-19.568,-24.28
-7.372,-11.979,-22.867,-21.544,-25.287,-21.639,-23.594,-26.731
-13.05,-16.235,-25.076,-27.76,-28.103,-28.531,-29.124,-31.705
-21.827,-21.054,-37.266,-32.597,-40.33,-34.273,-31.315,-35.355
-24.358,-22.241,-40.47,-31.358,-43.034,-31.524,-26.55,-33.219
-19.14,-20.373,-24.296,-23.922,-26.083,-20.697,-18.429,-26.462
-14.168,-17.758,-3.745,-15.794,-4.626,-9.854,-12.488,-20.193
-9.846,-11.77,7.063,-9.226,7.025,-1.869,-7.692,-15.178
-1.516,-1.414,10.315,-3.309,11,5.09,-1.263,-8.962
8.144,8.228,13.406,1.756,14.953,11.982,5.274,-2.015
14.574,14.652,20.503,7.553,23.162,21.487,11.148,4.351
19.46,22.378,30.498,16.147,34.123,32.845,19.351,12.362
26.195,33.829,39.548,25.28,43.601,38.569,30.078,23.309
34.442,43.666,47.742,32.49,51.774,38.912,38.857,33.001
42.408,49.169,56.898,38.826,60.834,43.127,43.269,37.409
48.291,54.28,61.604,43.138,65.657,50.289,43.856,36.634
48.594,56.676,55.094,40.684,59.443,49.737,39.68,31.193
43.15,50.333,46.066,32.869,50.552,41.383,31.597,23.298
37.851,40.958,47.39,27.622,51.718,35.388,24.87,18.116
34.097,36.147,46.352,24.945,50.688,32.201,21.227,15.605
26.452,31.372,26.015,17.556,30.952,24.034,16.974,10.835
15.519,22.333,2.05,6.148,7.712,12.69,10.798,3.878
8.375,14.102,-7.628,-2.758,-1.784,5.358,4.515,-1.829
6.933,11.55,-10.457,-7.603,-4.678,1.765,-0.352,-5.364
10.326,15.381,-10.573,-8.458,-4.452,0.485,-0.866,-5.187
20.725,25.875,-0.512,-3.842,6.124,4.36,5.757,1.031
33.767,37.623,15.019,2.6,21.539,11.183,15.985,10.257
37.885,38.866,21.527,3.487,27.228,13.161,22.324,15.844
31.919,28.883,16.953,-1.344,21.806,9.331,22.281,15.865
25.657,20.172,11.208,-5.824,15.442,5.572,19.012,13.136
22.651,18.075,9.575,-7.809,13.222,3.762,15.507,9.752
20.674,19.078,10.796,-7.57,14.038,3.373,13.995,7.984
21.601,22.08,13.199,-4.041,16.404,6.024,15.723,9.77
25.994,25.53,15.095,0.31,18.322,9.773,17.73,11.922
29.538,26.222,16.981,2.12,20.04,10.669,16.975,10.967
32.892,26.949,23.481,5.114,26.364,11.832,17.141,10.72
41.386,33.223,36.138,14.476,38.939,19.127,23.884,16.545
53.28,43.523,47.407,26.54,50.158,30.207,35.202,26.391
62.682,54.639,51.866,34.896,54.694,39.145,44.462,34.747
71.744,68.674,58.78,42.008,61.769,47.198,51.272,42.043
82.921,80.364,75.087,50.975,78.002,55.715,57.742,50.531
85.996,74.905,87.445,53.687,89.889,57.618,57.839,53.71
74.606,55.583,82.763,44.872,84.523,51.257,47.252,44.62
59.464,43.698,62.573,32.927,63.85,43.846,34.834,29.723
49.997,42.691,34.567,24.064,35.723,33.701,29.299,20.447
47.163,41.665,14.712,16.867,15.762,18.356,28.601,18.757
52.359,43.493,13.71,12.818,14.548,9.167,29.511,19.931
63.262,53.941,19.251,14.358,20.119,12.308,33.415,22.444
73.738,65.574,22.163,20.267,23.167,20.937,40.377,28.514
81.952,70.314,31.637,27.596,32.39,30.323,46.084,36.741
85.035,66.726,44.581,30.213,44.945,35.582,45.587,39.919
79.305,58.827,47.471,25.095,47.907,31.448,39.796,35.469
70.363,55.567,45.821,20.137,46.641,24.329,35.511,30.724
62.513,55.285,45.681,19.334,46.547,20.934,34.178,28.685
50.572,44.679,39.498,14.391,39.899,16.144,30.255,23.401
37.522,27.764,30.925,5.357,30.779,10.183,25.021,16.448
37.223,25.855,29.727,5.921,29.324,13.894,26.557,17.575
51.836,41.426,34.376,19.545,34,28.148,34.714,26.93
66.136,54.653,41.822,32.869,41.497,40.587,41.116,34.651
68.075,55.444,50.568,36.199,49.912,43.24,42.285,36.104
62.571,51.613,55.15,32.751,53.564,38.025,40.463,33.979
60.591,50.764,50.611,28.443,47.927,30.77,37.252,30.527
64.577,53.241,40.977,26.429,37.793,27.789,35.65,28.463
69.859,56.673,40.756,28.169,37.815,30.99,38.524,31.007
72.611,59.056,53.619,32.548,50.975,37.077,43.338,36.316
73.652,62.103,57.414,37.771,54.585,44.267,48.029,40.886
76.408,68.132,42.281,42.725,39.092,51.637,53.887,44.794
80.918,72.71,34.763,45.045,31.434,54.661,58.811,48.501
83.597,70.962,48.728,44.176,45.317,52.23,60.058,51.544
85.017,68.636,63.21,45.575,59.548,53.246,61.368,55.672
90.528,75.766,66.73,54.035,62.669,64.463,66.486,62.601
98.666,90.373,68.236,63.565,63.698,76.708,69.69,67.561
98.387,96.915,67.193,61.588,62.184,74.542,61.826,62.067
84.618,85.006,54.61,44.961,49.245,55.91,44.277,46.417
67.215,63.739,35.345,26.211,29.714,35.822,29.174,31.693
56.707,48.894,25.459,18.005,19.424,28.79,23.529,24.603
51.53,43.268,30.049,17.97,23.301,31.031,22.454,21.309
47.629,41.096,39.202,18.365,31.702,30.497,21.395,19.607
47.981,42.174,45.165,19.605,37.276,27.702,22.239,21.845
55.146,49.692,45.448,24.972,37.584,31.002,26.085,26.4
63.409,58.76,37.353,31.92,29.845,39.079,30.848,29.55
64.55,59.26,28.02,35.24,21.102,43.572,34.796,31.492
61.715,53.913,31.52,36.526,25.225,45.352,39.025,35.116
66.948,56.355,46.536,42.534,40.744,51.798,45.734,41.721
79.206,66.627,57.58,51.731,52.022,59.678,52.299,47.876
85.12,72.857,58.524,56.314,52.997,60.939,53.969,49.874
83.96,74.399,57.957,57.237,52.763,59.524,53.365,50.646
85.387,77.604,60.544,59.73,56.12,61.863,55.803,53.787
88.975,80.686,60.064,61.886,56.162,65.057,58.977,56.057
88.861,80.912,55.187,61.163,51.133,66.561,57.944,54.336
85.84,80.115,53.013,58.809,48.652,65.829,53.161,51.251
83.308,80.541,56.322,56.319,52.017,60.883,48.933,50.25
83.396,85.33,63.407,58.011,59.212,57.962,49.894,53.004
86.977,92.077,70.234,65.768,65.765,64.159,56.433,58.883
89.77,90.834,66.278,70.093,61.527,69.57,62.149,62.691
86.561,79.973,51.026,62.996,46.519,62.94,61.398,59.604
81.056,69.939,43.302,52.438,39.301,53.054,57.316,53.231
79.102,67.075,48.879,49.237,45.13,51.828,56.517,51.001
78.49,68.048,51.162,51.933,47.472,55.738,59.044,53.331
75.822,69.444,45.866,54.372,42.46,58.069,60.068,54.902
71.684,69.615,44.884,54.473,42.056,58.213,57.359,52.961
66.95,66.095,49.798,52.813,47.623,56.908,53.065,49.589
63.806,61.085,52.552,51.937,51.045,56.691,51.658,48.885
66.346,61.31,54.039,54.779,53.101,60.805,55.491,52.721
75.029,68.643,61.267,61.741,60.664,68.408,62.116,58.843
83.552,76.216,71.063,70.21,70.618,76.414,67.545,63.668
85.124,76.769,73.805,76.464,73.215,82.621,70.87,66.628
82.382,74.393,71.769,80.412,70.716,86.032,74.491,70.484
82.471,77.502,75.837,83.822,74.486,87.172,77.26,74.036
83.042,81.305,83.204,82.754,82.001,85.104,73.022,70.476
78.518,76.483,80.571,73.961,79.774,77.5,63.469,60.794
73.147,67.808,68.348,64.235,67.984,67.866,59.015,55.285
72.369,64.317,57.572,59.514,57.437,62.14,60.339,55.231
73.492,65.194,50.789,55.722,50.509,58.575,58.033,52.237
73.951,68.372,45.429,50.52,44.882,54.11,52.248,47.103
75.607,75.189,44.608,49.14,44.119,52.172,52.072,48.717
75.77,79.781,47.86,51.16,47.511,52.968,55.492,54.353
67.539,72.177,43.765,47.11,42.939,49.318,50.969,51.296
54.995,56.768,30.265,35.607,28.669,40.193,39.862,39.892
53.263,51.61,25.158,30.189,23.549,36.739,37.461,35.922
65.734,62.426,39.361,39.729,38.48,46.865,49.044,46.074
77.943,73.675,58.788,54.034,58.544,61.403,62.104,58.459
81.346,74.489,66.168,60.363,66.207,66.36,67.577,63.291
82.711,71.913,64.553,60.776,64.757,62.727,70.447,64.781
84.416,71.465,65.992,61.166,66.524,59.568,72.849,66.181
78.627,67.949,70.926,58.561,72.182,55.998,68.047,62.11
66.906,60.217,70.513,51.367,72.615,48.391,57.279,52.158
62.096,56.482,61.538,47.567,64.11,43.632,51.925,46.079
65.83,59.776,52.797,51.932,55.572,47.506,54.782,48.862
67.643,63.322,52.748,58.303,55.753,53.848,57.447,53.513
66.537,64.566,57.299,61.714,60.479,57.113,57.188,54.487
69.744,67.185,60.765,64.184,64.139,59.727,58.55,54.714
73.46,68.507,63.079,64.278,66.993,60.311,59.137,53.84
68.467,63.264,62.116,57.646,66.852,53.542,52.84,46.997
60.039,56.97,59.163,50.009,64.443,45.131,44.962,39.183
60.387,58.854,58.451,51.227,63.607,46.974,44.909,40.205
67.319,65.848,53.045,57.138,57.692,55.516,49.615,46.629
68.764,67.633,38.443,55.654,42.692,54.998,50.322,48.521
61.858,62.379,27.101,46.771,31.109,43.809,46.318,45.802
52.517,54.705,24.931,38.436,28.628,34.429,40.933,42.545
44.845,46.49,20.966,30.955,24.252,29.84,33.859,36.859
41.456,40.228,11.907,22.207,14.908,24.832,24.711,27.425
43.849,40.456,9.149,17.275,12.201,20.855,18.015,20.499
48.528,45.818,18.127,20.315,21.506,22.04,18.95,22.029
50.123,49.027,28.886,26.167,32.524,26.204,25.563,28.418
47.737,46.911,31.262,28.228,34.79,27.82,30.694,32.23
46.913,45.213,31.573,29.591,34.78,28.577,33.102,33.902
53.567,50.988,41.574,37.908,44.776,36.83,38.869,39.736
63.906,61.167,56.564,50.64,60.219,51.338,48.681,48.94
68.34,64.593,66.251,56.906,70.368,59.448,54.395,53.264
64.752,57.363,70.738,53.538,74.919,55.582,51.246,49.728
58.42,48.171,68.18,48.549,72.062,48.349,44.517,44.049
54.345,46.165,57.231,49.567,60.753,47.893,42.076,42.197
53.483,49.993,48.702,54.952,52.08,53.258,44.487,43.577
52.192,51.954,47.414,57.881,50.966,55.774,46.432,43.746
48.835,49.623,46.645,56.601,50.701,52.417,45.719,41.908
47.552,46.991,47.251,54.879,52.002,48.58,44.23,40.764
50.929,46.606,52.844,54.696,58.026,49.03,43.214,41.172
56.396,48.381,56.209,55.132,61.323,52.402,43.631,42.313
59.793,52.091,51.382,55.308,56.24,53.373,47.027,44.608
59.551,56.672,44.799,54.737,49.471,49.657,51.749,48.056
58.812,61.464,44.275,53.36,48.878,45.709,52.681,49.785
60.154,66.003,47.458,51.059,52.227,44.917,48.239,47.858
60.814,66.612,45.338,46.345,50.335,43.281,42.411,44.36
58.156,61.358,34.492,38.938,39.456,37.469,38.602,41.726
55.536,56.463,23.592,33.199,28.447,31.974,37.493,41.153
56.471,56.567,22.603,32.745,27.674,31.387,38.595,42.986
55.128,54.94,26.785,32.761,32.502,31.631,37.978,43.318
44.851,45.513,23.965,27.329,30.637,27.466,31.579,37.726
33.372,35.155,16.162,21.369,23.91,22.819,24.078,30.629
31.08,32.298,14.44,22.028,23.435,22.476,22.804,28.682
32.866,33.716,17.855,25.379,28.429,22.932,24.676,28.288
30.341,32.495,18.835,25.552,31.037,21.828,23.058,23.962
29.502,31.106,22.236,27.371,35.718,24.602,21.457,21.494
39.938,37.476,38.933,38.662,53.489,36.158,28.199,29.526
55.04,49.669,61.228,55.79,76.805,52.326,42.87,44.905
59.191,55.19,68.696,65.573,84.935,61.701,55.168,55.388
50.769,49.284,60.827,62.096,77.228,58.134,56.481,53.909
42.319,41.917,54.507,54.266,70.823,49.58,50.398,46.121
41.919,41.618,54.544,52.844,70.773,48.005,47.294,42.741
46.544,45.188,53.899,57.499,70.144,53.648,50.316,46.929
50.911,48.754,53.131,62.41,69.55,58.523,55.017,54.084
52.929,52.479,56.554,64.731,73.404,59.159,57.155,58.808
50.413,52.29,57.688,61.886,75.189,55.338,53.552,56.625
42.575,45.622,48.861,52.018,66.954,46.524,44.358,47.206
34.382,39.38,33.972,38.594,52.308,35.648,35.355,36.937
30.848,38.499,21.955,26.634,40.098,26.595,30.491,31.145
29.903,38.062,17.795,17.997,35.624,19.657,27.563,28.566
27.55,34.352,17.118,13.68,34.952,15.071,24.772,27.114
25.718,31.875,12.604,15.137,30.514,15.107,24.381,28.229
27.043,32.808,7.821,19.893,25.373,18.573,26.459,31.377
27.041,30.649,9.96,21.247,27.013,19.347,25.361,30.546
20.706,21.009,14.255,16.754,31.033,14.731,18.748,23.342
11.698,9.089,11.928,11.408,28.353,9.202,12.7,16.143
9.198,4.008,7.783,11.786,23.593,8.692,12.98,15.314
17.143,9.995,14.484,21.12,29.683,15.948,19.319,21.113
27.832,20.776,31.37,35.683,46.074,28.295,28.054,29.509
31.371,26.227,43.044,47.358,57.203,39.652,35.54,36.406
28.5,25.217,40.123,52.615,53.622,45.943,40.1,40.818
25.237,22.585,31.014,52.707,43.89,45.61,40.677,42.101
22.895,18.963,27.419,48.51,39.823,39.783,36.288,38.4
19.983,12.959,27.056,40.959,39.008,32.279,28.562,30.744
15.556,5.822,21.965,31.51,33.351,24.083,20.596,22.53
10.603,1.006,16.003,22.793,26.873,15.39,14.599,16.427
9.802,3.371,18.773,20.03,29.407,12.332,13.24,15.476
14.68,12.846,26.239,23.996,36.903,17.804,17.231,20.254
17.462,20.387,25.174,25.973,35.925,22.093,20.904,24.462
11.874,19.784,14.712,19.012,25.376,15.709,17.929,21.526
2.078,14.446,4.415,6.127,14.737,1.287,8.694,11.952
-5.979,7.1,-4.426,-8.145,5.611,-14.692,-3.098,-0.74
-10.213,-0.964,-14.792,-20.992,-4.547,-27.827,-12.898,-12.213
-7.25,-1.645,-19.259,-24.92,-8.321,-30.968,-13.264,-14.335
4.442,9.839,-9.664,-15.068,2.233,-20.066,-1.218,-2.764
17.399,23.309,8.1,-0.655,21.176,-4.145,14.237,14.162
22.599,26.818,20.214,5.48,34.447,4.184,21.251,23.963
16.467,18.901,16.758,1.414,31.704,2.32,16.849,21.885
-1.814,2.966,-0.436,-7.217,14.708,-5.24,5.805,11.155
-24.558,-13.876,-17.18,-14.105,-2.16,-12.928,-4.833,-0.677
-36.147,-21.697,-21.872,-14.532,-7.207,-15.243,-9.979,-7.18
-32.333,-19.308,-16.354,-8.221,-2.15,-9.928,-9.798,-8.196
-23.375,-14.169,-6.011,1.799,7.769,0.152,-6.429,-5.563
-16.717,-10.43,7.128,12.468,20.436,9.7,0.046,1.056
-11.926,-7.368,17.492,20.696,30.159,15.296,8.123,9.367
-8.227,-3.616,17.754,24.818,29.801,17.659,13.801,14.637
-7.295,1.029,9.431,25.603,21.178,18.396,15.11,15.59
-10.15,3.2,1.688,23.335,13.499,16.825,12.618,13.326
-14.231,-0.729,-0.527,18.54,11.484,13.129,7.965,9.357
-14.818,-6.971,0.036,14.782,12.244,10.634,4.203,6.736
-11.08,-8.662,0.711,14.305,13.202,11.122,3.71,7.107
-7.877,-6.493,0.357,13.778,13.148,10.961,5.394,8.634
-9.075,-5.657,-4.316,8.587,8.579,5.006,4.99,8.425
-12.026,-6.001,-13.518,-0.793,-0.659,-5.649,0.034,5.09
-10.805,-3.214,-20.379,-8.406,-7.611,-13.473,-4.764,1.191
-5.8,1.381,-20.739,-11.323,-8.3,-15.733,-4.506,-0.166
-4.28,0.262,-19.826,-14.869,-8.066,-18.76,-3.792,-1.99
-7.155,-7.069,-20.48,-21.876,-9.615,-25.307,-7.345,-7.044
-6.072,-10.225,-16.143,-24.804,-6.025,-27.787,-8.967,-8.851
1.491,-4.457,-5.568,-19.202,4.344,-22.065,-3.35,-2.754
5.013,0.05,-0.009,-14.248,10.016,-17.241,2.091,2.404
-4.133,-6.3,-4.584,-18.093,5.129,-21.014,-0.294,-1.774
-16.864,-16.998,-7.881,-23.526,0.8,-25.721,-5.072,-8.068
-15.86,-16.98,0.25,-17.955,7.71,-18.998,-1.58,-3.789
0.888,-2.411,15.176,-0.224,21.804,-0.843,11.815,11.455
17.092,13.447,26.417,18.382,32.372,16.615,25.49,25.495
20.699,18.079,30.405,28.594,35.414,24.689,30.75,29.91
17.159,15.187,31.467,32.837,35.526,27.046,29.963,28.724
15.085,13.925,33.24,37.067,36.706,30.154,29.587,28.339
13.54,14.78,34.816,41.901,37.88,34.363,30.867,29.836
10.457,15.619,35.605,46.253,38.412,38.357,32.56,32.979
8.136,17.434,36.373,49.678,39.439,41.716,33.848,36.733
5.757,17.386,34.586,48.814,38.567,40.895,31.753,36.39
0.176,10.352,26.218,40.389,31.301,32.309,23.529,28.527
-7.101,-1.749,12.499,26.821,18.397,18.717,11.321,16.084
-12.734,-12.01,-0.481,13.437,6.277,6.309,-0.009,4.643
-15.44,-15.757,-7.79,3.8,0.572,-1.006,-6.38,-1.506
-14.68,-12.854,-8.861,-0.857,1.768,-2.509,-6.492,-1.048
-10.971,-6.973,-6.755,-1.879,6.148,-1.066,-3.768,2.455
-7.311,-3.109,-5.479,-3.255,9.611,-2.463,-2.867,4.189
-7.103,-4.473,-5.978,-8.541,11.611,-9.504,-5.236,2.465
-9.368,-8.861,-5.658,-16.27,14.642,-18.215,-9.894,-2.151
-10.392,-10.9,-4.892,-21.796,17.758,-23.783,-14.613,-7.614
-8.89,-9.863,-5.975,-23.481,18.487,-25.629,-16.959,-11.555
-3.025,-6.298,-2.926,-20.301,23.105,-22.734,-14.532,-11.339
9.092,3.695,8.72,-8.863,36.143,-12.227,-5.07,-3.402
22.162,19.049,18.757,8.594,47.094,3.01,8.645,10.204
28.582,30.122,22.068,23.008,50.846,15.446,18.637,20.311
28.731,32.224,27.042,30.677,56.118,23.786,21.965,23.231
28.87,31.369,33.537,36.28,62.742,31.336,24.524,25.915
33.555,33.894,38.213,43.251,67.081,37.527,31.211,34.082
41.451,38.548,48.796,49.587,76.866,41.733,38.352,42.993
44.635,39.865,59.815,51.858,86.882,44.217,39.74,44.959
37.127,35.163,50.734,49.218,76.658,41.365,35.621,40.633
24.722,27.075,27.383,44.81,51.86,34.041,30.44,35.521
15.76,18.697,13.909,41.782,36.692,29.777,24.91,30.386
7.885,9.273,8.748,38.277,30.075,28.606,16.259,22.862
-1.846,0.627,-0.394,32.789,19.819,24.846,6.285,14.824
-6.185,0.366,-5.438,29.958,13.312,21.104,2.261,11.845
-2.24,9.03,1.38,31.553,18.007,22.441,4.966,14.234
-0.058,15.388,9.675,30.482,24.091,24.136,5.409,14.621
-5.166,11.724,12.224,22.243,24.777,18.424,-0.472,9.014
-10.34,2.591,10.896,11.91,21.891,6.529,-6.629,2.142
-10.35,-4.382,0.28,4.973,9.975,-3.653,-8.714,-1.635
-10.894,-9.263,-18.944,-0.245,-10.448,-9.164,-10.065,-4.524
-18.334,-17.113,-29.49,-7.066,-22.497,-13.352,-14.866,-9.828
-27.516,-26.06,-26.261,-11.655,-21.111,-14.636,-19.895,-14.318
-28.691,-27.93,-19.299,-8.456,-15.804,-10.428,-18.57,-12.259
-23.737,-22.503,-10.913,-2.705,-8.572,-9.893,-11.91,-6.151
-23.103,-19.229,-4.23,-3.555,-2.94,-18.205,-7.061,-4.107
-28.507,-23.033,-7.749,-8.613,-7.892,-23.716,-7.056,-7.425
-31.026,-27.676,-15.714,-8.21,-17.535,-18.607,-7.59,-8.766
-26.747,-25.996,-12.868,0.578,-16.27,-7.613,-4.224,-3.266
-22.68,-21.044,1.204,10.734,-3.685,3.289,-0.434,3.529
-24.905,-21.542,12.014,13.799,5.667,8.93,-2.532,3.333
-30.285,-28.075,11.783,10.05,4.1,6.403,-8.159,-2.053
-31.232,-30.13,8.268,7.57,-0.646,0.509,-9.224,-3.91
-24.999,-20.917,7.536,10.305,-2.677,-1.132,-5.399,-0.901
-15.771,-7.502,3.147,14.656,-8.485,3.363,-2.7,1.824
-6.773,1.911,-3.879,19.163,-16.869,11.553,-0.651,4.781
1.626,8.079,-0.821,25.006,-14.935,19.243,4.335,11.059
4.285,10.408,7.808,27.57,-7.284,20.422,7.488,15.776
-5.618,3.483,2.29,20.995,-13.87,13.351,1.707,11.377
-22.778,-9.912,-17.048,8.833,-34.397,3.937,-9.772,0.031
-32.334,-18.181,-28.425,-0.267,-46.891,-2.457,-17.835,-8.883
-29.157,-16.201,-24.81,-3.959,-44.289,-7.178,-19.491,-10.835
-21.55,-9.889,-23.055,-5.664,-43.574,-12.438,-17.337,-8.655
-17.169,-7.748,-28.96,-8.2,-50.58,-16.324,-14.959,-7.777
-17.153,-11.922,-27.534,-12.192,-50.218,-18,-15.463,-10.941
-19.348,-15.606,-15.696,-15.354,-39.249,-19.938,-17.206,-13.665
-21.55,-14.505,-9.322,-15.233,-33.504,-22.184,-16.55,-11.158
-25.511,-16.299,-14.577,-15.028,-39.288,-23.359,-16.415,-8.439
-33.574,-27.076,-15.183,-18.17,-40.398,-24.488,-20.239,-11.117
-40.898,-38.808,0.823,-19.244,-24.802,-23.577,-22.306,-13.375
-42.051,-42.776,12.813,-12.87,-13.249,-17.312,-17.463,-9.36
-40.771,-42.364,-1.922,-4.815,-28.666,-10.796,-11.389,-5.168
-42.241,-43.026,-25.382,-1.908,-52.899,-10.58,-10.16,-6.814
-44.222,-42.757,-28.638,-1.074,-56.767,-12.848,-10.72,-9.122
-42.556,-38.467,-15.775,2.588,-44.461,-10.636,-9.519,-6.706
-38.094,-32.253,-7.709,6.586,-37.063,-4.954,-9.464,-4.05
-35.195,-28.183,-9.679,6.406,-39.688,-1.953,-12.351,-5.988
-35.078,-26.54,-13.459,3.611,-43.999,-3.897,-13.957,-8.72
-36.044,-26.079,-17.871,0.735,-48.983,-8.637,-13.421,-9.407
-40.461,-29.872,-26.207,-5.336,-57.832,-15.464,-17.063,-12.64
-48.327,-38.11,-29.309,-13.684,-61.079,-21.773,-24.278,-18.274
-51.426,-42.726,-19.896,-15.815,-51.816,-21.13,-24.728,-18.764
-48.421,-41.459,-13.791,-12.215,-46.387,-15.727,-17.484,-14.656
-49.515,-43.254,-25.441,-14.808,-58.967,-17.316,-14.984,-15.378
-57.555,-51.049,-40.03,-26.129,-74.313,-27.889,-21.901,-22.304
-62.071,-55.126,-37.258,-33.914,-72.022,-35.703,-27.867,-26.206
-57.663,-50.729,-23.847,-32.408,-58.687,-35.933,-26.723,-22.786
-51.612,-45.727,-20.224,-30.162,-54.773,-35.523,-24.776,-17.775
-49.901,-45.693,-28.689,-32.145,-62.954,-36.942,-26.209,-16.974
-51.59,-47.993,-34.99,-33.843,-69.15,-37.535,-27.015,-20.587
-54.482,-49.836,-30.55,-31.934,-64.547,-36.884,-23.957,-24.075
-56.353,-50.666,-17.531,-27.767,-51.147,-34.187,-19.795,-23.533
-56.671,-51.542,-5.632,-25.125,-38.908,-29.928,-19.288,-22.256
-58.197,-54.694,-7.175,-26.925,-40.538,-28.068,-22.489,-24.289
-62.424,-59.66,-19.766,-31.268,-53.512,-30.377,-25.472,-26.329
-68.199,-64.422,-25.974,-35.364,-59.741,-35.841,-28.425,-26.992
-74.747,-69.453,-24.876,-40.805,-58.041,-43.294,-35.311,-32.108
-79.661,-73.473,-36.058,-47.256,-68.544,-49.155,-43.041,-40.598
-78.87,-72.126,-57.799,-49.105,-89.953,-50.71,-43.083,-42.239
-73.875,-66.417,-66.292,-45.453,-98.159,-50.71,-36.968,-36.867
-71.804,-62.783,-61.062,-42.295,-92.443,-51.098,-34.806,-35.123
-74.487,-62.689,-57.517,-41.823,-88.48,-49.366,-37.69,-38.297
-75.235,-61.238,-52.993,-40.032,-83.805,-44.01,-37.231,-37.376
-70.381,-56.608,-42.866,-35.684,-73.616,-37.896,-31.6,-30.406
-65.468,-53.06,-37.935,-34.05,-68.434,-36.241,-28.988,-26.007
-66.963,-55.219,-47.227,-40.814,-77.343,-42.659,-35.544,-30.964
-73.972,-62.822,-65.214,-54.036,-95.218,-54.672,-46.949,-41.379
-77.688,-67.972,-73.731,-62.271,-103.773,-61.792,-51.935,-46.63
-71.905,-63.928,-60.859,-58.247,-90.363,-57.476,-46.52,-44.057
-65.574,-59.229,-45.492,-52.222,-73.981,-52.165,-41.201,-43.331
-70.742,-66.156,-53.891,-56.52,-81.833,-57.902,-44.974,-50.297
-79.655,-76.589,-72.039,-63.448,-99.931,-65.883,-50.512,-57.361
-73.849,-71.196,-62.018,-55.85,-89.403,-58.365,-44.465,-52.662
-52.713,-49.416,-21.87,-33.639,-48.137,-36.471,-26.582,-33.938
-34.655,-30.462,7.007,-14.099,-18.495,-17.559,-10.417,-12.419
-31.325,-26.905,-1.974,-8.816,-27.462,-11.162,-6.098,-1.712
-36.803,-33.404,-24.664,-14.488,-50.075,-15.2,-11.877,-6.692
-44.308,-42.013,-31.708,-24.383,-56.443,-27.043,-21.847,-22.139
-55.053,-52.982,-33.622,-35.511,-57.656,-42.275,-32.183,-37.821
-65.4,-64.746,-45.904,-44.533,-69.742,-51.951,-40.324,-47.027
-65.968,-69.386,-55.37,-47.238,-79.283,-52.16,-44.369,-48.867
-58.42,-65.619,-50.262,-44.366,-74.135,-48.267,-44.559,-44.632
-52.831,-60.162,-40.063,-40.676,-63.763,-45.168,-42.615,-38.421
-48.835,-54.197,-31.496,-37.507,-55.13,-41.421,-39.411,-35.758
-40.284,-45.554,-19.63,-33.926,-43.378,-35.85,-35.971,-36.593
-32.859,-40.047,-10.318,-33.612,-34.216,-33.147,-35.285,-37.903
-37.237,-45.186,-23.103,-41.678,-47.144,-39.134,-39.666,-41.983
-52.101,-58.534,-57.756,-56.213,-81.988,-53.414,-47.523,-50.795
-66.974,-71.518,-85.562,-69.137,-110.047,-67.729,-54.112,-58.173
-74.8,-79.087,-90.699,-74.84,-115.471,-74.107,-54.884,-57.551
-76.428,-81.761,-86.124,-75.053,-111,-74.81,-50.257,-51.537
-76.502,-82.235,-81.265,-74.164,-105.955,-75.712,-46.269,-47.056
-76.865,-81.839,-72.246,-73.067,-96.87,-75.408,-47.31,-45.839
-75.523,-79.9,-61.851,-70.728,-86.725,-71.516,-51.015,-46.987
-71.078,-75.459,-57.438,-66.945,-82.501,-66.528,-51.127,-49.934
-63.923,-67.543,-51.239,-60.583,-76.31,-60.867,-43.932,-48.847
-54.819,-56.139,-31.501,-51.207,-56.587,-52.289,-33.709,-39.4
-46.856,-46.217,-14.517,-43.268,-39.644,-43.831,-28.595,-29.163
-44.851,-45.147,-24.759,-42.096,-49.898,-41.774,-30.677,-27.455
-49.283,-52.106,-48.975,-46.584,-73.951,-46.423,-35.696,-33.441
-55.176,-57.734,-59.139,-50.13,-83.613,-51.262,-38.411,-39.724
-56.466,-55.632,-52.694,-47.396,-76.523,-49.693,-35.924,-41.595
-51.08,-48.026,-37.772,-39.34,-61.147,-41.739,-30.094,-40.083
-44.021,-41.933,-21.091,-31.84,-44.075,-33.729,-25.166,-36.53
-40.069,-40.66,-12.239,-27.882,-34.496,-29.325,-22.254,-30.332
-36.294,-39.557,-11.183,-24.155,-32.454,-25.533,-19.006,-22.898
-29.661,-34.551,-7.805,-18.647,-28.378,-20.287,-15.191,-18.548
-24.384,-30.187,-1.536,-16.656,-21.925,-17.67,-15.071,-20.9
-24.384,-31.462,-2.628,-22.484,-23.025,-21.176,-19.713,-26.726
-24.127,-32.517,-11.988,-29,-32.254,-26.06,-21.538,-26.134
-16.7,-26.386,-17.405,-27.359,-37.351,-25.336,-15.481,-16.093
-7.251,-19.897,-12.43,-22.475,-31.925,-20.717,-8.293,-6.077
-4.923,-21.06,-7.427,-24.388,-26.402,-19.739,-6.771,-4.322
-8.451,-24.042,-16.018,-32.258,-34.527,-24.439,-7.678,-8.279
-11.697,-22.476,-31.175,-38.601,-49.469,-29.994,-6.826,-10.83
-13.828,-21.25,-33.868,-40.861,-52.233,-32.971,-6.427,-10.633
-16.254,-25.026,-24.883,-40.385,-43.371,-33.574,-7.844,-11.491
-16.827,-28.978,-17.103,-36.219,-35.671,-31.072,-7.059,-12.581
-12.428,-26.62,-9.176,-26.659,-27.939,-23.693,-1.404,-9.374
-4.052,-18.194,3.863,-13.727,-15.112,-11.84,6.639,-1.886
2.603,-10.497,12.594,-4.449,-6.462,-1.522,11.294,3.421
1.322,-11.254,7.076,-6.251,-12.161,-2.174,7.059,-1.052
-6.295,-19.04,-4.351,-15.616,-23.859,-12.265,-2.784,-11.248
-10.016,-22.505,-4.949,-18.361,-24.551,-16.141,-6.384,-12.532
-4.359,-15.38,9.084,-7.851,-10.573,-4.832,1.457,-1.727
4.577,-3.831,26.937,7.559,7.185,12.513,13.634,9.285
9.088,3.453,35.99,17.541,16.432,22.272,22.044,14.126
8.894,4.585,32.619,20.535,13.662,22.386,25.317,17.857
9.014,4.291,25.025,20.941,6.828,21.181,25.014,22.691
12.841,7.604,22.509,21.744,5.036,23.214,21.84,23.569
18.291,13.098,23.989,21.943,7.178,24.381,18.312,20.043
20.472,14.411,22.526,18.763,6.259,20.658,17.177,16.829
18.539,10.124,15.058,11.683,-0.798,13.395,15.465,12.731
17.029,6.453,4.917,4.265,-10.466,6.67,9.981,5.234
18.093,7.448,-2.244,-0.776,-17.058,2.167,4.174,-1.78
18.677,10.255,-5.698,-5.904,-20.219,-2.72,0.377,-6.595
17.631,11.955,-10.365,-13.475,-25.007,-9.3,-3.318,-10.409
16.842,12.43,-18.46,-21.499,-33.264,-14.707,-5.764,-9.219
12.669,7.593,-26.517,-30.742,-41.324,-20.725,-8.313,-5.868
-2.445,-9.147,-33.848,-46.147,-48.664,-34.615,-18.412,-14.314
-22.02,-29.861,-42.043,-61.296,-56.829,-50.32,-30.691,-29.168
-24.945,-32.946,-42.162,-57.939,-56.734,-48.143,-26.866,-24.643
-6.833,-14.841,-24.955,-35.352,-39.498,-27.775,-8.13,-2.846
8.521,0.611,-2.772,-17.792,-17.833,-14.443,2.662,4.619
4.687,-2.193,5.594,-18.469,-10.087,-19.128,-1.912,-7.927
-4.078,-10.008,3.791,-22.351,-12.123,-24.094,-6.54,-16.107
0.72,-6.617,11.065,-13.951,-4.932,-14.757,-2.743,-10.328
14.354,4.019,32.831,2.52,16.769,1.962,2.833,-1.978
21.22,9.952,49.905,14.826,34.077,13.505,5.172,-0.556
18.612,9.724,41.753,19.202,26.172,18.679,6.809,-2.668
13.564,8.182,15.107,19.537,-0.786,21.486,9.452,1.488
8.421,5.867,-4.576,17.355,-21.003,19.385,10.515,8.995
5.996,5.876,-3.608,15.218,-19.971,14.415,10.444,8.632
12.37,14.411,10.953,19.044,-4.721,16.539,11.206,2.842
21.226,22.825,21.226,23.868,6.17,21.515,8.476,-0.677
19.228,16.546,16.11,19.189,1.184,17.315,1.219,-1.404
10.927,4.162,4.583,10.875,-10.516,10.36,-2.276,3.605
11.972,5.08,0.878,10.896,-14.26,12.126,0.8,14.056
24.898,19.349,4.779,16.728,-9.999,18.452,4.137,17.3
42.006,35.719,11.168,20.725,-3.002,22.846,5.617,8.597
56.843,49.013,18.826,20.735,5.303,23.957,8.069,-0.428
62.074,55.312,18.181,15.906,5.28,19.334,11.942,-1.674
52.518,49.451,3.232,7.663,-9.304,12.293,16.42,4.451
35.338,34.408,-6.316,-0.408,-18.738,7.663,19.299,15.137
24.717,22.178,-0.182,-7.337,-12.238,0.213,17.254,22.698
24.58,20.189,-2.445,-12.565,-13.722,-10.424,11.974,19.442
28.387,24.973,-17.207,-13.31,-27.569,-12.108,9.01,9.18
34.37,33.812,-15.664,-6.685,-25.08,-0.338,11.879,6.458
44.223,47.602,3.413,6.194,-4.98,14.663,20.02,19.789
50.584,59.104,18.747,17.188,11.702,20.67,26.359,37.599
44.083,56.992,28.691,18.204,23.562,14.35,22.873,40.265
27.005,40.908,27.647,10.456,24.551,3.748,12.419,24.902
10.379,22.928,1.076,2.034,-0.724,-2.117,6.265,10.083
4.965,17.88,-26.671,1.455,-28.028,-2.311,11.007,14.141
12.746,28.136,-15.727,11.056,-16.693,2.276,21.803,30.891
22.735,37.396,17.199,21.771,17.166,10.477,27.891,38.989
24.309,33.089,26.673,23.475,27.89,16.281,25.042,32.366
20.12,23.532,15.554,19.435,17.999,17.218,19.59,23.707
16.823,17.978,17.578,18.948,21.203,20.15,18.831,25.471
18.817,17.252,36.938,25.139,41.676,31.226,23.733,36.814
31.669,28.064,49.874,36.641,55.456,46.365,32.108,45.14
50.803,50.104,45.367,46.518,51.456,53.219,37.884,41.535
59.684,63.769,36.119,44.797,42.651,45.452,33.334,32.248
56.093,61.263,33.006,35.447,40.119,35.135,25.554,31.234
57.046,60.726,36.365,35.053,44.099,40.028,30.24,42.776
68.485,72.737,53.463,46.897,61.819,57.489,41.882,56.762
77.251,84.956,91.195,56.406,100.279,65.805,42.111,62.02
71.489,82.212,111.847,52.93,121.687,54.837,32.897,55.136
48.06,59.633,58.609,37.713,69.097,36.652,27.665,41.152
18.925,31.296,-28.913,20.891,-17.849,27.115,26.57,34.945
11.435,27.174,-47.298,17.131,-35.662,31.921,25.469,43.707
31.555,52.253,3.22,25.087,15.397,39.876,24.69,47.61
50.909,73.369,38.624,28.408,51.184,37.324,23.908,33.416
52.496,71.184,37.344,27.512,50.069,32.784,26.68,25.746
49.233,61.941,40.245,35.111,53.089,39.649,37.331,42.154
50.429,57.873,56.483,47.418,69.599,50.721,49.817,62.661
47.869,49.557,54.449,50.353,68.112,52.424,52.574,68.999
39.471,35.289,37.573,43.943,52.114,46.859,43.85,65.428
38.567,32.369,53.598,41.241,69.148,46.63,33.062,57.17
48.468,44.384,97.311,43.855,113.602,49.594,24.458,42.543
50.802,51.292,91.097,39.713,107.568,41.108,17.523,29.57
36.421,45.708,13.262,29.32,29.557,26.659,18.59,33.042
27.263,46.62,-44.748,27.744,-28.398,27.212,27.795,47.001
40.364,62.469,-15.502,35.529,1.169,38.344,31.902,49.797
54.071,69.249,45.488,34.839,62.14,34.566,22.967,34.328
47.274,51.276,63.703,22.025,79.921,17.383,6.791,11.306
35.926,29.511,41.254,12.817,57.214,10.34,-6.055,-3.071
36.767,22.874,12.289,10.998,28.457,10.6,-8.819,1.021
38.844,23.208,-5.3,7.052,11.283,-0.958,-3.889,15.281
31.482,19.369,-10.074,0.209,6.931,-19.642,-2.113,19.295
21.3,11.717,-16.082,-5.837,1.505,-29.322,-7.515,5.488
14.464,3.693,-28.718,-10.646,-10.286,-29.02,-8.831,-7.826
11.269,-1.468,-20.884,-9.034,-1.466,-21.869,-1.709,-4.215
14.755,2.264,14.855,2.668,35.164,-6.171,1.955,4.353
25.273,17.249,29.161,17.04,50.024,12.387,2.205,8.009
35.892,34.746,4.681,27.965,25.965,26.049,11.771,19.192
44.681,45.884,6.691,37.247,28.737,34.318,24.319,37.333
55.724,51.179,59.407,44.27,82.411,35.789,25.348,45.329
63.198,50.563,83.876,45.382,107.452,31.606,20.735,42.266
59.979,43.739,46.918,42.763,70.696,30.829,21.183,39.128
56.201,40.368,24.903,42.96,48.961,35.283,24.723,39.851
60.182,44.998,52.406,44.807,76.889,33.31,25.455,39.769
60.124,44.66,69.101,39.648,93.915,20.662,19.701,31.306
48.806,34.35,42.324,29.716,67.304,13.503,11.943,18.824
40.752,30.022,9.293,28.885,34.488,24.614,14.438,18.051
47.216,39.337,6.975,39.654,32.642,42.719,27.332,31.459
59.059,50.9,35.002,51.181,61.153,53.41,36.544,45.305
66.179,58.477,68.823,57.133,95.027,57.464,36.304,48.516
66.396,61.259,78.008,52.186,103.978,50.19,30.509,39.356
53.776,50.109,48.154,29.938,74.101,23.131,20.336,23.659
30.469,26.418,3.992,3.952,30.262,-2.3,8.877,10.999
16.06,10.615,-13.11,-3.259,13.7,-1.833,2.957,7.248
19.17,12.224,-2.768,3.903,24.762,6.336,4.972,11.512
24.904,18.528,2.761,5.566,31.221,-1.042,12.082,17.505
21.958,17.743,-0.666,0.734,28.775,-9.678,17.838,17.882
16.911,13.352,9.365,1.566,39.318,-1.21,16.946,12.925
18.505,13.83,28.633,9.644,58.173,14.401,13.061,11.025
25.896,19.652,31.839,17.156,60.446,23.443,11.744,14.823
33.471,24.484,26.38,19.829,54.553,25.977,10.71,16.495
35.176,21.903,28.343,18.389,56.761,23.573,7.937,11.76
27.711,10.725,19.248,14.563,47.704,18.392,7.012,6.322
16.275,-1.079,-1.3,11.305,26.646,16.914,9.277,5.888
8.711,-4.056,-4.667,13.219,22.774,23.936,12.493,9.336
9.301,2.693,4.569,21.138,31.701,34.637,15.205,13.217
21.256,15.044,10.502,29.721,37.266,37.714,16.953,16.209
38.967,27.098,22.726,34.54,48.986,32.875,18.574,16.985
46.294,30.389,37.629,35.228,63.278,29.391,21.468,15.601
37.155,22.589,34.523,32.177,59.573,27.424,24.188,15.693
25.396,14.134,20.474,27.981,45.118,23.828,22.992,15.663
25.971,16.149,22.957,27.634,47.365,23.031,17.714,10.003
35.916,25.715,42.06,31.574,66.187,27.079,14.427,4.521
39.287,28.978,48.708,32.906,72.345,30.694,16.441,6.516
26.108,16.383,26.333,24.904,49.202,27.934,16.511,6.202
4.094,-5.379,-10.104,10.414,11.705,17.925,8.844,-6.32
-9.153,-18.772,-29.729,-0.442,-9.017,6.367,0.119,-20.701
-6.782,-16.855,-19.624,-3.179,0.354,0.153,-2.392,-23.16
0.846,-10.189,-3.298,-2.328,16.204,1.084,-0.53,-18.155
3.686,-7.313,-3.666,-1.363,15.17,5.74,1.762,-17.688
2.5,-6.021,-10.491,-0.013,7.566,8.741,2.181,-22.049
0.775,-5.115,-3.655,0.704,13.917,6.735,-0.045,-23.358
0.97,-4.767,19.008,1.155,36.302,2.165,-0.394,-18.89
3.438,-2.815,32.736,3.786,49.56,1.04,6.289,-13.386
4.752,-1.065,13.521,7.409,29.558,4.979,16.664,-11.268
4.614,-2.182,-15.771,9.494,-0.722,8.192,23.349,-10.359
8.032,-2.018,-14.876,11.804,-0.778,6.174,26.102,-4.995
16.076,3.525,12.009,17.065,25.372,4.387,30.149,4.804
24.023,11.309,31.878,23.043,44.522,8.531,34.864,11.697
30.552,17.994,36.776,25.524,48.526,13.187,34.031,10.968
37.947,24.445,43.39,24.147,54.318,10.049,28.853,6.379
43.886,29.303,45.905,19.761,56.255,-4.013,28.278,4.008
41.419,28.174,20.143,12.813,29.911,-22.649,32.114,2.571
28.454,20.377,-20.542,6.906,-11.4,-29.396,30.513,-3.389
15.536,10.751,-30.192,4.915,-21.159,-20.661,23.762,-9.415
15.168,6.281,4.714,6.638,14.441,-12.249,23.157,-5.079
26.562,13.18,45.72,14.359,56.28,-7.291,30.574,7.926
39.543,28.787,51.137,25.759,61.994,2.154,36.42,17.105
43.859,38.346,23.881,28.286,34.708,5.69,38.901,17.441
37.883,36.72,4.169,21.32,14.99,-2.508,44.577,16.237
31.564,36.229,14.587,20.746,25.22,-1.152,49.74,17.113
32.109,40.768,33.239,28.249,43.379,17.738,44.444,13.569
38.189,45.113,44.074,31.803,53.857,31.672,33.185,5.977
47.335,51.325,62.158,31.146,72.077,27.528,30.463,5.624
52.646,57.478,73.195,32.158,83.278,19.189,39.625,15.361
47.139,56.743,41.907,34.529,51.485,21.604,48.732,23.906
35.75,50.947,-1.043,34.948,7.654,26.842,45.004,20.899
25.043,40.519,-2.301,27.564,6.039,15.487,29.802,8.478
17.343,25.551,18.867,13.718,27.496,-8.089,15.458,-2.64
19.761,20.801,29.503,9.709,38.416,-15.996,8.063,-6.49
27.688,28.878,33.803,19.088,42.452,-3.463,6.132,-6.323
16.981,22.567,11.689,19.218,19.494,2.496,10.5,-5.812
-12.117,-4.141,-42.979,3.329,-36.12,-6.483,16.839,-5.936
-24.123,-16.956,-63.235,-3.674,-56.846,-7.316,13.753,-8.869
-7.291,-2.528,-18.43,8.055,-12.067,7.379,2.256,-14.388
11.135,11.998,32.416,17.964,38.708,17.786,-5.512,-18.004
11.99,8.494,41.723,13.276,47.664,13.216,-7.374,-18.405
0.046,-3.283,12.989,2.137,18.369,0.472,-9.655,-19.146
-12.552,-10.591,-24.879,-6.601,-20.083,-13.874,-13.974,-22.007
-17.345,-13.524,-37.101,-11.313,-32.681,-25.188,-17.639,-24.654
-16.161,-17.55,-23.562,-12.332,-19.293,-27.115,-18.434,-24.444
