EEG 1,EEG 2,EEG 3,EEG 4,EEG 5,EEG 6,EEG 7,EEG 8
-120.666,-123.23,-81.91,-102.188,-78.071,-80.085,-104.463,-107.049
-114.752,-115.851,-78.001,-94.606,-74.443,-73.392,-98.702,-101.327
-118.044,-117.553,-88.338,-96.556,-85.059,-76.276,-100.757,-103.968
-128.116,-125.863,-99.38,-105.293,-95.971,-84.503,-109.475,-113.216
-133.859,-129.433,-94.37,-109.05,-90.485,-87.777,-114.174,-117.993
-128.113,-120.512,-78.121,-100.44,-73.959,-80.082,-106.977,-111.149
-118.175,-107.311,-73.801,-88.309,-69.837,-69.53,-96.034,-100.968
-116.168,-104.182,-87.714,-87.57,-84.055,-69.31,-96.545,-101.076
-121.707,-110.963,-101.804,-97.703,-98.151,-78.102,-106.848,-110.003
-125.25,-115.679,-105.093,-105.377,-101.318,-84.077,-111.338,-114.939
-123.595,-114.496,-102.035,-106.206,-98.364,-85.282,-107.353,-113.537
-123.07,-114.875,-99.057,-109.278,-95.558,-89.857,-108.672,-116.314
-126.975,-119.524,-99.874,-117.689,-96.362,-97.543,-119.652,-125.209
-128.946,-122.209,-103.963,-120.887,-100.409,-99.013,-126.987,-127.795
-125.115,-120.778,-107.833,-114.184,-104.192,-93.636,-122.516,-119.33
-120.065,-118.723,-108.196,-106.759,-104.115,-88.219,-114.518,-110.241
-115.865,-115.426,-102.329,-104.139,-97.65,-83.641,-111.498,-107.36
-107.797,-106.716,-89.428,-99.813,-84.659,-77.136,-108.63,-104.371
-94.932,-93.317,-76.753,-88.75,-72.562,-68.531,-98.078,-95.01
-87.3,-84.43,-77.797,-79.16,-74.283,-62.374,-86.616,-86.479
-93.917,-88.029,-91.807,-81.086,-88.711,-64.975,-87.337,-88.868
-107.054,-97.433,-98.459,-87.537,-95.704,-71.515,-95.21,-95.89
-109.755,-98.101,-84.88,-82.057,-82.339,-66.721,-91.408,-91.535
-100.349,-89.559,-63.585,-65.923,-60.927,-50.175,-75.149,-76.382
-95.981,-87.232,-56.661,-59.675,-54.022,-42.577,-67.539,-69.512
-105.878,-98.869,-68.496,-72.336,-66.571,-54.229,-77.434,-79.162
-118.89,-113.62,-82.41,-89.327,-81.396,-70.588,-90.219,-92.191
-121.549,-116.997,-82.904,-94.059,-82.242,-75.965,-92.013,-94.609
-114.921,-108.567,-72.436,-87.212,-71.771,-71.541,-85.61,-88.213
-111.791,-102.455,-66.567,-83.588,-66.015,-69.314,-85,-86.63
-117.637,-106.697,-72.849,-90.748,-72.549,-75.758,-96.155,-94.942
-122.328,-111.322,-82.429,-98.736,-82.464,-84.098,-107.159,-102.324
-119.535,-108.293,-90.625,-99.749,-91.069,-86.573,-108.475,-102.84
-118.711,-106.633,-104.5,-101.889,-105.278,-87.738,-109.707,-105.852
-126.822,-114.633,-122.73,-112.336,-123.466,-96.404,-120.951,-117.469
-135.374,-124.746,-132.397,-123.469,-132.614,-108.857,-133.706,-128.77
-134.982,-126.727,-127.18,-125.374,-126.709,-112.881,-135.238,-129.788
-128.627,-122.658,-114.274,-120.916,-113.249,-108.307,-128.903,-124.325
-124.51,-121.852,-106.102,-120.272,-104.891,-106.951,-127.268,-123.728
-123.909,-125.605,-109.317,-124.121,-108.435,-109.863,-131.266,-128.726
-119.517,-123.148,-116.58,-120.982,-116.126,-104.348,-128.633,-126.917
-108.872,-110.468,-113.54,-107.373,-113.029,-90.204,-116.55,-114.512
-103.636,-103.472,-102.329,-97.905,-101.44,-84.86,-109.435,-105.819
-111.951,-113.081,-100.615,-102.182,-99.575,-93.418,-114.287,-110.105
-121.912,-123.376,-107.485,-108.708,-106.573,-99.995,-119.01,-116.895
-119.199,-117.665,-103.489,-105.281,-102.739,-94.452,-114.667,-114.799
-110.649,-107.156,-91.371,-99.158,-90.787,-86.971,-109.911,-109.362
-111.868,-109.982,-91.982,-102.665,-91.592,-89.867,-114.414,-110.873
-120.855,-120.558,-103.67,-112.131,-103.357,-98.767,-123.365,-117.612
-124.256,-123.112,-110.569,-115.758,-110.192,-101.907,-126.819,-121.394
-120.521,-117.781,-112.475,-111.722,-112.143,-97.606,-123.633,-119.704
-119.688,-115.173,-116.158,-109.079,-116.077,-94.865,-121.286,-118.189
-124.562,-116.745,-120.338,-113.693,-120.461,-99.662,-124.863,-121.957
-125.514,-113.534,-120.419,-118.827,-120.506,-105.276,-129.906,-126.533
-116.926,-103.165,-114.445,-115.625,-114.429,-101.994,-129.069,-124.376
-109.025,-98.618,-106.647,-108.529,-106.652,-93.985,-123.592,-118.102
-115.452,-111.937,-104.39,-110.45,-104.377,-96.836,-124.098,-119.029
-131.391,-132.666,-106.261,-121.388,-106.012,-111.905,-133.957,-128.746
-139.035,-139.8,-109.574,-126.757,-109.068,-120.185,-140.459,-134.242
-136.063,-134.318,-122.086,-123.718,-121.604,-116.51,-137.077,-131.404
-134.384,-132.72,-140.609,-125.17,-140.534,-118.101,-135.813,-132.249
-135.824,-136.495,-148.643,-133.79,-149.146,-128.504,-143.24,-140.531
-134.215,-136.556,-146.615,-138.319,-147.354,-131.853,-148.089,-144.831
-129.476,-131.524,-142.669,-133.058,-143.1,-123.118,-141.567,-138.542
-125.507,-124.645,-131.696,-123.895,-131.774,-113.819,-131.06,-128.217
-125.083,-119.907,-116.221,-118.84,-116.303,-111.981,-127.552,-122.779
-129.327,-123.267,-112.281,-119.764,-112.523,-114.279,-131.061,-124.391
-134.714,-132.531,-119.046,-121.396,-119.394,-114.133,-133.546,-128.013
-135.533,-136.546,-119.336,-118.835,-119.861,-109.595,-131.323,-128.277
-133.575,-133.763,-111.14,-115.276,-111.919,-105.235,-129.043,-127.127
-134.877,-132.46,-107.543,-115.935,-108.421,-105.621,-130.507,-129.194
-138.499,-134.199,-113.749,-119.001,-114.645,-108.591,-132.539,-132.754
-139.354,-134.475,-122.614,-118.547,-123.903,-108.503,-129.973,-131.507
-138.519,-133.825,-125.158,-114.013,-127.34,-105.214,-125.043,-125.266
-142.688,-137.329,-122.486,-112.966,-125.435,-106.326,-126.967,-122.913
-150.963,-143.078,-122.187,-118.494,-125.144,-113.824,-135.52,-127.686
-151.374,-140.809,-121.643,-121.572,-124.128,-116.475,-138.485,-130.273
-138.881,-127.465,-115.104,-116.131,-117.388,-108.547,-131.318,-124.618
-125.43,-114.491,-109.195,-109.963,-111.741,-101.975,-123.095,-117.791
-123.058,-113.806,-111.148,-111.354,-113.923,-106.187,-121.84,-117.91
-128.211,-122.441,-117.727,-114.887,-120.312,-111.155,-123.606,-120.76
-130.278,-126.652,-121.797,-109.824,-124.101,-103.178,-119.226,-116.356
-126.922,-120.375,-118.719,-97.33,-121.19,-86.586,-109.072,-105.159
-124.425,-112.97,-110.706,-89.772,-113.732,-78.509,-103.686,-98.293
-125.149,-113.166,-103.265,-92.153,-106.733,-84.206,-107.703,-100.881
-121.079,-113.029,-95.795,-93.286,-99.32,-88.045,-110.881,-103.23
-108.294,-103.661,-88.965,-84.674,-92.36,-79.264,-104.186,-96.563
-98.652,-95.047,-90.097,-75.854,-93.506,-70.474,-95.825,-88.545
-101.873,-98.606,-97.006,-76.665,-100.644,-73.249,-97.099,-89.904
-109.101,-106.642,-98.112,-80.679,-101.941,-78.449,-103.193,-96.065
-107.456,-105.247,-91.665,-77.31,-95.448,-74.376,-101.463,-95.003
-100.893,-96.079,-88.154,-69.639,-91.777,-66.596,-93.46,-88.678
-103.712,-93.721,-95.267,-70.918,-98.814,-69.281,-94.184,-91.504
-116.155,-102.162,-105.435,-83.339,-109.133,-82.027,-106.983,-105.063
-122.497,-108.189,-103.222,-92.26,-107.322,-88.296,-116.657,-113.612
-113.717,-101.497,-87.544,-86.634,-91.94,-80.246,-111.175,-107.185
-99.267,-88.428,-74.877,-74.637,-79.121,-71.262,-97.506,-94.275
-94.001,-82.598,-74.802,-71.1,-78.691,-74.597,-91.631,-89.267
-99.057,-87.392,-81.88,-75.817,-85.707,-82.626,-96.18,-93.103
-102.711,-92.722,-90.634,-76.549,-94.764,-80.684,-98.123,-94.117
-99.52,-91.178,-96.874,-70.256,-101.364,-70.172,-91.997,-88.344
-96.532,-88.512,-96.26,-66.644,-100.964,-64.118,-88.297,-85.372
-97.264,-90.544,-89.488,-69.715,-94.087,-66.345,-91.561,-88.968
-94.798,-92.119,-79.547,-71.631,-83.539,-69.003,-91.539,-89.372
-85.439,-87.393,-70.545,-67.839,-73.859,-67.216,-83.445,-81.754
-75.828,-79.912,-68.389,-63.475,-71.558,-63.613,-76.303,-74.451
-73.88,-77.726,-73.861,-64.499,-77.209,-62.847,-78.256,-75.425
-78.059,-81.988,-78.969,-69.377,-82.329,-65.591,-85.318,-81.259
-78.606,-84.006,-76.287,-69.593,-79.523,-65.721,-86.147,-81.444
-71.539,-78.101,-67.736,-61.846,-71.008,-59.815,-78.017,-73.52
-64.377,-70.867,-58.537,-54.641,-62.073,-54.649,-71.488,-67.507
-63.551,-69.869,-50.891,-54.956,-54.665,-55.329,-73.48,-69.642
-64.285,-70.722,-48.003,-56.947,-51.814,-55.793,-75.641,-71.562
-60.901,-65.915,-52.616,-53.407,-56.352,-51.972,-68.813,-65.029
-59.28,-59.578,-60.12,-48.381,-63.636,-50.145,-59.111,-56.533
-64.66,-59.014,-62.966,-46.417,-66.085,-51.392,-56.085,-53.667
-67.744,-59.226,-59.843,-42.422,-62.738,-46.855,-56.761,-51.292
-58.375,-50.593,-53.272,-32.104,-56.294,-33.998,-53.566,-43.269
-42.771,-36.066,-46.266,-21.235,-49.279,-21.73,-48.174,-34.732
-35.541,-28.615,-45.376,-19.18,-47.881,-19.564,-48.832,-35.014
-40.375,-33.327,-52.538,-26.991,-54.547,-27.956,-56.218,-43.657
-48.442,-42.211,-58.546,-36.381,-60.702,-38.937,-61.726,-51.383
-51.428,-45.733,-57.459,-40.232,-60.131,-44.097,-60.967,-53.437
-48.187,-42.323,-53.82,-38.436,-56.618,-40.89,-58.158,-52.477
-42.993,-37.378,-51.855,-34.851,-54.324,-34.667,-57.392,-51.139
-39.276,-34.4,-49.869,-32.013,-52.329,-32.92,-56.685,-48.724
-35.07,-30.335,-44.741,-28.223,-47.727,-34.066,-52.083,-43.694
-28.986,-23.874,-39.762,-21.973,-42.981,-30.944,-45.113,-37.383
-25.583,-21.32,-41.524,-17.591,-44.386,-25.821,-41.04,-33.907
-28.161,-26.341,-45.404,-19.646,-48.117,-26.184,-40.68,-34.882
-31.264,-30.308,-40.384,-23.603,-43.455,-28.652,-39.34,-35.596
-27.816,-24.291,-27.584,-21.584,-30.801,-25.244,-34.042,-30.713
-20.624,-14.473,-17.47,-14.784,-20.316,-18.863,-27.504,-22.385
-18.805,-12.98,-16.849,-11.148,-19.322,-17.544,-24.468,-17.624
-24.072,-19.727,-25.303,-14.02,-27.604,-21.734,-26.944,-19.344
-26.979,-22.654,-34.233,-17.18,-36.284,-24.016,-30.462,-22.24
-21.253,-15.591,-34.287,-13.839,-36.044,-19.478,-28.174,-20.074
-14.409,-7.212,-27.25,-8.281,-29.022,-13.808,-21.996,-15.914
-14.317,-5.652,-21.228,-8.041,-23.387,-14.081,-20.008,-16.645
-15.989,-6.272,-17.184,-10.029,-19.746,-16.581,-22.372,-19.768
-12.902,-3.724,-11.509,-7.986,-14.112,-14.63,-22.461,-18.156
-10.03,-2.929,-9.694,-6.162,-11.958,-12.018,-21.313,-15.273
-11.824,-6.576,-18.053,-10.165,-20.035,-15.901,-24.6,-18.582
-9.937,-5.308,-26.596,-13.029,-28.758,-21.429,-27.098,-22.302
0.919,6.021,-25.269,-6.729,-27.729,-18.229,-20.415,-16.753
9.717,15.703,-22.354,2.098,-24.694,-9.447,-11.172,-7.387
5.617,11.594,-27.203,1.771,-29.24,-8.424,-11.638,-6.498
-4.332,0.471,-32.565,-5.994,-34.511,-16.376,-18.804,-12.866
-6.091,-2.462,-26.396,-9.699,-28.33,-20.577,-20.344,-14.825
0.374,3.057,-11.642,-7.198,-13.528,-17.013,-15.454,-10.545
5.3,6.063,-1.541,-6.25,-3.455,-15.161,-12.341,-8.85
7.1,4.387,-0.597,-7.527,-2.53,-17.374,-11.065,-10.26
11.481,5.328,-3.041,-3.521,-4.876,-14.159,-5.796,-5.823
18.304,11.507,-3.401,6.208,-5.215,-3.599,2.563,4.732
20.051,16.035,-2.741,12.357,-4.757,3.125,6.777,10.441
13.491,13.129,-6.608,9.622,-8.937,-0.395,2.183,5.993
5.432,6.975,-14.437,2.653,-17.046,-8.834,-7.165,-1.783
4.826,6.744,-15.399,-0.581,-18.09,-14.231,-11.127,-4.23
11.987,14.58,-4.141,3.404,-6.667,-12.239,-6.328,-0.314
16.875,20.603,6.08,8.407,3.636,-7.375,-2.47,2.506
13.241,16.986,1.081,6.325,-1.55,-8.412,-7.17,-1.828
9.189,11.471,-10.81,1.137,-13.624,-12.79,-13.185,-7.888
13.873,14.441,-11.866,2.837,-14.724,-9.8,-10.778,-6.403
21.164,20.254,-5.019,8.346,-7.835,-1.998,-4.385,-0.468
18.701,16.075,-5.642,4.9,-8.23,-4.125,-5.971,-2.019
10.042,5.864,-11.68,-6.077,-14.024,-16.729,-14.476,-10.874
11.363,6.761,-10.401,-8.998,-12.885,-23.065,-16.965,-14.201
24.64,20.579,-0.944,-0.629,-3.737,-16.476,-11.016,-8.727
33.15,30.06,4.518,4.543,1.745,-9.927,-7.396,-4.512
26.895,24.784,-6.451,-1.917,-9.047,-14.112,-10.876,-6.924
14.218,11.787,-27.219,-11.991,-29.855,-23.785,-16.463,-12.111
4.963,1.202,-36.639,-17.371,-39.28,-30.323,-21.046,-17.379
-1.782,-4.928,-29.093,-20.074,-31.188,-33.176,-25.662,-23.198
-8.202,-8.706,-18.399,-22.81,-19.452,-33.929,-29.471,-27.596
-7.349,-7.238,-14.649,-19.325,-14.712,-28.567,-26.054,-23.7
7.234,4.913,-11.529,-3.588,-10.912,-14.615,-10.75,-7.093
24.524,20.734,-3.868,14.407,-2.749,-1.877,6.142,11.598
26.345,23.815,-2.682,18.607,-1.253,-1.304,9.218,16.194
15.377,14.094,-10.272,10.949,-8.798,-8.312,0.945,8.723
10.195,9.564,-10.59,5.892,-9.132,-11.58,-3.9,4.08
16.363,17.842,-0.11,8.347,1.389,-8.457,0.366,7.856
21.828,24.998,6.604,10.259,8.067,-5.866,5.506,12.307
16.324,17.086,3.622,3.52,5.02,-11.767,1.859,8.306
6.238,2.624,-1.465,-6.708,0.012,-22.423,-6.212,-0.528
7.685,3.687,-2.449,-5.653,-0.896,-22.58,-4.482,0.098
24.655,25.075,3.103,10.811,4.486,-5.721,10.276,15.067
40.772,44.566,10.979,28.039,12.093,14.026,24.226,30.473
40.809,43.445,10.419,32.473,11.407,20.358,24.722,32.36
31.335,32.058,2.151,29.327,3.127,16.32,16.653,25.871
26.879,28.724,-0.019,29.42,1.018,14.048,12.72,23.026
28.322,32.317,9.021,31.605,10.153,13.833,14.617,23.427
28.686,32.085,18.267,29.66,19.244,9.777,15.44,21.108
29.725,29.591,17.101,26.811,17.568,6.683,16.29,19.711
38.612,35.086,13.271,31.969,13.298,13.84,24.823,26.825
51.83,47.381,23.18,43.949,23.224,28.014,37.523,38.627
56.092,52.676,40.215,50.629,40.579,35.894,41.679,43.65
45.828,43.873,38.439,44.97,39.097,30.969,34.201,38.211
32.033,31.378,17.221,34.44,18.059,21.183,25.102,29.834
29.87,30.002,6.948,31.348,7.917,18.446,24.4,28.023
38.416,38.036,18.95,35.591,20.036,22.985,29.925,32.171
42.534,41.16,28.276,35.281,29.484,24.067,31.05,32.46
37.247,37.247,20.271,27.292,21.638,17.783,25.501,26.582
36.115,39.946,16.464,24.638,17.988,14.612,23.726,25.59
47.276,53.288,33.438,34.892,35.021,21.367,31.149,35.226
57.014,62.268,48.389,45.236,49.97,28.086,37.177,43.206
52.209,57.078,36.192,42.746,37.877,25.454,32.682,38.407
40.6,46.498,10.921,33.333,12.835,19.227,24.326,28.238
35.609,41.673,-0.498,28.671,1.506,17.907,21.318,24.151
38.588,42.272,3.333,29.536,5.052,19.725,22.305,25.307
42.161,41.533,7.585,29.195,8.814,16.971,21.527,24.648
42.01,38.704,9.218,26.191,10.265,10.344,19.62,21.832
41.943,40.039,17.035,26.723,18.449,10.102,22.458,23.398
45.896,46.793,29.171,32.628,31.057,17.543,30.084,30.591
48.843,50.599,32.055,35.309,33.914,20.291,33.495,34.292
44.599,44.957,23.644,28.109,24.969,11.93,27.107,27.974
38.761,36.243,18.701,18.228,19.646,2.31,18.825,19.635
41.351,36.157,25.573,17.94,26.764,3.817,20.428,21.511
49.344,44.153,32.03,26.692,33.607,14.436,31.067,31.824
49.93,47.264,24.722,31.07,26.221,19.378,37.585,36.993
42.22,40.988,12.506,26.169,13.741,13.136,33.847,32.766
41.687,38.608,16.709,26.086,17.891,11.476,31.763,32.269
54.686,49.162,40.003,39.787,41.205,24.929,40.766,43.415
64.922,59.979,58.397,52.289,59.499,37.177,49.274,52.971
59.577,57.541,52.704,49.832,53.566,33.544,45.681,49.57
49.225,49.474,36.656,42.498,37.183,25.781,38.511,42.556
47.575,49.231,36.083,43.794,36.333,28.244,38.669,42.749
51.338,54.084,46.759,48.894,46.901,34.499,41.726,45.179
52.769,54.955,44.808,48.032,44.918,33.305,40.682,42.869
54.644,54.883,33.392,45.025,33.397,29.283,39.614,40.424
60.868,60.046,32.403,48.211,32.183,32.969,44.099,43.649
67.478,66.909,38.547,55.952,38.016,42.781,51.607,50.066
70.39,70.298,40.185,61.513,39.311,48.777,57.029,55.208
70.339,69.991,41.974,62.54,40.865,47.433,58.514,57.51
68.797,67.107,48.848,60.431,47.859,43.854,57.015,56.896
67.343,64.534,54.715,57.481,54.099,42.697,55.665,55.541
68.346,66.119,54.366,55.96,53.945,43.557,57.286,56.43
70.423,69.586,49.267,54.17,48.887,42.076,59.22,57.53
70.486,70.356,45.847,49.95,45.675,37.326,58.598,56.468
70.687,71.08,52.041,49.135,52.168,37.399,60.064,58.239
73.118,74.538,64.684,56.092,64.896,46.362,66.119,65.3
73.51,75.662,68.203,63.209,68.201,54.778,69.878,70.142
67.389,69.848,57.39,62.088,57.193,52.8,65.705,66.716
57.283,60.637,45.429,55.281,45.381,42.891,57.727,59.165
51.795,56.076,43.939,52.61,44.285,37.438,56.02,56.948
56.271,59.848,51.66,58.815,52.416,43.319,64.571,63.619
66.141,67.434,61.409,67.758,62.426,53.167,75.357,72.43
74.593,73.971,70.118,73.621,71.022,60.046,81.333,77.633
82.302,82.411,80.476,79.85,80.909,67.515,86.705,83.32
91.519,95.033,89.585,87.934,89.481,76.628,94.621,92.438
95.919,102.526,87.325,88.84,86.763,78.232,96.662,96.492
88.261,95.149,70.481,76.12,69.669,66.056,85.305,87.117
74.623,79.289,49.392,58.718,48.675,49.163,68.197,70.755
70.09,72.197,41.699,53.003,41.116,44.164,61.302,63.027
78.374,79.496,51.898,62.076,51.167,53.524,67.881,68.482
86.6,87.493,62.698,71.217,61.765,61.649,73.865,74.495
87.021,86.127,63.791,71.477,62.752,60.085,71.688,72.824
86.777,82.797,65.584,70.777,64.286,57.979,71.365,71.889
90.474,84.496,71.703,74.149,69.914,61.21,78.537,77.572
90.64,84.594,69.563,73.282,67.397,61.439,81.722,80.031
79.942,74.86,54.556,61.228,52.371,50.398,70.832,70.026
65.319,61.621,39.05,46.504,36.817,35.611,55.456,56.381
60.7,58.674,34.825,43.587,32.064,32.584,51.998,53.774
65.706,65.129,40.233,51.28,36.852,41.133,58.958,59.751
68.326,67.861,46.957,56.02,43.502,46.746,62.358,61.602
67.721,65.984,52.541,55.96,49.396,46.299,60.959,60.019
73.041,70.476,59.426,61.665,56.408,50.731,65.861,65.979
81.534,79.441,65.209,72.663,62.092,61.066,76.525,77.477
78.986,78.312,64.479,74.609,61.36,63.607,78.483,79.517
62.8,65.177,57.532,63.651,54.605,53.603,67.981,68.682
48.726,55.279,51.824,54.772,49.185,44.756,59.994,59.854
51.255,60.053,56.273,59.787,53.883,48.563,66.548,64.468
64.179,71.693,66.314,69.385,64.037,57.177,77.478,73.085
69.173,73.742,63.752,67.219,61.499,56.168,73.828,69.259
62.3,64.686,47.175,54.982,44.966,45.644,57.553,55.348
56.364,57.842,38.578,48.045,36.5,37.581,48.005,47.71
58.567,60.285,49.031,52.016,47.241,39.122,51.94,51.861
61.916,65.662,62.951,57.574,61.552,44.561,57.794,58.241
59.597,65.879,60.83,55.804,59.729,43.826,56.612,58.584
55.423,60.732,43.859,49.237,42.892,37.391,52.623,55.249
54.344,54.573,29.836,44.295,28.97,32.894,51.676,52.972
54.507,49.667,30.124,41.301,29.456,31.029,51.88,51.473
54.068,45.606,37.943,38.021,37.538,27.974,50.004,49.79
54.33,42.81,39.426,36.416,39.131,25.958,48.92,50.115
55.723,43.918,35.183,40.424,34.911,30.338,53.09,54.138
57.357,48.925,37.084,48.448,37.137,39.119,59.92,59.216
57.027,52.286,43.483,53.274,44.012,44.625,62.576,61.059
52.676,50.338,46.155,51.8,46.79,44.36,59.291,58.503
48.937,48.816,51.22,50.128,51.655,42.834,55.406,55.517
53.388,54.909,62.306,54.054,62.519,43.997,56.763,57.049
61.342,62.797,64.832,57.9,64.781,44.846,60.134,59.606
60.755,61.357,52.015,53.275,51.848,39.764,57.267,55.725
53.993,54.439,41.095,45.429,41.19,32.279,50.939,49.365
54.286,55.149,47.391,46.547,47.711,32.872,52.105,50.974
61.671,62.919,59.942,55.563,60.113,42.051,59.933,58.968
62.691,64.828,56.994,59.009,57.005,47.626,62.157,61.533
52.963,57.112,39.21,51.497,39.215,42.105,54.992,54.785
42.322,48.179,25.704,41.113,25.651,31.283,46.132,45.88
41.761,46.69,26.57,37.791,26.555,26.796,43.521,42.823
52.668,54.606,38.653,44.008,38.912,33.737,49.484,48.245
62.629,62.815,50.189,50.668,50.679,42.16,56.674,55.626
60.555,60.562,48.403,48.52,48.969,41.196,56.44,56.482
54.28,52.503,37.193,43.152,37.745,36.597,53.788,53.604
56.433,51.727,35.708,44.376,36.03,37.925,58.14,55.023
63.3,58.09,50.382,49.249,50.22,41.608,65.301,59.568
63.488,59.684,61.459,49.146,60.777,40.102,65.083,60.137
57.573,54.724,53.228,45.894,52.323,36.798,60,57.1
54.57,53.05,42.726,48.155,42.038,39.736,60.415,57.945
54.853,55.305,49.523,55.226,49.138,45.991,66.053,63.747
51.357,51.71,58.997,57.469,58.605,45.955,67.789,66.435
45.522,42.815,54.938,52.773,54.423,40.172,63.654,62.209
47.526,41.667,53.346,50.819,52.952,38.666,61.571,58.901
57.632,50.933,62.461,56.445,62.259,44.164,65.898,62.889
62.659,56.828,62.428,60.64,62.144,48.122,69.248,66.967
57.117,52.09,49.691,56.266,49.241,45.669,64.456,62.144
50.902,45.981,43.882,49.384,43.48,41.571,56.374,52.543
51.717,47.359,50.707,48.351,50.355,40.293,53.376,48.518
53.321,50.703,55.096,50.621,54.631,39.833,53.423,49.592
46.277,44.64,45.11,46.068,44.681,33.906,47.103,44.682
33.975,31.032,28.122,33.553,27.999,21.175,34.078,31.442
29.378,24.28,20.259,25.392,20.345,11.882,26.221,22.17
37.615,30.961,27.862,29.851,27.802,15.348,30.606,25.671
51.122,43.346,42.263,39.992,41.869,26.63,39.588,35.384
63.411,54.794,50.405,47.759,49.677,37.479,45.773,43.47
76.568,67.858,53.653,56.863,52.684,49.366,55.166,54.488
91.535,83.461,65.733,71.336,64.759,64.534,72.539,71.876
102.57,94.748,85.71,83.837,84.86,76.192,88.065,85.586
103.542,94.83,93.245,85.007,92.271,76.685,90.81,85.799
96.308,86.258,83.195,77.77,81.881,69.651,84.77,77.93
91.646,81.13,78.834,74.829,77.455,67.056,82.863,76.012
95.14,85.997,90.903,80.26,89.837,72.527,88.168,83.339
97.083,90.735,96.546,83.16,95.704,75.969,91.266,88.234
87.304,83.045,81.154,75.046,80.233,69.289,86.181,82.189
73.031,68.638,64.499,63.564,63.518,59.296,78.187,72.311
68.617,63.511,66.131,61.431,65.249,58.011,75.182,69.845
72.636,69.415,78.657,67.16,77.803,64.714,76.175,72.845
72.278,73.584,85.195,68.375,84.195,68.313,73.573,70.946
63.747,68.453,75.652,60.099,74.487,61.59,65.154,62.037
53.154,57.761,52.057,48.08,51.007,46.37,55.894,52.366
45.352,47.815,31.332,39.037,30.658,32.378,50.413,46.376
40.325,40.373,24.829,34.293,24.143,27.457,48.33,43.659
38.512,35.774,26.616,32.658,25.42,28.941,47.701,43.178
41.574,35.777,32.772,33.933,31.469,30.863,48.079,44.818
45.427,38.49,43.335,35.86,42.487,31.112,47.367,46.299
43.714,38.676,47.801,34.064,47.052,28.387,43.037,44.05
36.975,34.328,34.484,27.518,33.283,21.554,36.443,37.453
31.291,29.055,13.158,21.128,11.674,14.923,32.083,31.279
32.488,28.177,12.188,21.106,10.835,16.014,33.913,31.935
41.552,33.639,39.356,27.566,38.153,25.397,40.841,38.938
52.243,42.552,59.932,33.951,58.734,34.557,46.716,45.328
55.384,47.198,44.556,33.918,43.314,35.177,47.059,46.166
48.807,41.416,16.907,28.146,15.567,28.816,43.074,41.713
40.913,31.104,13.6,23.927,12.207,24.979,39.063,36.555
39.233,26.956,29.396,26.201,28.157,28.291,38.642,36.334
39.952,26.742,38.775,30.652,37.73,31.886,40.662,39.765
35.462,20.979,37.031,29.864,36.016,27.912,38.832,38.637
27.146,12.52,33.472,24.567,32.56,19.749,31.221,31.144
22.613,11.662,30.909,21.32,30.396,15.769,24.459,24.994
22.533,15.601,26.715,20.471,26.767,15.941,22.352,23.34
18.9,10.801,17.51,15.756,18.212,13.412,19.839,19.881
9.495,-3.384,5.133,6.527,6.499,6.337,13.119,11.527
5.078,-9.368,1.909,1.75,3.613,1.555,8.101,6.206
11.861,1.442,12.597,5.683,14.268,3.98,10.559,9.759
18.714,13.294,22.076,9.365,23.821,8.547,14.523,14.391
14.626,10.353,17.624,5.373,19.666,8.182,12.821,12.422
4.96,-1.264,6.781,-0.942,9.013,3.757,9.129,8.658
0.284,-6.65,3.191,-2.426,5.511,1.105,8.268,8.483
0.554,-4.777,3.848,-2.221,6.331,-0.071,6.576,7.122
0.432,-4.29,-5.166,-6.318,-2.522,-5.039,1.212,0.38
1.34,-4.74,-18.91,-10.993,-16.093,-10.479,-2.333,-5.305
8.546,1.614,-15.653,-7.925,-12.456,-7.124,1.568,-1.986
20.015,12.689,2.634,1.463,6.298,3.585,9.924,7.48
23.873,14.85,7.461,5.528,11.256,8.912,12.615,11.204
14.216,4.288,-7.453,-0.758,-3.891,2.067,5.29,3.971
2.789,-4.257,-14.834,-7.766,-11.5,-7.906,-2.846,-4.616
1.444,-1.946,-1.04,-6.978,2.097,-9.46,-2.855,-4.797
5.234,1.31,11.917,-2.86,14.793,-5.485,1.987,0.481
3.306,-3.925,3.915,-3.16,6.761,-6.004,3.782,2.386
-4.453,-13.93,-9.748,-7.48,-6.697,-10.727,0.425,-1.842
-7.985,-18.791,-3.797,-8.56,-0.765,-10.297,-2.237,-5.327
-1.636,-13.877,14.169,-2.308,16.984,-1.676,2.045,-0.678
7.63,-6.067,17.429,5.225,20.245,6.198,9.383,7.942
9.726,-4.777,4.659,5.285,7.57,4.768,9.798,9.534
4.95,-7.683,-3.173,-0.114,-0.476,-1.311,2.982,3.374
1.826,-6.492,-0.562,-1.68,1.827,-1.865,-1.558,-0.6
2.431,-2.156,-0.142,0.973,2.341,1.877,-0.888,0.629
1.3,-0.278,-4.905,0.622,-2.055,1.681,-0.662,0.232
-1.708,0.25,-7.553,-2.835,-4.47,-1.669,-2.41,-3.948
-0.22,3.585,-6.121,-2.568,-2.854,-0.707,-2.094,-5.665
5.648,7.617,-2.457,1.679,1.085,4.988,-0.107,-3.128
5.93,4.516,-0.11,1.209,3.462,6.769,-2.831,-4.016
-2.272,-5.671,-2.721,-6.35,0.477,-0.575,-10.398,-10.253
-7.664,-10.894,-6.852,-11.148,-4.107,-9.989,-12.668,-11.61
-2.206,-3.671,-6.419,-6.257,-3.976,-10.359,-3.672,-2.937
8,8.521,-4.05,1.765,-1.738,-2.661,8.183,5.896
11.792,12.185,-6.616,1.49,-4.348,-0.746,9.627,3.489
7.419,4.355,-10.633,-6.588,-8.461,-8.545,1.085,-5.908
3.673,-3.843,-5.31,-10.12,-3.32,-12.176,-3.871,-8.511
3.857,-5.517,7.985,-6.096,9.783,-6.648,-1.056,-3.762
1.903,-6.101,13.257,-4.343,14.913,-4.297,0.477,-2.94
-2.651,-7.451,3.649,-6.913,5.169,-8.869,-2.501,-7.595
-2.232,-3.508,-5.653,-4.994,-4.274,-8.658,-3.465,-9.007
5.656,6.061,-0.879,4.048,0.537,1.333,1.527,-3.985
14.327,13.713,9.119,12.642,10.678,10.978,9.236,2.422
16.38,14.093,10.886,14.192,12.361,10.993,12.676,4.397
11.43,8.603,6.236,9.513,7.582,4.114,6.605,-0.246
7.751,4.882,3.08,5.968,4.65,0.272,-2.619,-5.72
11.366,8.522,3.533,8.531,5.432,3.828,-3.264,-4.412
14.975,13.267,2.927,10.171,4.904,6.415,0.103,-2.107
11.761,11.931,-4.493,3.516,-2.57,0.911,-5.159,-8.126
8.501,9.254,-13.579,-4.799,-11.722,-6.182,-14.229,-15.595
11.164,11.427,-9.458,-5.605,-7.623,-7.667,-13.666,-13.597
13.93,14.904,6.073,-1.145,8.045,-5.254,-5.982,-6.475
10.082,12.905,7.337,1.153,9.489,-2.449,-4.202,-4.621
0.906,4.688,-13.748,-1.284,-11.548,-2.692,-10.199,-8.638
-8.19,-5.504,-30.314,-6.696,-28.118,-9.645,-15.336,-13.258
-13.135,-13.447,-27.084,-13.06,-24.902,-20.622,-16.279,-16.958
-13.205,-16.697,-19.71,-18.061,-17.585,-27.46,-16.758,-20.268
-9.732,-14.986,-17.153,-18.93,-14.922,-26.828,-17.973,-21.511
-4.624,-10.115,-11.832,-15.275,-9.228,-22.353,-16.374,-18.808
-0.95,-5.057,-2.458,-9.285,0.463,-16.356,-10.065,-12.537
-1.555,-3.423,5.662,-3.944,8.536,-9.123,-3.705,-6.464
-7.348,-8.938,6.89,-3.24,9.566,-5.742,-4.471,-6.971
-15.763,-20.134,-3.083,-7.658,-0.395,-9.933,-10.722,-13.8
-19.288,-26.003,-12.8,-9.763,-10.019,-13.916,-11.217,-16.004
-13.418,-18.5,-5.442,-4.242,-2.654,-9.173,-2.451,-8.238
-5.103,-6.053,8.188,3.14,11.306,-0.182,5.132,-0.005
-3.529,-1.383,6.689,4.7,10.599,3.106,3.798,-0.289
-5.93,-2.328,-1.365,2.288,3.132,0.064,-1.452,-5.106
-3.589,0.757,2.966,3.188,7.532,-0.914,-2.686,-5.58
0.539,4.522,7.963,6.179,12.61,2.358,-1.08,-2.607
-3.642,-1.242,-5.805,2.714,-0.78,2.285,-4.03,-5.139
-13.947,-13.108,-24.927,-6.671,-19.554,-4.266,-12.528,-13.797
-19.107,-18.928,-27.269,-12.111,-21.719,-11.389,-18.354,-18.343
-17.685,-16.605,-18.34,-11.859,-12.579,-15.35,-17.665,-15.749
-17.106,-12.993,-14.075,-14.324,-8.121,-19.328,-18.206,-16.182
-18.041,-10.4,-16.534,-21.121,-10.695,-23.813,-23.975,-23.408
-16.321,-7.518,-21.269,-25.381,-15.706,-24.584,-27.16,-27.491
-12.435,-5.615,-24.334,-25.371,-18.694,-22.694,-22.365,-22.722
-10.073,-6.671,-23.266,-25.451,-17.248,-23.48,-15.301,-16.599
-14.58,-13.868,-24.185,-29.324,-17.974,-28.326,-14.956,-18.72
-26.953,-27.72,-32.501,-36.327,-26.28,-34.557,-21.523,-27.273
-37.249,-39.056,-39.653,-40.605,-33.478,-38.422,-26.276,-31.06
-37.85,-40.223,-36.325,-38.16,-30.455,-37.333,-25.204,-26.039
-35.664,-37.832,-28.099,-33.332,-22.589,-33.478,-23.372,-20.793
-38.276,-40.377,-25.358,-31.4,-19.775,-31.645,-23.237,-20.973
-39.693,-42.837,-23.48,-28.395,-17.723,-29.514,-19.199,-19.063
-32.992,-37.671,-12.012,-19.524,-6.605,-21.605,-9.323,-9.628
-25.067,-30.844,-0.831,-12.382,3.945,-13.919,-2.795,-2.954
-25.159,-31.983,-6.089,-15.427,-1.731,-15.822,-6.122,-8.522
-30.838,-38.747,-20.016,-22.564,-15.881,-22.719,-12.796,-18.585
-33.931,-41.776,-25.053,-23.546,-21.098,-23.61,-14.727,-21.195
-32.743,-38.711,-20.385,-19.501,-16.719,-17.774,-14.029,-17.652
-33.276,-35.745,-16.115,-18.423,-12.945,-13.783,-17.08,-17.181
-37.051,-35.216,-16.204,-21.267,-13.396,-16.125,-22.171,-20.632
-35.553,-31.138,-14.869,-21.302,-11.986,-18.934,-21.549,-20.364
-24.466,-21.288,-8.467,-16.394,-5.525,-15.898,-14.49,-14.51
-13.936,-13.798,-5.128,-13.254,-2.619,-11.352,-9.422,-10.435
-14.125,-15.404,-10.091,-16.014,-8.154,-11.96,-11.326,-12.388
-21.564,-22.278,-16.974,-20.41,-15.301,-15.801,-16.041,-16.105
-28.716,-28.429,-23.674,-23.201,-22.248,-19.228,-19.687,-18.528
-33.666,-33.14,-32.853,-25.859,-31.914,-22.622,-23.302,-21.865
-37.984,-37.842,-40.844,-29.82,-40.126,-27.051,-28.427,-27.982
-42.015,-41.641,-41.519,-33.855,-40.446,-30.861,-33.698,-34.471
-41.118,-40.065,-31.538,-32.702,-30.121,-28.478,-33.984,-34.645
-34.176,-33.037,-16.937,-25.13,-15.645,-19.825,-27.871,-26.864
-31.985,-30.633,-14.968,-21.18,-13.913,-16.415,-23.24,-21.033
-40.851,-38.528,-28.667,-26.735,-27.577,-24.046,-24.864,-23.702
-48.939,-45.866,-34.099,-31.128,-32.857,-30.112,-25.859,-26.295
-43.409,-39.942,-16.481,-23.784,-15.252,-21.9,-20.007,-19.529
-29.653,-25.323,4.485,-11.577,5.562,-7.409,-12.504,-9.282
-22.348,-17.027,4.867,-8.084,5.963,-2.402,-11.733,-7.721
-25.78,-20.081,-11.601,-14.531,-10.118,-7.319,-16.875,-15.247
-32.769,-27.092,-25.67,-22.157,-23.679,-14.26,-20.793,-22.028
-36.386,-31.573,-27.73,-26.219,-25.634,-20.833,-21.113,-23.308
-36.158,-34.764,-23.448,-29.393,-21.887,-26.962,-21.528,-23.618
-35.176,-39.153,-21.99,-34.329,-21.124,-32.395,-24.5,-26.819
-35.057,-42.162,-23.456,-38.483,-22.709,-36.736,-28.736,-30.181
-34.366,-40.099,-21.874,-37.33,-20.663,-36.492,-30.31,-29.1
-31.089,-33.473,-16.96,-30.624,-15.339,-29.129,-26.017,-23.253
-27.883,-27.401,-15.784,-25.03,-14.039,-20.998,-20.845,-18.69
-28.627,-25.986,-19.667,-25.975,-17.859,-20.254,-21.597,-20.004
-28.895,-25.944,-18.075,-28.454,-16.418,-22.816,-23.476,-21.728
-22.38,-22.132,-8.268,-25.298,-7.203,-19.207,-18.551,-17.127
-14.532,-17.326,-5.116,-19.754,-4.612,-11.769,-10.723,-10.265
-15.837,-18.172,-14.074,-19.402,-13.65,-10.226,-9.342,-9.408
-25.209,-24.673,-19.65,-23.161,-19.166,-14.81,-14.31,-14.01
-33.308,-31.804,-14.39,-25.431,-14.056,-18.461,-18.19,-17.643
-38.092,-38.238,-11.221,-27.165,-11.088,-20.3,-19.04,-19.198
-44.535,-46.438,-19.442,-32.398,-19.417,-24.534,-21.66,-22.434
-51.313,-54.464,-29.034,-38.701,-29.037,-30.353,-27.414,-27.262
-49.561,-53.839,-26.548,-38.488,-26.541,-30.977,-29.862,-27.908
-38.304,-42.374,-16.832,-30.449,-16.986,-24.134,-24.864,-22.173
-28.918,-31.746,-14.084,-23.258,-14.609,-17.204,-18.586,-16.774
-28.724,-32.074,-18.32,-23.45,-19.028,-16.739,-18.054,-17.512
-32.901,-38.471,-19.262,-27.136,-19.911,-19.875,-20.722,-20.668
-33.815,-39.442,-12.855,-26.502,-13.657,-19.679,-19.01,-19.12
-30.848,-33.19,-5.627,-21.707,-6.86,-16.158,-13.17,-14.482
-30.19,-29.972,-6.983,-21.372,-8.66,-16.42,-12.327,-15.81
-33.582,-35.051,-11.646,-26.842,-13.771,-20.697,-18.331,-22.952
-34.7,-40.147,-7.155,-29.174,-9.698,-21.147,-21.786,-25.154
-32.027,-38.952,-3.549,-26.821,-6.393,-18.145,-19.09,-20.114
-33.454,-38.002,-17.975,-29.416,-21.164,-22.044,-18.692,-18.404
-42.847,-44.694,-40.098,-41.128,-43.65,-35.716,-26.886,-26.599
-53.413,-55.089,-51.733,-54.547,-55.32,-49.266,-39.034,-39.064
-57.636,-60.302,-53.379,-61.207,-56.707,-54.052,-46.235,-46.629
-56.192,-58.666,-49.438,-59.263,-52.611,-50.729,-44.585,-45.829
-56.637,-58.425,-42.174,-55.55,-45.291,-46.582,-40.737,-42.975
-62.544,-65.514,-38.927,-58.023,-41.9,-47.825,-43.825,-46.066
-64.467,-69.597,-36.813,-60.082,-39.826,-49.169,-47.48,-48.666
-52.303,-57.41,-23.306,-48.306,-26.64,-39.579,-37.069,-37.904
-33.473,-36.398,-4.066,-27.38,-7.428,-21.32,-16.542,-18.421
-24.12,-25.117,2.655,-15.605,-0.205,-9.437,-5.21,-7.017
-27.601,-27.928,-8.434,-18.226,-10.871,-9.939,-9.211,-8.372
-35.704,-36.534,-29.552,-25.224,-32.096,-14.595,-17.959,-14.713
-46.064,-48.167,-48.273,-32.957,-51.008,-21.297,-26.808,-23.619
-62.082,-65.351,-56.536,-47.285,-59.049,-36.981,-41.06,-38.733
-76.82,-81.457,-55.875,-63.906,-58.132,-55.757,-56.925,-54.852
-74.967,-82.03,-47.495,-66.118,-49.965,-59.255,-58.926,-57.709
-55.565,-64.084,-33.228,-49.476,-36.141,-43.886,-42.782,-43.424
-37.548,-44.142,-24.855,-32.749,-27.968,-28.504,-26.116,-28.025
-34.341,-37.682,-27.446,-32.581,-30.473,-27.707,-25.143,-26.94
-38.219,-39.983,-27.878,-41.984,-30.896,-34.191,-34.122,-34.542
-37.626,-38.848,-20.429,-45.444,-23.743,-35.918,-37.294,-35.823
-34.271,-34.416,-19.923,-40.803,-23.481,-33.195,-30.563,-28.844
-34.924,-34.176,-33.21,-35.695,-36.67,-30.553,-23.919,-23.487
-37.129,-37.987,-43.638,-32.104,-46.99,-26.669,-22.834,-22.192
-35.245,-40.293,-39.353,-27.564,-42.823,-21.122,-21.336,-19.117
-32.504,-40.01,-28.722,-24.671,-32.383,-18.84,-18.611,-16.436
-34.809,-39.946,-21.676,-26.543,-25.488,-21.247,-21.439,-20.648
-41.083,-42.21,-22.65,-29.885,-26.514,-23.507,-28.375,-28.047
-45.364,-45.434,-29.226,-28.75,-33.071,-21.348,-29.759,-29.777
-43.357,-44.628,-27.107,-20.174,-30.96,-13.57,-21.163,-23.286
-36.801,-37.878,-11.703,-7.503,-15.408,-2.726,-8.31,-13.149
-31.799,-31.553,-0.577,-0.303,-3.848,3.469,-2.221,-7.766
-31.748,-32.199,-2.465,-4.348,-5.486,0.419,-7.75,-11.608
-32.597,-35.357,-5.611,-11.804,-9.001,-4.282,-15.256,-17.415
-28.304,-31.242,-4.238,-11.486,-8.352,-1.424,-13.231,-15.619
-20.286,-20.639,-3.247,-5.422,-7.921,4.949,-5.739,-8.837
-16.083,-14.827,-3.087,-4.246,-7.963,4.734,-4.738,-6.368
-17.784,-17.549,-0.633,-10.024,-5.52,-1.619,-11.498,-9.964
-17.099,-18.279,4.249,-12.655,-0.698,-3.212,-15.274,-11.772
-10.903,-13.097,7.454,-7.339,2.433,3.147,-10.827,-7.561
-11.39,-14.62,4.2,-5.187,-0.696,5.638,-8.539,-5.991
-23.615,-26.307,-5.121,-13.657,-9.739,-2.415,-16.093,-13.49
-32.206,-32.458,-15.368,-22.072,-19.801,-10.026,-23.677,-21.166
-25.801,-23.74,-19.89,-19.416,-24.245,-6.454,-20.953,-19.366
-14.6,-11.036,-18.242,-12.085,-22.481,0.906,-14.023,-12.993
-13.256,-9.588,-19.842,-13.574,-23.968,-2.326,-14.248,-13.037
-19.54,-18.358,-26.904,-23.593,-31.095,-13.985,-20.075,-19.644
-20.611,-22.606,-26.798,-28.546,-31.219,-18.433,-20.93,-21.864
-14.863,-18.178,-15.561,-22.892,-20.025,-11.744,-15.288,-14.872
-13.995,-17.982,-9.809,-17.927,-13.875,-6.82,-13.601,-9.334
-21.909,-27.382,-19.511,-22.166,-23.037,-10.77,-20.339,-14.258
-27.95,-34.16,-29.199,-27.211,-32.516,-14.31,-25.479,-20.836
-25.825,-30.989,-23.774,-24.369,-27.113,-10.706,-21.707,-18.552
-22.106,-26.153,-11.843,-18.769,-14.827,-6.876,-15.917,-12.942
-23.737,-27.818,-9.674,-18.954,-11.911,-9.689,-16.678,-14.352
-28.807,-33.347,-17.743,-24.78,-19.618,-15.964,-22.743,-21.957
-31.125,-35.79,-22.955,-29.273,-25.043,-18.829,-27.411,-27.033
-30.551,-34.86,-19.964,-30.019,-22.301,-18.668,-28.417,-27.106
-31.439,-35.301,-17.736,-32.158,-20.3,-21.786,-29.585,-28.122
-30.935,-34.896,-20.941,-36.024,-23.87,-26.862,-32.278,-31.481
-21.75,-26.193,-20.816,-33.575,-23.772,-24.361,-30.994,-29.641
-7.198,-11.895,-11.833,-23.14,-14.291,-13.422,-22.691,-19.275
-0.296,-5.196,-3.883,-16.189,-6.029,-7.012,-15.605,-10.663
-4.673,-9.663,-6.909,-20.955,-9.314,-12.887,-18.451,-14.293
-8.276,-11.992,-13.566,-28.235,-16.334,-20.082,-25.031,-23.264
-0.003,-1.514,-9.181,-24.304,-11.952,-14.81,-22.59,-22.352
15.206,14.296,6.273,-12.67,3.913,-2.415,-12.874,-12.246
23.103,20.442,14.995,-9.276,13.095,0.095,-9.778,-8.474
20.388,14.125,6.141,-16.69,4.215,-8.8,-15.206,-14.654
16.984,5.532,-3.948,-21.588,-6.3,-13.882,-17.195,-18.057
18.813,2.815,6.026,-17.519,3.476,-8.506,-12.228,-13.028
22.117,4.472,26.36,-11.419,23.87,-1.3,-8.045,-7.29
21.444,4.385,24.955,-10.463,22.363,0.553,-8.022,-7.218
17.597,1.483,-0.772,-13.336,-3.589,-1.264,-7.858,-9.904
18.457,1.974,-13.119,-13.218,-16.039,-3.424,-3.377,-7.904
24.515,6.221,-0.367,-9.554,-3.36,-5.68,2.685,-1.176
22.784,3.08,2.839,-11.431,-0.425,-10.379,2.061,-0.208
9.41,-10.379,-13.357,-21.585,-16.96,-18.418,-6.426,-9.083
-0.965,-19.857,-15.081,-28.141,-18.693,-23.169,-12.973,-16.52
0.671,-15.842,5.633,-21.862,2.272,-17.178,-10.74,-12.763
5.655,-6.839,11.968,-10.05,8.601,-5.568,-3.849,-3.305
3.97,-4.342,-8.864,-5.113,-12.522,0.08,-0.384,0.235
-2.154,-8.451,-21.571,-7.531,-25.382,-1.919,-2.482,-3.398
-3.485,-11.628,-5.922,-8.299,-9.724,-3.653,-3.935,-4.619
1.164,-10.918,11.605,-5.868,7.712,-1.979,-1.476,-0.975
2.403,-11.673,4.323,-8.379,0.188,-3.366,-1.786,-2.16
-3.291,-16.271,-15.219,-16.927,-19.605,-11.04,-8.308,-10.821
-7.566,-18.27,-19.419,-22.384,-23.827,-17.185,-13.786,-16.78
-5.081,-13.594,-6.576,-20.597,-10.702,-14.59,-12.731,-14.339
-2.109,-8.182,1.536,-18.65,-2.317,-9.13,-10.641,-10.903
-5.799,-9.682,-8.024,-23.154,-11.762,-11.414,-14.279,-14.64
-11.782,-16.011,-21.005,-28.292,-24.424,-18.33,-18.754,-20.716
-11.492,-18.658,-16.922,-25.256,-19.69,-18.552,-16.456,-19.77
-8.198,-17.269,-5.07,-19.238,-7.306,-14.066,-12.972,-15.742
-11.29,-19.694,-10.551,-21.806,-12.61,-16.245,-18.034,-19.625
-17.685,-25.826,-27.473,-31.048,-29.421,-25.006,-27.144,-28.97
-15.29,-25.378,-26.81,-33.998,-28.535,-28.082,-27.415,-30.19
-3.21,-14.87,-7.565,-26.184,-9.045,-19.333,-17.488,-20.125
4.848,-5.495,1.226,-17.846,-0.049,-9.318,-9.509,-11.326
-0.647,-8.071,-9.8,-19.399,-10.899,-11.506,-12.184,-14.091
-11.272,-16.914,-15.533,-26.747,-16.498,-21.308,-20.006,-22.589
-12.934,-18.213,-1.008,-27.119,-1.957,-23.005,-21.453,-23.639
-6.84,-11.238,9.635,-18.872,8.567,-15.618,-14.916,-15.986
-5.748,-7.759,-6.382,-13.83,-7.553,-12.139,-10.246,-11.189
-12.598,-12.025,-29.927,-17.417,-30.995,-15.724,-13.101,-14.718
-16.933,-15.554,-32.591,-21.2,-33.442,-16.096,-17.235,-19.313
-11.603,-11.131,-18.364,-18.786,-19.154,-9.391,-16.316,-18.638
-2.685,-2.718,-8.009,-15.795,-8.758,-6.692,-13.918,-16.1
0.309,0.847,-9.687,-18.12,-10.151,-14.874,-15.638,-17.102
-3.061,-2.331,-18.382,-22.155,-18.601,-23.837,-19.972,-20.633
-6.541,-6.267,-25.115,-22.486,-25.326,-24.057,-22.07,-22.213
-7.131,-7.148,-24.542,-19.724,-24.612,-19.651,-20.806,-20.784
-8.34,-8.87,-22.701,-18.295,-22.342,-17.902,-20.311,-20.212
-12.249,-13.114,-25.266,-18.944,-24.64,-18.549,-22.581,-22.089
-14.361,-13.505,-25.379,-16.884,-25.024,-17.066,-22.322,-21.455
-13.06,-9.115,-20.064,-11.525,-20.145,-13.375,-17.53,-16.643
-14.63,-9.697,-18.76,-10.431,-18.913,-12.882,-16.568,-15.415
-21.988,-19.616,-26.328,-17.666,-26.428,-18.717,-25.149,-23.143
-27.819,-29.215,-33.214,-25.862,-33.455,-25.38,-35.276,-32.698
-25.453,-28.67,-29.493,-26.238,-29.731,-24.922,-36.052,-34.143
-19.399,-21.747,-22.069,-21.458,-22.01,-19.352,-29.567,-29.002
-18.159,-18.793,-23.731,-20.788,-23.458,-17.788,-26.987,-26.904
-23.791,-23.993,-34.255,-27.037,-34.069,-22.138,-32.848,-32.507
-32.14,-33.831,-44.98,-35.144,-45.057,-26.903,-40.371,-40.569
-37.105,-40.944,-48.557,-39.001,-48.867,-29.545,-40.611,-42.013
-35.511,-39.311,-43.274,-35.758,-43.618,-29.315,-32.69,-34.53
-30.271,-30.525,-35.499,-27.991,-35.782,-24.726,-24.021,-25.204
-27.773,-23.876,-32.893,-23.807,-33.404,-20.434,-22.81,-22.88
-30.09,-24.289,-33.585,-27.295,-34.528,-21.204,-29.394,-28.602
-32.591,-26.12,-30.693,-31.888,-31.557,-22.769,-35.547,-34.483
-33.286,-26.562,-27.643,-32.8,-27.839,-22.916,-36.839,-35.936
-36.248,-30.775,-32.856,-34.957,-32.67,-26.759,-37.996,-37.55
-41.17,-37.43,-41.262,-40.706,-41.298,-33.936,-41.431,-41.734
-40.691,-37.496,-39.189,-43.466,-39.383,-35.744,-42.214,-43.23
-34.537,-32.108,-26.789,-40.991,-26.711,-31.351,-39.102,-40.385
-31.905,-30.868,-19.476,-40.013,-19.092,-30.787,-37.323,-38.869
-35.113,-33.658,-24.422,-42.335,-24.048,-35.522,-36.929,-39.632
-37.654,-34.258,-31.554,-42.028,-31.36,-36.435,-32.795,-37.058
-35.814,-31.214,-30.758,-35.316,-30.586,-28.934,-24.545,-29.285
-32.165,-26.627,-25.293,-25.447,-25.002,-17.685,-17.386,-21.209
-31.614,-24.619,-24.718,-20.482,-24.479,-12.713,-16.35,-18.408
-33.354,-25.754,-29.17,-22.212,-29.108,-16.779,-19.762,-19.736
-30.543,-24.275,-29.031,-22.549,-28.957,-19.752,-20.968,-19.623
-24.271,-20.44,-23.383,-19.657,-23.232,-17.201,-20.111,-18.868
-25.697,-24.006,-23.735,-23.037,-23.696,-18.615,-24.585,-24.262
-35.595,-35.472,-31.103,-33.173,-31.213,-26.182,-33.348,-34.245
-38.817,-39.552,-29.944,-35.767,-30.084,-27.583,-34.57,-36.488
-29.775,-29.868,-15.872,-27.253,-16.048,-20.396,-25.997,-27.781
-22.844,-20.948,-6.306,-22.751,-6.493,-18.516,-20.863,-21.586
-27.917,-23.189,-13.925,-29.138,-13.882,-25.725,-26.586,-26.664
-35.162,-26.769,-27.908,-34.006,-27.62,-28.359,-33.848,-33.8
-32.039,-21.325,-30.989,-27.917,-30.929,-19.58,-31.468,-31.079
-22.02,-13.506,-23.746,-18.847,-24.275,-9.886,-21.756,-21.234
-15.627,-12.595,-16.687,-16.397,-17.617,-7.74,-14.552,-14.44
-13.442,-15.314,-10.754,-16.902,-11.745,-7.158,-12.55,-12.505
-10.609,-15.686,-4.005,-14.08,-4.944,-2.622,-11.552,-11.257
-9.604,-15.585,-2.883,-11.685,-3.643,-1.023,-10.12,-10.244
-15.703,-18.052,-10.58,-14.882,-10.962,-7.103,-10.048,-11.07
-22.464,-17.823,-15.177,-16.849,-15.367,-9.801,-9.389,-10.727
-18.269,-9.201,-6.087,-9.339,-6.469,-0.788,-4.606,-5.374
-6.68,1.185,7.446,0.948,6.915,9.086,1.227,1.054
-1.833,2.553,11.344,3.258,10.979,9.574,1.065,0.795
-7.861,-5.973,4.94,-1.851,4.929,4.28,-5.79,-6.376
-15.82,-15.562,-5.593,-7.101,-5.279,-1.948,-10.683,-11.385
-16.276,-16.418,-12.335,-6.914,-12.087,-5.138,-6.217,-6.884
-9.622,-8.573,-9.044,-1.199,-9.274,-0.525,2.809,2.822
-4.876,-2.93,-3.101,3.617,-3.545,6.857,5.729,6.997
-7.857,-5.898,-5.648,2.362,-5.678,7.024,0.758,2.505
-12.937,-9.8,-9.807,0.1,-9.277,3.004,-3.201,-2.147
-13.137,-8.33,-4.935,3.188,-4.102,4.095,-0.955,-0.463
-13.398,-9.748,-1.356,5.798,-0.416,6.862,0.361,1.24
-19.936,-18.815,-10.41,1.144,-9.484,3.948,-5.027,-3.499
-25.215,-23.277,-19.885,-3.715,-18.968,0.558,-10.045,-8.723
-20.525,-14.995,-17.241,-1.146,-16.039,3.165,-7.733,-7.645
-12.147,-4.84,-10.679,2.636,-8.987,6.066,-3.87,-4.727
-10.325,-4.522,-9.495,0.251,-7.659,3.335,-5.968,-6.359
-13.863,-10.163,-10.69,-3.991,-9.158,-0.372,-10.454,-10.226
-16.082,-12.377,-10.501,-3.838,-9.113,0.132,-10.969,-11.776
-16.016,-11.234,-9.09,-1.617,-7.498,2.07,-9.172,-11.584
-19.339,-15.143,-9.919,-4.843,-8.283,-1.27,-11.259,-13.494
-29.722,-26.656,-17.72,-15.751,-16.276,-11.601,-18.867,-19.82
-38.899,-34.447,-25.958,-25.247,-24.557,-20.167,-24.987,-25.963
-34.907,-27.902,-20.639,-23.846,-19.138,-17.955,-21.812,-23.937
-19.454,-12.136,-3.728,-13.649,-2.162,-7.796,-10.56,-12.997
-5.95,0.119,6.758,-3.415,8.339,0.517,0.598,-0.976
-2.793,3.038,3.611,1.167,5.187,1.729,5.162,4.371
-5.228,0.856,-1.235,2.192,0.462,0.2,4.276,3.542
-4.86,-0.154,0.663,5.055,2.607,2.511,3.481,2.792
-2.047,-0.077,3.762,8.722,5.774,6.577,3.358,3.44
-2.272,-1.923,3.161,7.813,5.126,5.921,-0.099,0.98
-4.37,-3.12,2.256,3.886,4.414,2.114,-5.383,-3.898
-2.342,1.084,4.855,4.593,7.278,3.097,-5.413,-4.044
1.575,6.526,6.053,9.857,8.49,9.414,-0.674,0.542
-0.659,5.042,-1.53,11.041,0.878,12.839,-0.196,1.177
-6.952,-0.32,-11.154,6.554,-8.439,9.447,-5.3,-3.563
-6.966,0.086,-6.901,4.216,-3.567,4.845,-6.928,-5.234
2.003,6.394,14.323,7.798,18.187,5.552,-1.196,0.39
10.703,10.028,34.112,11.944,38.158,9.076,5.074,7.441
9.979,7.872,27.796,11.191,31.813,8.66,5.577,8.75
3.388,5.793,-1.341,8.034,2.661,5.857,2.574,5.461
1.665,8.261,-18.251,9.308,-14.223,8.171,2.51,5.286
5.243,11.225,-8.218,14.997,-4.371,14.763,6.089,10.026
2.179,6.767,1.94,14.431,5.281,13.748,4.323,9.384
-10.61,-4.5,-5.492,2.901,-2.555,1.229,-6.791,-2
-18.932,-11.827,-14.126,-6.995,-11.226,-8.307,-15.662,-11.847
-14.012,-9.41,-11.436,-4.689,-8.543,-3.896,-13.283,-9.999
-5.174,-3.457,-7.342,2.422,-4.54,4.851,-7.222,-4.145
-2.804,-2.666,-9.764,2.541,-6.877,4.044,-8.015,-4.892
-4.55,-7.785,-11.346,-3.002,-8.243,-3.816,-13.411,-9.628
-3.803,-11.641,-3.856,-3.922,-0.708,-6.005,-13.075,-9.042
-0.757,-8.888,6.688,1.897,9.65,-0.01,-5.563,-2.794
1.445,-1.614,8.404,6.754,11.084,5.8,0.257,1.478
3.744,5.763,2.297,7.221,4.64,7.556,0.524,1.871
9.778,13.184,0.281,8.068,2.358,8.659,0.82,3.905
20.22,22.547,7.507,12.377,9.604,11.8,5.318,9.766
27.522,28.237,13.436,14.349,15.744,14.112,8.318,12.294
22.669,22.328,6.452,7.566,8.924,9.972,2.239,4.764
11.445,11.297,-3.842,-1.203,-1.298,1.547,-6.799,-4.771
9.549,9.802,0.692,1.18,3.225,0.716,-5.368,-2.558
16.966,16.873,12.51,12.097,14.838,9.739,4.012,7.387
17.266,17.237,9.047,14.6,10.974,12.259,5.586,8.655
6.214,7.177,-7.719,4.372,-6.078,0.497,-3.097,-0.285
-2.519,-1.147,-17.074,-4.23,-15.374,-9.414,-8.104,-5.783
-0.77,-0.203,-11.12,-1.496,-9.207,-4.559,-1.75,-1.569
4.351,4.109,0.25,4.621,2.365,4.694,6.794,4.512
3.602,3.149,3.874,2.58,6.193,3.036,5.572,3.736
-2.273,-2.668,-2.993,-4.943,-0.603,-6.342,-2.891,-1.741
-7.086,-6.716,-13.332,-7.18,-11.205,-9.975,-7.062,-4.104
-8.555,-6.318,-18.343,-2.637,-16.751,-5.93,-4.45,-2.181
-8.534,-4.12,-14.337,1.756,-13.238,-2.508,-2.728,-1.729
-7.919,-1.025,-7.086,4.366,-6.087,-1.688,-4.744,-4.082
-2.499,7.568,-0.338,12.289,1.008,4.747,-2.137,-1.042
9.423,20.261,8.835,27.158,10.519,19.86,9.495,10.916
16.333,22.179,14.834,35.839,16.359,30.926,18.066,19.064
7.5,5.746,8.823,27.588,9.747,25.255,11.549,11.528
-6.306,-12.23,-1.296,12.303,-0.966,10.383,-1.62,-2.727
-5.416,-10.782,0.483,8.506,0.645,5.545,-3.393,-5.448
8.668,6.157,12.911,17.415,13.348,13.267,6.464,3.776
15.712,17.076,18.976,22.956,19.686,17.165,10.178,7.347
7.751,13.453,11.134,17.335,11.754,10.781,1.272,-1.71
-3.157,4.984,-2.214,9.23,-1.945,4.379,-6.746,-10.425
-5.171,1.803,-10.964,7.103,-10.896,4.952,-4.1,-8.868
0.588,4.75,-10.434,9.262,-10.108,8.424,2.422,-3.218
5.533,8.749,-1.87,10.054,-1.124,7.991,3.695,-1.617
5.905,11.365,8.082,8.631,8.852,3.922,1.517,-2.093
6.747,15.567,14.49,9.581,15.019,3.711,3.068,0.675
11.492,21.837,17.852,14.224,18.36,9.254,8.77,5.65
13.209,23.104,15.786,14.984,16.457,10.91,9.692,5.312
5.665,14.727,4.108,6.498,4.909,2.778,0.107,-4.144
-3.88,4.044,-9.678,-3.07,-8.77,-6.513,-11.618,-14.502
-5.68,0.495,-11.734,-3.441,-10.66,-7.345,-14.439,-15.449
-3.597,1.284,-1.575,1.491,-0.206,-2.873,-11.081,-9.688
-8.05,-3.016,6.674,0.705,8.299,-1.64,-12.095,-8.363
-17.468,-11.003,2.818,-4.736,4.398,-3.751,-17.085,-12.506
-18.831,-10.382,-4.459,-2.756,-2.996,-2.048,-14.648,-10.921
-7.729,2.457,0.825,9.42,2.408,6.138,-2.42,0.216
3.466,14.829,12.352,19.096,14.101,13.84,7.179,9.449
2.927,14.727,8.235,15.879,10.066,12.458,4.748,6.997
-2.595,7.814,-6.629,7.639,-4.505,5.561,-2.161,0.185
0.451,7.491,-7.156,8.499,-4.522,4.97,-0.776,2.229
7.022,11.714,4.797,15.128,7.618,9.73,4.92,8.762
1.801,8.137,7.262,13.705,9.82,7.868,1.534,5.152
-12.908,-2.663,-1.962,4.118,0.433,-1.352,-8.764,-6.245
-20.504,-8.025,-8.439,-1.401,-5.98,-5.795,-11.659,-9.806
-16.84,-3.74,-6.963,1.49,-4.569,-0.77,-4.846,-3.441
-15.675,-1.074,-4.869,2.606,-2.612,1.881,-1.722,-1.667
-24.252,-7.852,-9.212,-5.437,-6.938,-7.004,-8.651,-10.464
-30.608,-14.285,-15.815,-13.145,-13.576,-16.555,-13.619,-16.596
-23.621,-9.653,-11.573,-8.741,-9.519,-12.394,-5.853,-8.873
-11.014,-0.623,3.441,1.794,5.607,-0.531,5.674,3.791
-6.977,0.587,8.595,4.034,11.212,2.505,5.7,5.709
-11.845,-5.231,-4.385,-2.178,-1.739,-3.977,-4.073,-2.945
-16.902,-10.448,-17.089,-6.721,-15.047,-8.293,-11.393,-10.601
-19.923,-12.989,-17.607,-8.11,-16.052,-8.792,-14.489,-13.967
-24.034,-15.059,-16.642,-12.286,-15.041,-13.039,-19.973,-18.43
-29.117,-18.458,-23.959,-20.045,-22.197,-21.83,-27.318,-24.71
-30.88,-20.449,-31.487,-25.084,-29.875,-27.556,-29.185,-27.012
-26.083,-15.48,-26.493,-22.425,-25.223,-25.276,-24.243,-23.219
-17.611,-5.856,-12.97,-15.314,-11.918,-18.546,-19.112,-18.668
-12.312,-1.584,-7.314,-10.692,-6.395,-12.362,-17.694,-17.718
-11.654,-5.113,-12.627,-9.562,-12.097,-7.211,-16.134,-17.031
-9.038,-6.733,-14.15,-6.697,-14.182,-3.783,-9.234,-10.766
-1.171,-0.077,-4.485,-0.082,-4.784,-3.142,0.384,-1.315
5.245,7.615,5.442,4.822,5.014,-2.732,4.215,2.163
4.266,7.396,6.468,3.766,5.557,-1.586,0.896,-1.942
-0.162,2.437,1.937,1.126,0.463,-1.186,-1.916,-5.255
-0.708,2.547,-2.747,3.543,-4.335,1.013,0.761,-2.226
2.725,8.963,-4.815,10.018,-6.214,6.674,5.992,3.555
4.167,13.761,-4.43,14.327,-5.622,11.052,8.846,6.327
1.665,12.951,-4.037,14.219,-4.947,10.717,8.321,5.558
-0.377,9.752,-0.98,12.637,-1.695,8.675,6.628,4.298
1.115,7.36,8.164,12.543,7.301,9.01,6.08,4.381
3.131,5.603,16.159,12.669,15.066,10.438,6.608,4.672
1.96,3.868,14.823,9.754,13.755,8.517,6.174,2.972
-0.259,4.019,8.396,5.459,7.568,4.416,5.053,0.719
1.517,7.201,5.62,4.592,5.173,3.451,5.087,2.183
7.185,10.449,7.127,6.23,7.078,4.97,4.323,5.626
10.477,10.481,7.005,5.006,6.935,3.925,0.399,4.236
8.996,8.739,4.176,1.032,3.475,0.253,-2.675,-0.665
9.552,10.62,5.707,0.666,4.289,-0.897,0.702,-0.19
16.414,17.966,15.483,6.507,13.835,3.66,9.246,7.371
22.132,22.776,24.988,12.491,23.549,10.091,15.952,14.261
19.064,16.833,23.14,12.033,21.992,11.186,15.808,14.789
13.947,8.534,15.857,9.054,14.907,7.909,12.524,12.965
19.34,14.089,19.214,13.717,18.39,10.202,15.232,16.864
32.782,30.777,29.991,25.706,29.235,20.445,24.997,25.877
40.036,40.243,32.066,33.702,31.314,28.932,31.878,30.737
37.096,36.92,25.98,32.567,25.275,30.379,29.163,27.468
33.154,32.338,22.703,28.839,22.152,29.171,23.208,22.949
33.943,33.375,23.927,28.647,23.602,27.327,23.46,24.057
34.876,34.501,24.298,30.243,24.254,24.381,27.91,27.702
31.488,31.353,22.08,29.918,22.305,23.507,28.446,27.696
27.077,27.213,21.541,27.815,21.905,24.619,25.433,25.612
27.573,27.772,25.611,27.821,25.928,25.653,25.787,27.434
32.037,33.428,30.341,31.289,30.434,28.404,29.543,32.221
32.746,36.238,30.196,32.057,29.97,29.965,29.308,31.993
28.85,33.589,27.563,27.877,27.05,26.272,24.572,26.08
29.068,35.07,30.758,28.346,30.068,24.894,24.165,24.762
34.896,42.873,38.658,37.572,37.936,32.306,30.887,31.956
36.585,44.785,38.046,43.406,37.514,38.419,35.459,36.786
30.846,36.834,27.208,37.945,27.011,33.976,31.614,31.616
28.438,32.591,24.71,32.945,24.652,29.011,27.85,26.815
37.474,41.405,38.121,40.112,37.945,35.199,33.817,33.812
47.973,51.449,47.541,49.988,47.34,44.062,42.387,43.735
43.249,45.108,36.925,46.072,36.891,40.328,38.878,40.114
25.208,26.056,18.944,30.761,19.025,26.397,23.855,25.319
14.127,15.457,14.346,21.557,14.38,17.953,13.509,17.059
18.838,20.336,22.059,24.67,21.991,20.459,15.787,21.057
25.915,26.237,24.806,28.436,24.761,23.909,19.884,24.645
25.07,24.002,17.803,24.949,17.878,21.097,17.001,20.319
24.282,22.739,14.727,22.189,14.765,18.671,15.315,17.933
31.95,30.809,23.501,27.826,23.393,23.776,22.821,25.72
39.775,38.853,31.188,33.547,31.241,28.947,29.82,33.154
35.312,34.359,24.057,28.482,24.555,23.878,23.59,26.936
23.607,24.427,11.033,18.846,11.765,14.618,10.737,13.745
20.944,25.706,10.091,18.537,10.774,14.564,7.909,9.736
30.313,38.147,21.369,27.724,22.055,23.489,16.952,16.661
37.854,46.356,29.48,33.376,30.253,28.452,23.912,22.324
35.228,43.602,26.728,29.079,27.45,23.668,20.668,20.244
30.652,38.348,20.745,23.467,21.331,18.397,15.024,17.122
31.937,37.654,19.391,24.381,19.967,20.255,15.121,18.137
34.546,39.209,21.426,26.916,22.063,23.372,16.49,18.003
33.8,40.474,25.851,25.371,26.567,21.223,13.44,13.534
34.482,43.495,35.123,24.595,36.073,18.661,11.321,12.248
39.516,47.366,42.719,28.385,43.916,21.238,15.731,18.38
42.424,46.622,39.133,29.928,40.185,25.093,20.356,22.539
39.73,41.218,29.259,25.106,29.75,25.062,18.132,17.934
36.403,36.913,20.93,19.72,20.91,20.675,13.507,12.321
36.72,36.361,15.626,19.382,15.465,16.283,14.643,14.491
42.022,39.666,19.81,25.428,19.565,19.396,23.133,23.761
50.786,46.352,36.392,35.477,35.781,29.706,33.534,34.026
55.928,51.47,49.245,42.141,48.315,37.033,38.083,38.492
52.411,50.275,39.975,39.625,39.074,35.391,34.218,34.521
46.472,46.813,19.364,32.684,18.565,29.601,28.676,28.073
46.238,47.545,15.553,30.409,14.721,26.815,28.584,26.778
47.62,49.613,25.951,32.577,25.012,26.81,30.516,29.033
42.153,44.754,25.398,32.937,24.272,25.694,28.107,28.861
32.259,33.427,16.473,31.396,15.208,25.124,23.913,26.419
26.574,26.099,19.986,32.174,18.868,28.009,23.927,26.275
25.94,27.378,35.602,34.463,34.746,30.569,26.491,28.858
23.799,29.62,44.266,33.115,43.645,27.609,25.037,28.878
16.892,25.598,31.079,26.3,30.872,19.606,19.774,24.096
10.153,18.15,6.211,19.179,6.329,13.56,17.478,19.816
11.739,16.667,-0.57,20.166,-0.673,18.57,21.97,22.305
21.574,24.408,15.113,29.605,14.671,32.946,30.647,30.855
29.456,32.404,28.349,36.519,28.12,42.584,36.803,37.554
29.85,33.759,33.643,34.358,33.96,40.059,36.777,37.592
27.549,32.52,43.755,28.638,44.305,31.942,33.827,34.68
24.618,29.525,51.484,23.105,52.001,24.37,29.62,30.546
16.532,18.824,39.232,14.639,39.986,15.918,21.245,21.417
4.821,5.04,12.643,6.264,13.901,8.069,12.255,10.905
-0.381,2.468,-0.937,8.494,0.634,10.542,12.327,9.833
4.006,10.972,11.647,20.571,13.239,23.703,20.602,18.016
7.694,14.165,27.424,26.378,29.051,29.092,24.492,22.759
2.639,5.421,20.234,18.256,22.055,17.221,18.481,17.864
-5.759,-4.245,1.051,7.733,3.083,3.734,9.945,10.102
-7.846,-4.932,-3.61,5.885,-1.518,2.38,6.532,7.449
-3.76,-0.246,4.588,9.229,6.536,7.79,7.284,9.119
-1.304,1.976,7.216,10.15,8.825,11.691,7.097,9.208
-1.366,3.007,5.409,9.35,6.557,14.02,5.997,7.646
1.545,7.554,8.731,10.871,9.591,15.674,7.694,9.349
4.312,10.409,9.367,11.802,10.335,13.579,9.74,12.408
-1.287,4.008,0.28,7.074,1.369,6.267,5.661,9.516
-10.633,-4.371,-6.186,1.461,-5.418,0.08,-1.894,2.279
-12.72,-3.25,-1.516,2.746,-1.276,1.589,-4.12,-0.991
-9.649,1.974,4.436,7.245,4.438,5.998,-1.793,-0.201
-11.211,0.005,3.188,6.519,3.326,4.336,-2.781,-1.925
-18.749,-7.196,-2.487,0.673,-2.29,-2.876,-8.346,-7.453
-24,-9.537,-7.162,-2.468,-7.225,-6.456,-11.799,-10.414
-20.059,-2.774,-6.934,2.479,-7.171,-0.923,-8.244,-6.042
-11.947,5.732,-1.055,9.072,-1.179,5.584,-3.053,-0.627
-11.219,4.964,4.932,5.576,4.874,0.329,-5.834,-4.577
-20.208,-6.04,0.651,-7.626,0.436,-15.331,-15.831,-16.811
-30.001,-17.343,-15.176,-17.969,-15.54,-27.018,-21.961,-25.505
-32.297,-19.642,-25.221,-17.515,-25.483,-25.827,-17.692,-23.443
-27.376,-12.89,-16.736,-9.982,-16.765,-16.806,-7.726,-14.409
-20.898,-3.958,-2.319,-1.609,-2.276,-7.814,0.954,-4.676
-16,1.498,4.228,6.444,4.192,1.906,6.026,3.338
-12.782,2.403,6.214,13.712,6.18,13.128,7.282,8.647
-14.73,-2.321,0.724,14.11,0.863,15.451,3.47,8.631
-25.196,-14.036,-20.56,2.928,-20.234,1.965,-6.3,1.098
-37.734,-26.733,-42.6,-12.014,-42.309,-15.392,-17.804,-10.22
-44.113,-32.215,-45.369,-19.45,-45.287,-23.063,-24.096,-18.251
-47.414,-32.956,-36.691,-20.33,-36.678,-23.741,-24.688,-21.611
-55.224,-37.276,-35.664,-23.194,-35.647,-26.549,-26.134,-25.006
-67.068,-46.209,-44.276,-31.118,-44.527,-33.774,-32.646,-31.628
-75.177,-52.983,-50.461,-39.094,-51.011,-40.519,-39.721,-38.268
-73.339,-52.407,-46.078,-40.859,-46.443,-41.053,-40.053,-38.895
-63.416,-46.35,-35.546,-36.092,-35.404,-35.549,-33.535,-32.931
-54.578,-41.55,-31.514,-30.805,-31.077,-30.208,-27.231,-27.159
-52.714,-42.204,-36.569,-29.918,-36.087,-29.207,-26.009,-26.466
-51.976,-43.385,-36.703,-29.856,-36.111,-28.841,-25.345,-25.779
-44.909,-37.794,-25.925,-23.512,-25.153,-23.433,-17.632,-17.836
-35.417,-28.114,-14.667,-12.461,-13.892,-14.738,-5.753,-6.327
-31.965,-23.527,-8.787,-5.898,-8.248,-9.964,-0.875,-2.033
-34.171,-26.294,-5.597,-6.924,-5.403,-11.139,-4.83,-6.602
-34.246,-29.125,-4.709,-8.267,-4.8,-11.706,-6.928,-9.828
-29.437,-26.521,-7.853,-5.025,-7.979,-7.536,-2.262,-6.129
-24.741,-21.676,-14.26,-2.701,-14.16,-4.402,0.934,-2.806
-22.084,-17.926,-18.97,-5.275,-18.621,-5.699,-2.43,-5.389
-16.781,-12.454,-14.483,-5.806,-13.906,-3.715,-4.438,-6.871
-6.239,-2.917,-0.985,2.1,-0.048,6.117,3.419,0.756
3.2,4.82,7.693,10.518,8.925,13.295,14.664,11.046
1.294,1.062,2.716,6.445,3.841,6.956,14.465,9.345
-11.502,-12.85,-5.154,-6.838,-4.383,-5.774,2.388,-4.007
-21.876,-23.185,-4.639,-13.51,-4.1,-10.108,-6.958,-12.025
-21.938,-22.701,0.387,-9.415,0.962,-5.056,-6.784,-7.452
-18.764,-18.527,1.895,-5.072,2.83,-1.267,-4.406,-1.803
-18.237,-15.829,-0.491,-5.105,0.999,-1.832,-4.23,-2.408
-14.185,-10.031,-0.322,-2.71,1.444,0.271,-1.142,-1.864
-3.545,-1.248,6.662,4.074,8.299,6.197,6.443,4.124
3.715,1.609,14.452,7.134,16.076,8.256,11.041,8.023
-1.242,-5.443,11.403,0.511,13.315,2.109,6.445,3.049
-13.238,-15.818,-2.865,-11.079,-0.885,-7.736,-3.011,-6.001
-21.268,-21.988,-13.24,-18.371,-11.559,-14.358,-7.754,-9.468
-24.145,-25.822,-12.735,-20.477,-11.22,-17.604,-7.155,-8.143
-29.205,-33.581,-13.711,-23.992,-12.045,-22.02,-8.99,-10.802
-36.464,-41.779,-22.113,-29.046,-20.202,-26.593,-14.568,-17.217
-35.184,-38.736,-24.247,-27.384,-22.043,-24.309,-15.765,-17.17
-21.462,-23.592,-11.157,-16.633,-8.718,-13.551,-8.302,-7.331
-8.593,-11.616,3.048,-7.282,5.386,-4.156,-0.094,1.63
-9.269,-13.091,-0.677,-9.404,1.371,-5.623,-0.92,-0.273
-17.528,-20.387,-18.005,-19.07,-16.009,-14.357,-8.716,-8.786
-19.49,-22.556,-26.479,-24.601,-24.281,-19.786,-13.256,-12.761
-14.489,-20.487,-19.514,-22.613,-17.049,-18.891,-11.129,-10.031
-13.766,-21.609,-13.423,-20.218,-10.674,-17.477,-8.953,-8.482
-19.597,-25.455,-17.015,-20.25,-14.164,-17.29,-9.866,-10.722
-21.543,-23.965,-19.891,-16.638,-17.318,-13.082,-7.969,-9.443
-14.663,-15.211,-11.1,-6.724,-8.851,-3.476,0.755,-0.5
-6.823,-7.651,4.695,2.076,7.033,4.318,9.96,9.076
-6.221,-9.245,9.542,-0.183,12.22,1.727,9.281,8.662
-8.285,-15.488,-0.222,-11.173,2.513,-8.303,0.916,-0.247
-2.207,-14.388,-2.518,-15.716,-0.137,-11.935,-0.415,-3.687
10.033,-5.035,12.495,-8.589,14.5,-5.077,8.288,2.494
14.449,-0.726,21.95,-4.371,23.919,-1.459,11.49,4.838
7.696,-7.599,9.184,-12.231,11.286,-10.162,2.442,-3.212
3.951,-13.017,-6.719,-18.971,-4.729,-18.565,-3.845,-8.303
11.591,-6.811,-2.478,-13.168,-0.793,-13.689,2.396,-1.778
19.098,0.745,12.294,-5.379,13.845,-5.384,9.218,4.607
15.762,-3.039,16.128,-7.417,17.695,-7.519,6.264,1.211
9.579,-11.311,11.328,-12.064,12.844,-13.374,1.445,-3.37
12.126,-9.806,10.799,-7.85,12.388,-8.764,4.469,0.429
18.993,-1.572,11.638,0.414,13.435,2.963,10.572,6.959
19.148,0.207,6.311,0.159,8.023,6.124,9.682,6.052
14.721,-3.179,1.209,-7.389,2.642,-1.312,2.922,-0.27
15.628,-0.115,6.068,-9.72,7.501,-5.208,0.115,-1.872
22.345,9.946,16.163,-2.707,17.759,1.392,5.211,4.434
25.917,14.805,15.783,4.351,17.378,8.232,11.529,11.365
21.03,7.721,1.602,3.369,3.17,5.285,12.28,12.216
13.379,-1.815,-7.709,-0.941,-5.944,-1.076,10.754,10.301
12.614,-1.248,1.123,0.257,3.124,0.747,13.965,12.643
20.886,8.679,15.408,6.702,17.243,9.312,21.265,19.074
30.408,16.637,18.823,10.556,20.126,13.731,25.446,22.798
33.726,16.029,14.399,8.691,15.308,11.181,24.213,21.394
34.143,13.497,12.354,7.806,13.153,10.983,24.149,21.455
38.405,17.818,15.109,13.392,15.725,19.166,29.285,27.271
43.652,25.028,21.542,20.584,21.815,28.195,34.448,33.33
41.088,23.457,26.823,20.52,26.953,25.82,32.574,31.998
30.441,11.646,23.787,12.086,23.976,11.701,23.752,23.227
24.239,4.411,18.544,5.864,18.555,1.563,18.109,16.772
31.754,13.677,23.346,11.741,22.938,7.326,24.377,21.342
43.557,28.188,31.898,23.37,31.314,19.677,34.814,30.661
44.964,29.084,31.53,26.485,31.177,22.619,35,31.201
39.545,20.178,28.087,21.87,27.996,18.078,27.802,24.232
41.8,20.316,31.584,24.035,31.468,21.325,29.253,24.373
49.924,29.434,35.785,33.987,35.536,32.166,39.337,33.011
48.628,29.179,32.947,35.322,32.774,32.604,40.438,34.605
38.134,17.376,29.436,24.401,29.598,20.285,28.957,25.129
35.187,13.63,30.458,17.899,30.968,14.793,22.251,19.803
43.824,25.484,29.792,22.967,30.304,22.523,28.248,25.766
48.011,34.609,24.401,25.572,24.512,26.404,32.641,29.711
38.362,26.918,19.989,16.316,19.653,17.007,24.896,21.789
24.954,12.478,18.939,4.696,18.429,5.505,14.268,10.927
19.375,6.479,18.225,1.525,17.73,2.704,12.047,8.074
22.227,10.611,18.503,6.059,17.966,7.389,16.91,12.151
27.294,16.202,20.715,11.979,20.08,13.765,21.512,16.217
29.176,16.126,20.901,15.393,20.164,17.931,22.817,17.515
28.891,13.852,20.762,17.639,19.838,20.165,22.949,18.882
30.21,16.959,25.538,21.01,24.356,22.645,22.872,21.354
31.514,22.055,27.966,22.241,26.533,23.188,20.126,20.217
29.142,19.875,19.551,17.546,17.787,18.976,14.205,13.133
24.504,11.981,8.05,10.868,5.826,14.189,9.07,5.887
20.047,6.822,2.876,7.601,0.31,12.34,6.986,3.672
14.244,3.711,-0.246,4.928,-2.899,8.083,3.697,2.489
4.427,-6.447,-9.332,-4.618,-11.988,-5.264,-6.282,-5.108
-7.225,-22.026,-20.553,-19.13,-23.186,-22.829,-19.584,-17.276
-11.491,-26.343,-21.571,-24.202,-24.25,-28.69,-24.106,-21.856
-3.977,-14.107,-11.704,-15.181,-14.618,-18.501,-16.135,-14.484
4.043,-3.282,-5.659,-8.43,-8.602,-9.521,-8.559,-7.68
0.711,-7.451,-12.988,-14.854,-15.433,-13.959,-11.151,-10.892
-9.027,-16.765,-25.283,-23.233,-27.147,-22.002,-17.222,-16.992
-12.065,-15.462,-27.635,-20.592,-29.289,-20.316,-16.752,-16.119
-5.465,-3.747,-18.523,-10.227,-20.214,-10.079,-9.925,-9.21
0.268,4.192,-9.637,-4.005,-11.429,-2.111,-5.081,-4.689
-2.065,0.712,-5.264,-5.531,-7.247,-1.363,-6.416,-6.122
-3.144,-3.38,0.838,-6.495,-1.215,-1.802,-6.956,-6.519
6.986,3.711,7.51,-0.961,5.709,1.815,0.312,0.484
19.789,14.329,8.277,4.694,6.677,5.299,9.361,8.759
22.1,15.187,6.022,2.923,4.404,3.685,10.078,8.702
16.554,8.959,5.099,-2.812,3.684,-0.127,4.081,2.054
13.8,5.333,3.442,-4.626,2.53,-1.235,0.588,-1.869
15.804,5.1,1.443,-2.425,1.096,-1.12,2.312,-0.131
18.138,5.927,3.017,-0.476,3.342,-1.643,5.209,2.462
24.129,13.562,12.47,6.258,13.472,5.734,11.138,7.548
42.14,34.524,33.086,26.498,34.528,28.969,27.033,24.084
64.176,57.284,54.833,49.848,56.642,53.94,45.933,45.972
67.399,58.071,56.161,51.898,58.46,54.959,47.444,50.635
46.31,33.798,32.367,29.33,34.999,31.229,26.473,31.369
21.664,8.614,4.12,6.554,6.74,9.459,3.529,8.975
11.373,1.38,-8.908,1.141,-6.184,5.567,-2.826,2.18
12.378,6.644,-6.78,5.239,-3.463,9.528,1.942,5.687
14.37,11.51,1.101,6.847,5.041,10.581,3.942,6.819
15.349,13.509,9.22,7.725,13.268,11.558,2.85,5.972
18.038,15.408,13.97,11.81,17.806,14.738,5.216,8.703
21.021,16.705,12.57,14.108,16.303,14.509,9.063,12.12
21.219,17.825,8.17,10.806,11.788,9.407,8.771,10.579
20.753,21.674,7.866,7.681,11.122,7.041,7.088,6.902
25.123,28.119,13.674,11.293,16.684,12.928,10.828,8.983
36.116,36.449,20.845,20.744,23.98,24.059,20.091,18.695
45.874,43.937,23.354,27.788,26.488,31.192,27.178,28.006
42.074,39.745,17.993,22.425,20.835,25.235,23.921,26.517
28.746,23.907,11.458,8.683,14.261,12.166,14.135,17.022
27.02,18.592,17.099,5.731,20.255,11.037,13.749,15.915
42.999,33.218,33.256,18.954,36.687,23.957,27.806,28.463
57.225,45.802,41.078,29.801,44.365,31.276,40.292,38.956
55.637,41.271,32.552,26.604,35.484,25.387,38.687,36.103
48.235,35.173,20.622,20.454,23.546,19.761,31.239,29.09
47.912,40.441,16.899,21.509,20.316,21.8,30.104,29.106
50.627,45.018,18.938,24.423,23.008,24.324,33.407,32.659
46.404,36.57,19.511,22.191,24.03,21.44,31.286,30.318
35.989,20.919,14.821,16.675,19.369,15.655,21.922,21.608
27.818,10.834,7.623,14.092,12.025,12.968,14.889,15.303
23.459,9.116,2.645,14.749,7.244,13.452,15.238,14.872
15.274,5.508,-2.869,10.84,2.145,9.021,14.063,11.993
1.917,-5.139,-11.982,0.685,-6.895,-1.189,4.976,2.16
-4.848,-11.582,-16.333,-4.343,-11.556,-4.451,-2.572,-4.743
2.892,-4.859,-6.908,2.831,-2.485,4.732,1.977,0.175
14.061,5.598,8.434,11.455,12.647,12.38,11.401,8.491
13.357,6.36,12.6,8.746,16.842,7.04,11.197,6.897
4.994,0.165,5.509,-0.142,9.939,-1.99,3.357,-0.939
3.56,0.024,4.708,-2.136,9.15,-1.989,1.051,-2.016
8.028,7.053,13.466,2.623,17.584,3.804,5.542,3.409
6.245,9.031,14.247,3.751,17.783,5.312,6.479,4.23
-1.017,3.066,2.423,-1.362,5.296,2.019,0.697,-1.88
-3.185,-0.773,-6.862,-6.442,-4.361,-1.178,-4.712,-6.945
1.152,1.755,-6.68,-8.036,-4.092,-3.935,-4.988,-6.514
6.892,5.901,-2.99,-7.012,-0.268,-5.713,-2.033,-3.062
13.21,9.602,0.176,-3.971,2.594,-3.28,1.301,0.598
23.868,19.383,6.58,4.145,8.417,5.961,7.663,7.158
40.213,39.235,21.005,20.487,22.515,22.697,21.333,21.244
54.826,57.876,36.995,38,38.461,40.382,36.469,37.882
59.104,62.909,42.934,45.191,44.194,48.667,42.428,45.585
53.974,56.602,39.167,41.088,39.878,45.527,38.447,41.784
48.001,49.075,37.309,34.339,37.403,38.472,32.913,35.431
48.863,49.207,43.518,33.503,43.298,36.944,33.777,35.655
53.823,56.339,47.329,37.996,47.071,41.845,39.425,40.243
52.671,58.803,38.436,38.158,37.985,43.079,39.34,39.089
42.661,49.057,26.167,28.983,25.315,33.805,29.036,29.635
30.574,33.408,22.052,17.419,21.041,20.731,16.957,19.753
21.686,22.239,20.775,11.327,19.894,13.496,11.369,14.846
14.9,16.239,13.714,8.341,12.875,10.535,9.129,11.166
9.552,11.173,3.152,3.959,2.256,6.059,4.694,5.385
10.134,10.644,-2.374,2.894,-3.202,4,2.336,2.887
18.486,18.964,2.234,10.119,1.437,10.406,8.511,8.636
26.331,28.332,10.779,17.818,9.692,18.204,16.257,15.116
24.066,28.07,11.917,15.009,10.358,15.613,12.695,11.558
15.895,22.281,7.071,6.022,5.258,6.551,2.306,2.884
13.397,22.289,5.849,2.251,4.121,3.319,0.098,1.713
16.336,26.514,7.889,2.372,6.418,5.101,4.573,6.279
15.946,25.775,7.689,-0.428,6.506,4.343,3.202,5.996
11.149,19.424,5.008,-4.756,4.084,1.054,-4.207,0.327
9.613,14.963,2.286,-5.75,1.57,-1.021,-6.448,-2.068
16.038,18.404,2.263,-1.62,1.575,0.66,1.021,2.987
23.683,25.187,4.637,4.099,3.601,4.409,8.692,9.126
21.678,23.046,3.8,3.654,2.219,2.854,6.242,7.527
10.47,9.722,-2.098,-4.889,-3.899,-6.358,-3.04,-1.118
2.842,-0.514,-4.594,-11.567,-6.221,-12.922,-7.188,-6.018
6.943,3.357,4.114,-7.542,2.474,-7.976,-2.039,-0.489
14.492,12.183,16.254,0.088,14.182,0.377,2.784,6.981
13.752,12.391,13.884,-0.727,11.479,-0.655,-0.664,5.454
8.661,8.681,-2.512,-6.036,-4.812,-6.611,-4.656,-0.015
11.541,13.374,-8.696,-2.693,-10.688,-3.203,0.79,3.013
19.686,22.348,1.202,7.421,-0.54,7.828,9.365,11.729
19.251,22.996,5.13,10.596,3.377,11.524,9.156,12.533
11.233,17.084,-1.547,5.752,-3.597,6.246,3.247,5.602
8.69,14.961,-1.431,3.078,-3.517,3.394,2.14,2.957
12.976,17.308,6.56,4.217,4.883,5.466,4.707,5.766
13.755,15.979,5.3,1.749,3.703,4.041,1.573,3.53
6.363,6.764,-9.34,-7.083,-11.412,-5.116,-8.633,-6.931
-2.686,-4.564,-20.659,-15.818,-23.053,-15.581,-17.007,-16.095
-6.264,-10.644,-16.787,-17.92,-19.193,-19.358,-18.285,-17.238
-7.306,-13.004,-8.66,-16.47,-11.16,-18.569,-18.352,-16.638
-12.815,-18.018,-12.246,-20.014,-14.869,-22.357,-23.848,-22.522
-18.442,-24.076,-21.009,-27.546,-23.6,-30.406,-29.618,-29.895
-12.082,-20.328,-15.365,-26.489,-17.97,-30.045,-24.289,-25.924
3.455,-5.344,4.247,-13.943,1.351,-18.12,-9.615,-11.328
10.938,4.857,18.895,-3.977,15.469,-8.49,-0.112,-0.964
5.423,-0.141,16.243,-4.327,12.304,-8.806,-0.459,-0.584
-2.064,-12.365,-0.417,-7.924,-4.621,-12.157,-2.535,-2.752
-3.781,-20.234,-14.452,-8.964,-18.829,-12.697,-1.908,-2.625
-0.792,-19.373,-13.222,-7.718,-18.081,-10.513,-0.063,-1.141
3.942,-12.134,-3.225,-3.679,-8.787,-5.593,3.032,1.449
8.14,-4.106,3.862,3.278,-2.108,1.815,7.374,5.274
8.952,0.434,5.07,8.39,-0.962,8.134,9.197,7.805
5.452,0.477,3.213,6.919,-2.995,8.467,5.813,6.469
-0.534,-4.004,0.722,-0.456,-5.896,0.076,-0.986,1.099
-7.719,-12.153,-4.328,-9.927,-11.255,-14.128,-8.344,-6.641
-13.582,-18.235,-12.041,-15.693,-18.977,-23.844,-12.867,-11.857
-13.661,-16.111,-14.252,-12.582,-21.034,-20.517,-10.845,-9.092
-8.847,-9.475,-7.397,-3.75,-14.187,-9.443,-3.608,-0.71
-6.656,-8.152,-2.608,0.973,-9.771,-3.797,0.99,3.477
-10.843,-14.469,-8.021,-2.949,-15.639,-8.103,-3.115,-1.954
-17.19,-21.719,-13.874,-10.956,-21.559,-16.367,-12.489,-11.9
-20.947,-24.622,-9.768,-16.109,-17.121,-21.774,-18.192,-17.804
-21.943,-24.909,-3.866,-15.869,-10.839,-22.125,-17.105,-17.705
-23.765,-28.056,-9.003,-14.707,-15.727,-21.201,-15.79,-17.651
-28.55,-35.226,-22.002,-17.21,-28.483,-23.508,-19.53,-21.55
-31.603,-39.095,-30.674,-19.536,-36.881,-26.362,-23.51,-24.712
-28.275,-34.341,-29.061,-16.744,-35.011,-25.469,-22.488,-23.452
-24.38,-27.867,-21.634,-12.805,-27.198,-23.601,-20.928,-22.626
-27.404,-28.463,-19.14,-12.998,-24.212,-24.198,-23.843,-25.81
-31.436,-32.368,-23.902,-13.595,-28.659,-23.486,-25.523,-26.895
-29.323,-31.997,-26.496,-10.244,-31.089,-18.708,-20.941,-22.348
-29.38,-31.341,-24.256,-8.083,-28.602,-15.291,-18.3,-20.498
-37.71,-36.424,-23.616,-10.92,-27.602,-15.467,-23.437,-25.684
-44.491,-41.875,-24.147,-13.478,-27.885,-14.506,-28.364,-29.984
-42.338,-40.075,-20.55,-12.42,-24.399,-12.678,-26.514,-28.109
-35.77,-32.651,-16.04,-10.597,-20.244,-13.03,-21.447,-23.679
-30.117,-25.618,-16.512,-9.413,-20.925,-12.597,-17.425,-19.849
-26.275,-20.53,-17.628,-7.666,-21.977,-9.722,-14.816,-16.203
-23.705,-15.855,-14.157,-5.877,-18.37,-8.158,-14.526,-13.987
-22.244,-12.883,-10.349,-6.352,-14.46,-9.337,-18.257,-15.793
-24.723,-16.953,-13.113,-12.458,-17.138,-14.802,-26.916,-23.189
-34.65,-30.245,-27.324,-25.973,-31.271,-28.409,-39.901,-36.273
-46.644,-42.984,-47.726,-39.92,-51.442,-43.695,-51.41,-49.414
-48.877,-41.258,-54.627,-42.181,-57.943,-45.399,-53.483,-53.234
-41.529,-27.894,-42.172,-33.113,-45.293,-34.004,-47.665,-47.731
-40.375,-23.59,-33.471,-28.857,-36.71,-30.323,-46.012,-45.258
-50.64,-36.435,-39.757,-37.475,-43.097,-43.11,-53.658,-52.348
-56.336,-48.202,-42.694,-45.911,-45.941,-53.937,-58.614,-57.784
-50.502,-46.798,-37.956,-43.021,-40.924,-49.267,-50.786,-51.289
-47.491,-43.672,-41.144,-36.982,-43.74,-40.418,-40.205,-42.017
-55.696,-47.878,-51.963,-38.761,-54.404,-39.89,-41.136,-43.193
-66.333,-53.63,-62.18,-46.251,-64.858,-45.229,-50.15,-51.828
-69.112,-54.475,-69.544,-50.537,-72.583,-49.391,-54.066,-55.945
-64.494,-51.51,-68.779,-48.855,-71.944,-49.77,-50.892,-53.129
-61.996,-50.662,-61.374,-47.913,-64.409,-49.442,-50.282,-52.488
-67.054,-55.638,-57.141,-52.884,-60.102,-52.518,-56.839,-59.238
-72.947,-61.81,-55.801,-57.876,-58.983,-56.164,-63.472,-66.105
-71.657,-61.762,-51.574,-55.612,-55.11,-54.712,-62.719,-64.843
-67.693,-58.387,-49.661,-51.605,-53.285,-52.146,-58.778,-60.13
-68.953,-59.789,-53.718,-54.306,-57.066,-55.422,-60.101,-61.194
-70.356,-62.03,-52.362,-57.464,-55.499,-57.999,-63.659,-64.496
-63.205,-55.507,-42.588,-50.192,-45.932,-49.121,-59.765,-59.706
-51.435,-43.252,-38.092,-36.543,-41.762,-34.333,-49.389,-48.285
-45.382,-36.633,-42.449,-29.96,-46.173,-28.857,-43.622,-41.936
-48.136,-39.613,-47.785,-33.894,-51.322,-34.408,-46.027,-44.269
-54.133,-46.347,-51.181,-39.102,-54.452,-38.332,-47.901,-46.705
-56.246,-48.61,-50.588,-38.339,-53.607,-34.069,-43.917,-43.89
-53.952,-44.508,-45.051,-35.364,-47.865,-30.126,-40.329,-41.446
-53.506,-41.879,-41.724,-37.44,-44.466,-36.091,-43.295,-44.968
-56.001,-46.348,-42.996,-42.721,-45.825,-45.994,-47.435,-48.952
-52.72,-49.401,-38.339,-41.016,-40.916,-45.103,-41.964,-42.775
-39.562,-40.369,-22.957,-28.488,-24.51,-31.226,-26.63,-26.516
-27.029,-25.573,-9.894,-15.443,-10.32,-17.765,-14.789,-13.671
-26.024,-20.181,-12.588,-13.628,-12.71,-15.338,-15.761,-13.955
-31.824,-24.805,-24.627,-19.791,-24.996,-19.367,-22.042,-20.476
-33.552,-28.095,-29.177,-22.164,-29.455,-20.267,-22.87,-21.985
-29.816,-25.607,-21.569,-18.116,-21.273,-17.055,-19.205,-18.584
-26.536,-21.835,-11.543,-14.134,-10.68,-14.458,-17.005,-16.384
-27.733,-21.094,-9.644,-14.038,-8.557,-14.395,-17.266,-16.56
-29.874,-20.839,-14.117,-13.868,-13.086,-13.554,-16.002,-14.866
-27.03,-16.792,-12.598,-9.688,-11.556,-9.686,-11.195,-9.375
-22.138,-13.384,-2.271,-5.786,-0.898,-7.055,-8.156,-5.577
-22.642,-16.405,1.365,-6.906,3.173,-8.172,-11.002,-7.728
-27.443,-21.458,-11.866,-9.324,-9.742,-8.443,-13.999,-10.698
-28.694,-20.141,-26.605,-6.97,-24.115,-4.806,-10.569,-8.046
-26.055,-13.368,-26.595,-2.146,-23.693,-1.658,-5.195,-3.284
-29.531,-12.818,-22.176,-4.527,-19.121,-5.639,-8.262,-6.265
-41.503,-23.3,-27.656,-15.726,-24.746,-15.677,-20.239,-17.57
-46.727,-30.512,-33.487,-21.825,-30.711,-20.679,-27.474,-23.599
-33.553,-20.772,-24.176,-12.256,-21.286,-12.59,-19.714,-14.965
-15.39,-3.941,-6.98,1.388,-3.781,-0.139,-7.569,-3.318
-12.797,0.954,-1.02,1.674,2.488,1.184,-7.237,-4.518
-22.975,-7.321,-7.42,-8.214,-3.65,-8.55,-14.083,-12.803
-27.927,-15.85,-11.84,-12.974,-7.857,-15.184,-13.555,-12.97
-23.153,-17.48,-8.167,-8.938,-4.192,-11.692,-6.125,-5.73
-18.489,-15.683,-3.139,-4.511,0.587,-6.174,-1.774,-1.38
-17.517,-14.468,-3.093,-4.627,0.446,-6.501,-2.308,-1.459
-12.744,-10.529,-3.543,-2.959,0.02,-5.613,-0.026,1.499
-2.189,-1.418,4.434,6.221,8.062,4.703,8.938,10.454
4.358,5.611,17.141,15.377,20.722,15.61,16.949,17.953
0.204,2.817,19.842,14.976,23.223,14.868,16.505,17.507
-9.335,-5.837,10.949,9.036,14.082,6.778,11.635,13.22
-14.477,-8.868,4.896,7.881,7.96,3.908,10.114,12.306
-13.745,-4.951,5.625,10.779,8.764,6.816,10.07,12.829
-15.665,-5.551,3.022,8.38,6.059,5.494,4.052,7.738
-23.559,-13.948,-7.247,0.665,-4.617,-2.233,-5.889,-1.014
-28.584,-19.323,-17.236,-2.27,-15.098,-7.025,-9.374,-4.235
-24.525,-16.392,-13.739,2.944,-11.922,-3.145,-3.938,-0.175
-18.708,-13.385,1.677,7.768,3.411,2.879,0.262,2.495
-20.021,-15.936,6.511,6.362,8.379,4.267,-3.246,-0.867
-23.199,-16.522,-6.648,5.318,-4.6,5.873,-5.458,-1.973
-17.514,-7.828,-15.247,11.184,-13.383,13.509,2.114,5.797
-7.851,2.304,-8.511,16.532,-7.309,18.351,10.08,13.131
-8.681,1.636,-3.324,10.496,-2.667,8.901,5.673,8.284
-17.932,-5.605,-7.813,-1.485,-7.018,-5.661,-5.576,-3.24
-20.756,-6.6,-10.735,-5.408,-9.451,-8.644,-9.603,-7.48
-17.314,-3.911,-8.377,-2.29,-7.023,-3.786,-6.36,-4.066
-19.899,-9.011,-8.555,-3.528,-7.691,-4.453,-6.427,-3.681
-27.239,-18.352,-11.263,-9.02,-10.932,-9.644,-11.917,-8.86
-26.329,-17.959,-8.679,-8.578,-8.525,-9.331,-13.866,-11.039
-15.337,-6.902,-1.99,0.093,-1.768,-1.919,-7.427,-5.224
-6.028,1.949,-0.248,8.212,0.051,5.21,0.25,2.558
-5.936,1.67,-2.739,9.279,-2.39,7.292,1.769,5.324
-11.276,-2.786,-0.233,6.011,0.09,5.813,-0.057,4.174
-14.442,-4.646,8.716,4.697,8.92,4.627,1.609,4.55
-13.781,-3.656,16.128,6.542,16.325,5.462,5.912,6.856
-15.088,-4.768,14.347,6.292,14.633,5.27,5.481,5.545
-18.732,-7.605,3.792,3.3,3.963,3.168,1.544,1.8
-17.35,-5.713,-5.608,4.307,-5.752,4.336,3.005,3.942
-11.09,0.919,-5.043,9.883,-5.441,9.654,8.588,10.691
-7.947,3.984,1.465,12.33,1.066,12.325,9.032,11.897
-9.983,-0.242,4.232,9.102,4.091,9.726,3.524,5.648
-12.321,-5.144,0.808,5.56,0.937,6.809,-1.115,-0.318
-12.28,-4.893,-3.572,5.152,-3.348,5.938,-1.482,-0.962
-10.361,-1.442,-2.149,7.268,-1.993,6.041,2.098,2.853
-6.996,1.496,4.995,10.645,4.854,8.311,7.899,7.852
-3.042,3.597,10.935,13.35,10.209,12.787,11.205,10.511
1.504,7.631,12.551,14.649,11.122,15.781,10.255,11.156
6.068,13.245,11.965,14.586,10.061,14.188,8.709,11.691
6.907,15.22,9.931,11.458,7.959,8.63,6.591,9.865
3.486,12.657,6.195,5.24,4.203,1.886,1.293,4.73
1.295,10.289,2.241,-0.131,-0.026,-3.145,-3.303,1.26
3.376,9.804,-0.54,-0.873,-3.045,-3.376,-1.381,3.122
5.818,8.65,-1.991,1.642,-4.61,0.699,3.93,6.824
4.872,6.711,-1.407,3.047,-4.297,3.768,5.108,7.313
3.185,7.077,0.869,3.016,-2.238,3.632,2.517,5.617
5.554,10.759,3.744,5.497,0.828,4.787,2.955,6.838
11.664,15.469,8.714,12.236,6.038,11.28,8.578,12.418
14.471,16.112,14.079,17.75,11.257,18.536,12.644,16.303
9.522,10.618,14.333,15.919,11.184,18.851,9.532,13.102
3.139,6.667,11.519,10.918,8.18,14.044,4.83,8.015
3.1,10.682,14.102,11.359,10.738,12.506,6.945,9.468
6.903,16.096,21.169,16.233,17.9,15.789,13.159,15.246
5.487,13.119,18.636,15.442,15.553,15.183,12.738,14.61
-2.314,4.349,3.247,6.537,0.376,6.47,4.545,6.053
-6.139,2.032,-6.299,1.364,-9.001,0.665,0.884,1.987
-1.417,9.25,-1.082,5.856,-3.683,4.861,6.92,7.58
3.166,16.329,5.989,10.162,3.533,9.344,12.43,12.6
3.394,18.873,9.283,9.139,7.204,8.593,11.603,11.834
6.883,22.516,14.535,10.357,13.001,9.971,11.852,12.782
16.331,28.248,19.568,16.487,18.332,15.398,16.802,18.503
22.73,29.718,18.722,19.946,17.393,17.475,18.278,20.759
20.387,25.216,14.484,17.196,13.115,14.004,11.701,15.01
16.016,21.375,12.807,14.738,11.743,12.088,5.319,9.309
18.627,24.422,16.229,19.131,15.563,17.88,7.839,12.438
24.222,28.825,20.29,25.455,19.881,25.558,14.368,19.443
19.319,22.103,15.704,21.181,15.483,21.793,11.741,16.819
4.133,6.827,2.94,5.704,2.916,6.238,-1.745,2.885
-5.152,-0.555,-4.732,-5.887,-4.541,-5.428,-12.339,-8.458
-1.413,4.23,-0.249,-4.154,0.064,-4.084,-10.2,-7.253
5.916,9.942,7.5,2.929,7.719,2.128,-2.27,-0.107
8.122,9.979,6.805,4.319,6.909,3.23,0.089,1.348
6.961,9.248,1.307,1.487,1.435,1.408,-1.632,-2.041
6.863,11.557,3.382,1.651,3.567,2.866,0.438,-1.495
6.648,12.477,7.966,4.156,8.262,5.624,4.968,3.157
2.976,8.434,1.258,3.42,1.665,4.505,5.259,4.667
-1.218,4.493,-8.376,0.383,-8.017,1.948,2.162,2.472
1.462,8.008,-3.888,2.462,-3.51,5.363,3.426,4.295
10.993,17.392,10.232,10.893,10.872,14.825,10.672,11.919
18.57,22.977,18.138,16.429,18.925,21.155,15.186,16.087
19.453,20.403,16.61,12.939,17.193,18.496,11.279,11.205
18.449,16.822,15.281,7.076,15.606,12.283,6.233,5.097
20.816,19.645,20.635,7.189,21.024,9.8,8.738,6.783
23.542,24.316,25.099,9.487,25.817,8.841,13.935,11.875
19.284,20.482,16.278,4.22,17.12,2.883,10.868,9.37
7.3,7.619,-3.443,-8.939,-2.81,-7.984,-0.993,-1.687
-3.61,-3.186,-17.281,-19.82,-16.682,-16.48,-11.745,-11.516
-5.718,-3.87,-17.317,-21.332,-16.38,-17.481,-14.304,-13.464
-2.447,0.565,-12.618,-17.736,-11.548,-14.716,-12.182,-11.087
2.39,4.936,-7.4,-12.601,-6.733,-10.618,-8.393,-6.77
13.608,13.821,3.925,-0.981,4.109,0.053,2.282,4.43
27.333,24.666,15.325,14.021,15.399,14.215,16.546,18.728
29.002,25,14.202,18.904,14.381,18.731,20.413,22.709
16.452,13.383,2.417,10.145,2.643,10.075,10.692,13.356
1.23,0.072,-8.545,-3.44,-8.284,-3.473,-3.34,-0.859
-7.998,-7.323,-12.416,-13.157,-12.089,-13.022,-12.627,-11.348
-9.316,-6.261,-9.219,-13.851,-8.844,-12.373,-11.882,-12.328
-4.195,1.496,-1.628,-5.534,-1.18,-2.03,-2.494,-4.109
2.136,8.284,3.312,3.389,3.736,7.245,6.387,4.703
3.961,7.35,0.875,4.427,1.095,6.518,7.52,6.319
1.983,1.503,-2.46,-0.335,-2.347,0.117,3.29,2.609
1.575,-1.019,0.101,-3.656,0.178,-3.535,0.318,0.245
3.246,0.83,4.05,-4.435,3.743,-3.931,0.449,0.744
1.378,-0.843,2.086,-6.463,1.116,-5.048,0.161,-0.159
-4.344,-7.085,-3.246,-8.581,-4.746,-6.307,-1.051,-2.886
-6.391,-7.695,-3.272,-5.941,-5.053,-5.143,1.335,-1.627
-3.237,-0.741,1.749,-0.616,-0.137,-3.669,6.627,3.919
-1.564,2.774,2.701,0.76,0.859,-4.298,8.257,6.363
-3.176,-1.083,-1.69,-2.402,-3.35,-5.778,5.271,3.392
-3.15,-3.685,-1.904,-4.784,-3.372,-6.055,3.469,0.986
1.132,0.166,5.076,-3.202,3.621,-4.249,5.83,3.066
6.138,5.479,9.816,-0.172,8.23,-1.929,8.748,6.133
6.549,6.56,6.866,0.337,5.271,-1.934,8.019,5.656
3.538,5.275,1.658,-1.367,0.224,-3.828,5.182,3.087
5.656,9.448,1.443,0.703,-0.029,-1.628,6.703,4.978
14.225,19.738,8.346,9.28,6.442,7.344,13.79,12.889
18.461,25.615,16.647,16.585,14.315,14.806,18.386,18.721
16.02,24.715,20.442,17.194,18.022,15.059,17.692,18.576
16.322,25.463,22.479,15.943,20.192,13.373,17.703,18.048
19.474,28.095,26.493,16.121,24.517,13.479,19.231,19.379
17.57,27.113,27.43,15.205,25.963,13.208,18.298,19.232
10.091,22.347,18.179,10.851,17.014,10.277,14.238,15.565
2.471,16.289,2.865,4.56,1.402,5.48,9.033,9.763
-0.636,13.175,-6.482,2.287,-8.445,4.591,6.525,6.828
-0.193,15.337,-7.471,6.11,-9.416,9.674,7.663,8.629
-3.98,15.694,-8.943,7.592,-10.438,10.628,5.426,7.874
-14.125,7.857,-13.594,0.846,-14.881,1.756,-3.464,0.187
-20.904,-1.538,-15.488,-7.476,-17.036,-7.238,-10.54,-6.635
-18.523,-3.55,-14.022,-11.068,-15.917,-10.62,-10.544,-6.691
-15.148,-1.779,-14.66,-13.878,-16.616,-14.596,-10.593,-6.446
-19.906,-6.375,-19.141,-21.66,-20.868,-22.638,-17.625,-13.053
-27.512,-15.467,-22.262,-30.33,-23.673,-29.322,-26.006,-21.105
-24.608,-15.113,-18.412,-28.217,-19.508,-26.217,-23.742,-18.465
-12.21,-3.862,-10.189,-15.248,-11.039,-14.549,-11.883,-6.198
-7.207,0.628,-5.713,-8.494,-6.501,-8.906,-6.045,-0.595
-15.923,-10.288,-11.801,-16.745,-12.771,-16.658,-12.461,-8.509
-25.364,-22.931,-26.296,-27.013,-27.623,-25.88,-20.048,-17.928
-25.078,-24.635,-34.253,-26.527,-35.873,-24.992,-19.851,-18.407
-20.439,-19.546,-29.01,-20.182,-30.721,-19.007,-15.546,-13.945
-19.969,-16.231,-22.914,-17.775,-24.724,-16.96,-12.978,-11.682
-20.832,-14.596,-21.807,-18.071,-23.834,-16.613,-11.116,-10.63
-14.441,-8.401,-16.082,-13.529,-18.145,-10.648,-5.928,-5.839
-2.57,2.174,-3.72,-4.06,-5.503,-0.711,1.955,2.438
3.706,7.047,3.228,2.397,1.677,4.36,6.94,8.212
3.85,4.935,1.281,4.915,-0.228,5.044,7.852,9.943
8.447,8.665,3.075,11.899,1.72,11.766,10.451,13.106
17.562,20.481,14.432,23.757,13.439,24.715,16.121,18.684
20.068,27.058,22.319,30.561,21.702,30.786,18.473,20.63
11.123,20.889,13.426,26.829,13.055,23.195,12.648,14.776
-2.051,8.294,-4.599,17.452,-4.919,11.015,2.178,4.303
-6.733,1.993,-10.432,12.846,-10.688,7.863,-2.228,-0.784
1.143,7.188,1.349,17.155,1.515,15.157,4.917,5.226
10.739,13.942,13.5,21.001,14.293,20.924,13.747,13.183
12.016,12.693,13.597,15.373,14.756,17.614,12.973,11.882
8.591,8.35,8.619,6.406,9.834,12.116,7.63,5.908
8.098,9.527,8.407,4.786,9.634,12.765,8.482,6.252
10.004,15.012,11.659,8.933,12.968,16.519,12.62,10.757
8.373,16.609,11.036,8.764,12.526,15.073,9.018,8.409
3.925,12.446,5.532,2.833,7.383,9.172,-0.853,-0.023
8.554,13.854,6.167,4.372,8.442,11.377,-0.145,1.62
26.101,26.964,18.227,19.983,20.716,25.953,16.888,18.832
36.949,34.536,25.069,30.892,27.555,34.344,28.68,30.632
26.709,22.659,16.279,20.455,18.681,22.965,18.585,20.968
12.384,8.507,8.104,3.788,10.333,8.027,2.805,5.536
11.526,9.678,8.472,0.429,10.5,6.4,0.723,3.031
12.925,13.364,2.569,2.424,4.61,7.897,3.911,5.169
3.26,4.258,-11.255,-4.127,-8.874,-0.436,-2.143,-1.957
-6.96,-7.515,-16.571,-12.127,-13.803,-9.282,-10.406,-10.807
-3.162,-6.153,-9.065,-8.425,-6.219,-4.748,-6.662,-7.041
10.532,6.172,1.645,3.98,4.305,8.214,6.247,6.449
19.007,15.254,7.175,11.063,9.706,13.631,13.3,14.539
16.136,13.744,4.689,7.57,7.192,7.938,9.042,11.308
10.611,8.153,-0.584,3.342,1.693,3.575,3.988,6.729
9.51,4.206,-2.011,4.176,-0.19,5.707,4.941,7.422
7.346,-2.417,-2.306,0.681,-0.657,2.965,3.391,4.874
0.681,-12.068,-5.059,-11.196,-3.008,-8.931,-5.33,-5.275
-2.846,-16.091,-6.462,-20.128,-3.964,-17.854,-11.688,-12.859
2.692,-10.444,-4.87,-18.095,-2.487,-16.034,-8.666,-10.758
11.263,-2.206,-4.457,-11.377,-2.597,-10.448,-2.501,-5.562
12.573,-0.601,-6.477,-10.273,-4.965,-10.36,-2.37,-6.429
6.69,-4.861,-7.149,-15.113,-5.699,-14.318,-6.484,-11.312
3.954,-5.966,-2.745,-15.854,-1.597,-12.785,-4.612,-9.514
10.699,0.497,7.477,-5.719,7.99,-1.232,6.746,3.288
17.61,5.031,15.816,5.601,16.126,9.851,15.37,14.693
8.441,-6.51,9.103,1.007,9.806,4.319,6.064,7.711
-13.355,-29.196,-10.804,-17.432,-9.927,-14.889,-15.575,-13.339
-25.638,-42.379,-24.715,-29.488,-24.119,-27.468,-28.454,-27.026
-22.249,-39.97,-23.782,-27.302,-23.474,-26.027,-26.443,-26.576
-19.008,-34.553,-19.761,-22.871,-19.724,-22.488,-22.752,-24.353
-22.47,-33.259,-21.529,-24.497,-21.757,-24.096,-24.685,-26.605
-21.627,-31.185,-22.42,-26.206,-22.541,-24.507,-24.968,-26.428
-11.771,-26.558,-16.52,-22.702,-16.215,-19.668,-18.731,-20.438
-3.007,-23.913,-9.113,-18.628,-8.664,-15.492,-11.754,-14.733
-4.168,-24.786,-7.21,-19.94,-7.104,-17.737,-10.83,-14.965
-10.534,-25.623,-9.37,-23.91,-9.693,-22.682,-14.371,-18.643
-10.442,-22.115,-8.715,-22.147,-9.25,-21.568,-14.792,-18.475
-1.968,-14.89,-4.75,-14.103,-5.405,-13.949,-10.047,-13.201
5.767,-9.294,-2.868,-8.198,-3.76,-7.948,-5.296,-8.465
9.1,-6.212,-1.56,-6.717,-2.723,-5.721,-1.856,-5.535
15.152,0.813,6.368,-2.13,5.08,-0.352,4.892,1.037
27.241,14.167,19.176,8.287,17.79,10.517,15.183,12.135
36.117,25.323,25.652,15.328,24.119,18.036,20.675,18.868
33.723,27.57,22.554,11.711,21.121,15.026,15.893,15.008
26.394,25.509,18.836,3.22,17.704,6.726,7.12,6.589
25.897,25.236,18.995,-0.336,17.768,2.593,3.808,2.782
32.638,25.227,16.743,1.366,14.833,3.537,6.221,4.004
35.191,20.16,7.512,-0.078,4.955,2.321,5.958,3.026
28.705,10.899,-1.342,-6.914,-3.872,-2.926,-0.324,-2.837
23.557,6.808,2.238,-9.839,0.292,-3.977,-4.22,-6.195
28.891,13.624,17.625,-2.718,16.171,3.722,2.066,-0.522
37.183,23.055,27.932,6.734,26.495,11.503,13.371,9.015
34.445,22.499,21.576,7.042,19.873,8.524,17.301,11.491
22.804,13.545,9.489,0.163,7.616,-0.993,11.924,6.348
17.495,8.187,5.711,-1.519,3.869,-3.228,8.97,4.391
19.961,7.411,5.456,3.417,3.736,2.336,13.056,8.743
16.796,1.928,0.739,4.23,-0.857,3.934,13.623,9.549
5.88,-8.107,-3.208,-1.478,-4.781,-0.997,5.865,2.643
-0.056,-12.808,-0.729,-5.193,-2.275,-4.492,0.169,-2.949
5.215,-8.469,4.46,-2.534,3.168,-2.266,4.423,0.109
12.7,-2.158,7.405,1.826,6.44,2.028,12.219,6.931
11.736,-2.323,7.834,0.925,6.991,1.626,12.502,7.479
4.059,-8.949,5.893,-6.329,5.059,-5.546,4.055,-0.235
0.363,-13.938,0.831,-11.959,0.061,-11.572,-2.12,-6.298
5.943,-11.464,-2.515,-7.972,-3.295,-7.285,3.037,-1.662
14.668,-5.152,3.02,0.826,2.038,3.016,12.52,7.567
17.124,-2.973,13.105,1.828,12.013,6.131,12.606,8.084
12.024,-6.804,14.503,-7.306,13.642,-1.1,3.682,-0.581
6.765,-10.154,6.088,-16.264,5.531,-9.883,-1.772,-6.656
4.295,-10.067,-0.192,-19.298,-0.706,-15.784,-0.739,-6.557
-1.008,-13.303,-0.827,-21.14,-1.424,-21.119,-2.543,-8.523
-9.745,-22.265,-2.09,-23.832,-2.612,-23.801,-9.986,-14.803
-14.445,-28.429,-5.708,-23.238,-6.148,-20.629,-14.309,-17.69
-12.752,-27.625,-9.628,-19.644,-10.242,-15.847,-10.946,-14.277
-12.392,-28.048,-15.619,-19.593,-16.333,-15.639,-7.615,-11.912
-18.931,-34.865,-23.415,-24.19,-23.777,-18.798,-10.005,-14.808
-25.843,-39.617,-24.165,-25.495,-24.081,-18.729,-11.358,-16.006
-25.268,-35.158,-15.452,-20.414,-15.301,-14.118,-6.797,-10.999
-21.326,-28.631,-10.807,-17.128,-10.743,-11.691,-4.206,-7.61
-22.195,-29.257,-18.499,-21.354,-18.184,-15.828,-10.613,-12.963
-24.828,-32.38,-26.63,-26.043,-25.792,-20.528,-18.767,-20.281
-19.845,-27.559,-21.354,-22.268,-20.154,-17.644,-17.692,-18.91
-8.663,-17.279,-7.377,-13.06,-6.013,-9.315,-9.542,-11.045
-2.9,-13.597,-0.96,-7.837,0.558,-4.021,-4.913,-7.137
-8.759,-20.788,-9.263,-10.768,-7.719,-6.142,-8.534,-11.688
-19.153,-30.845,-22.026,-18.115,-20.568,-13.168,-15.883,-19.966
-22.377,-33.87,-25.253,-21.429,-23.705,-17.262,-19.111,-23.507
-18.071,-30.65,-21.214,-17.714,-19.602,-14.027,-17.55,-20.893
-15.251,-29.146,-21.162,-13.226,-19.949,-8.192,-17.8,-19.259
-15.428,-29.614,-22.953,-11.961,-22.31,-5.222,-20.9,-20.997
-11.561,-24.853,-18.03,-10.138,-17.655,-4.897,-19.854,-19.579
-2.665,-14.947,-10.617,-5.261,-10.403,-4.455,-11.666,-12.099
1.644,-10.778,-8.808,-2.297,-8.847,-4.058,-4.411,-6.431
-3.82,-16.918,-8.78,-4.567,-8.997,-5.88,-5.575,-8.64
-10.723,-23.33,-4.873,-6.395,-5.172,-7.565,-9.774,-12.523
-12.007,-23.354,-2.598,-3.878,-2.902,-5.656,-9.313,-11.474
-13.304,-24.663,-9.076,-3.275,-9.203,-4.608,-7.925,-10.253
-21.505,-34.068,-20.986,-10.39,-20.871,-10.751,-12.594,-15.422
-30.533,-43.155,-27.246,-18.226,-27.033,-18.348,-18.489,-21.27
-28.155,-39.155,-20.166,-14.831,-19.933,-15.064,-14.99,-17.097
-16.004,-25.71,-6.159,-2.143,-5.856,-2.255,-4.355,-5.67
-8.944,-18.554,-1.08,5.879,-0.678,5.898,1.34,0.274
-11.635,-21.701,-6.873,4.509,-6.335,4.473,-0.141,-1.973
-12.843,-24.302,-5.966,3.556,-5.158,3.358,-0.074,-2.818
-6.708,-20.617,8.137,9.038,9.269,8.724,4.847,2.523
-1.744,-17.162,17.333,13.432,18.519,13.503,8.073,7.077
-4.136,-18.729,10.437,10.141,11.315,11.851,5.31,4.811
-6.518,-19.807,1.89,5.547,2.559,9.918,1.481,0.513
0.204,-13.945,6.676,8.347,7.614,14.011,3.493,2.448
10.229,-6.374,17.128,13.821,18.477,17.761,8.76,8.133
10.712,-7.087,17.647,11.574,19.079,12.624,8.426,7.495
4.047,-12.762,10.099,5.552,11.41,4.475,4.092,2.294
2.502,-12.813,7.454,7.123,8.799,4.717,5.844,3.452
7.352,-7.475,11.208,14.444,12.888,11.678,14.235,10.314
12.307,-3.065,13.57,17.955,15.765,15.885,20.578,13.604
16.416,0.211,13.715,17.175,16.333,16.448,21.386,12.843
19.696,3.795,15.103,16.411,18.058,17.338,19.192,12.888
19.952,6.809,17.314,15.636,20.763,17.548,15.913,13.414
22.347,13.424,22.561,17.731,26.499,19.175,16.585,16.164
31.958,25.725,31.879,25.654,35.9,26.552,23.589,23.959
38.889,32.2,35.074,29.877,38.94,31.749,25.722,27.895
35.054,26.633,27.557,24.005,31.618,27.063,17.352,21.387
30.736,22.127,21.93,20.119,26.604,22.628,12.343,16.021
31.84,24.532,22.945,24.001,28.068,25.142,15.911,18.339
25.498,19.269,18.065,21.223,23.101,21.93,13.08,15.33
8.367,2.406,6.401,7.135,11.104,7.94,0.568,2.623
-1.197,-8.098,2.714,-2.19,7.303,-1.811,-5.137,-4.379
4.885,-4.442,9.147,0.043,13.853,-0.389,2.558,0.478
11.442,-0.606,13.23,1.508,17.935,0.412,11.024,3.953
7.642,-6.219,6.362,-5.742,10.945,-7.011,6.535,-2.923
1.962,-12.813,-6.97,-13.26,-2.294,-14.057,-8.132,-11.406
4.536,-10.548,-12.153,-11.029,-7.221,-11.423,-15.382,-10.194
11.018,-3.917,-4.561,-3.401,0.309,-4.488,-8.881,-3.301
11.876,-2.629,2.483,-1.279,6.833,-3.904,-1.621,-1.728
8.384,-5.798,1.268,-4.833,5.201,-8.651,-1.022,-5.126
9.962,-4.097,2.757,-4.023,6.771,-7.85,-0.002,-4.086
18.513,5.425,15.209,5.275,19.347,2.403,5.557,3.612
24.286,13.733,23.881,12.897,27.825,10.826,8.108,8.569
20.214,12.589,13.231,8.689,17.007,7.017,1.771,4.351
12.016,6.066,-2.737,-1.066,1.138,-1.754,-4.559,-2.332
10.087,3.925,-1.477,-1.761,2.635,-0.761,3.232,-0.845
14.482,6.564,12.374,7.374,16.585,9.177,21.588,8.358
14.877,4.833,18.136,12.056,22.063,12.212,29.663,13.753
8.894,-2.02,10.396,7.401,13.977,4.602,18.958,10.051
6.756,-3.109,0.198,4.814,3.84,0.427,3.156,4.599
13.497,5.538,-2.891,10.592,0.971,5.89,-4.087,4.218
19.572,13.672,-0.565,15.879,3.286,10.481,-4.429,5.886
15.106,11.9,-1.383,12.317,2.343,6.481,-6.832,3.397
6.047,5.641,-6.179,6.261,-2.455,1.363,-10.766,-0.579
2.66,4.131,-8.598,5.873,-4.729,2.057,-9.624,-0.487
1.616,4.037,-9.932,5.429,-5.912,1.03,-7.247,-1.332
-3.184,-1.371,-14.102,-0.601,-10.123,-7.187,-10.842,-8.518
-7.08,-8.285,-15.598,-4.015,-11.84,-12.995,-15.598,-14.622
-3.995,-8.591,-7.626,3.6,-3.981,-6.654,-11.532,-9.947
2.411,-2.998,5.307,16.736,8.975,6.848,0.495,1.92
4.939,0.599,12.513,24.457,16.046,15.633,9.844,9.362
4.464,0.794,11.897,26.284,15.127,18.053,12.155,10.477
6.135,2.916,10.199,28.78,13.258,21.11,12.318,12.245
10.562,8.426,12.654,33.625,15.768,26.906,14.272,16.783
14.154,12.643,18.078,36.717,21.115,30.159,16.906,19.483
12.729,9.981,20.961,32.952,23.552,25.387,16.193,15.866
6.857,1.789,19.119,23.111,21.321,15.211,11.267,8.143
3.693,-2.554,16.451,16.56,18.764,10.183,8.419,4.914
8.978,2.918,17.086,20.576,19.951,15.956,13.412,10.962
17.42,10.782,19.771,27.981,23.203,23.275,20.782,18.825
18.273,10.04,19.718,26.021,23.129,19.885,20.58,17.788
11.715,3.447,16.194,15.789,18.953,8.823,13.865,9.569
8.099,2.157,12.877,8.5,15.093,1.777,8.764,4.07
11.927,8.097,12.766,8.309,15.006,2.054,7.814,4.68
16.454,12.92,14.986,10.094,17.504,4.152,8.12,6.635
14.174,10.52,14.367,8.693,16.964,3.315,6.545,4.867
10.991,8.027,11.99,8.332,14.395,3.594,5.67,3.23
21.428,19.875,20.103,19.928,22.328,14.383,14.747,13.065
42.4,42.771,40.303,40.753,42.526,32.94,33.009,32.848
48.473,50.124,49.893,47.939,52.098,39.11,39.978,40.3
29.417,30.476,33.838,30.751,35.894,23.13,24.233,24.202
11.779,11.216,14.336,13.093,16.356,7.169,7.434,7.314
16.703,14.877,15.701,15.669,17.9,11.128,9.339,9.521
25.381,23.395,24.487,22.36,26.704,18.77,15.251,15.388
18.62,18.31,20.37,15.578,22.223,11.738,9.822,9.064
11.398,13.858,12.161,8.059,13.663,3.063,5.681,4.096
18.43,22.498,13.542,12.707,14.996,7.169,12.994,11.851
25.189,28.971,16.512,17.209,17.959,12.286,17.374,17.161
17.414,20.195,10.651,9.636,11.863,5.572,7.54,7.418
7.702,9.714,4.052,1.007,4.869,-3.021,-3.38,-3.716
13.632,15.761,10.075,6.669,10.621,1.673,0.744,1.148
28.465,32.346,24.966,21.311,25.593,15.228,13.353,15.523
29.94,36.33,28.933,24.771,29.785,18.396,14.216,17.873
13.623,21.111,13.325,11.085,14.076,5.051,-0.261,3.198
0.096,7.136,-3.392,-1.173,-3.068,-6.857,-10.698,-8.888
4.633,11.62,-1.115,4.293,-1,-1.014,-3.012,-2.594
18.681,26.804,13.09,19.227,13.473,14.32,12.295,12.332
28.888,37.681,21.851,28.064,22.477,23.041,19.085,18.347
33.524,40.392,25.867,30.458,26.184,24.911,19.728,17.04
33.512,36.711,31.707,32.092,31.437,26.473,23.486,19.512
27.725,28.828,32.705,30.597,32.159,25.288,25.518,22.286
20.752,22.045,24.808,24.579,24.352,19.202,20.386,18.648
22.282,23.787,21.774,23.471,21.453,17.969,19.812,18.854
33.527,34.9,33.399,33.168,33.096,28.113,31.96,31.233
41.1,43.596,45.003,41.754,44.636,36.974,41.967,41.705
35.829,39.709,41.166,37.831,40.67,32.037,36.652,37.219
26.145,28.903,30.286,28.423,29.613,20.83,25.763,26.838
21.296,21.509,25.795,22.915,25.046,14.531,21.132,21.823
21.174,21.097,27.263,20.862,26.635,13.437,21.187,21.073
24.259,26.109,29.515,21.292,28.943,15.497,22.686,22.248
27.518,31.097,30.284,24.232,29.438,19.672,25.319,25.357
27.358,32.394,28.452,27.043,27.238,23.345,27.918,29.007
31.532,38.258,30.466,33.589,29.097,30.407,35.39,37.45
56.619,64.188,52.843,57.265,51.549,53.954,60.54,62.627
103.836,110.866,99.661,100.228,98.704,96.944,104.705,105.717
150.245,156.537,148.905,142.108,148.469,139.966,147.782,147.505
166.89,173.833,169.697,156.471,169.502,155.143,164.077,163.274
138.192,146.949,143.159,129.006,142.647,126.785,139.682,139.266
76.006,85.369,80.293,69.427,79.287,65.765,83.879,84.199
15.028,23.057,18.28,8.841,17.099,3.883,25.905,26.643
-17.924,-10.718,-15.435,-25.367,-16.525,-31.607,-8.626,-8.268
-23.39,-15.736,-22.245,-30.424,-23.369,-36.784,-15.111,-15.846
-19.113,-11.801,-18.51,-24.863,-19.803,-29.714,-8.283,-10.175
-20.333,-13.569,-16.165,-27.343,-17.548,-30.766,-7.264,-9.996
-28.521,-20.697,-18.325,-39.337,-19.922,-42.68,-17.504,-20.463
-38.306,-30.162,-31.563,-52.342,-33.655,-56.013,-31.648,-33.625
-50.657,-44.4,-59.16,-64.431,-61.683,-67.88,-45.739,-46.324
-70.161,-64,-87.893,-80.435,-90.627,-83.544,-62.601,-63.859
-95.267,-85.543,-109.39,-102.505,-112.329,-105.087,-83.226,-87.87
-120.213,-107.451,-131.006,-127.096,-134.059,-128.174,-104.893,-112.893
-138.068,-125.425,-150.964,-145.601,-153.839,-144.068,-122.484,-131.1
-136.83,-125.078,-149.269,-144.701,-151.901,-140.481,-124.579,-131.888
-106.185,-94.113,-112.317,-114.567,-115.009,-110.451,-96.866,-103.9
-52.604,-39.953,-52.95,-60.876,-55.961,-60.724,-40.998,-48.342
6.704,19.224,7.184,0.303,3.901,-3.146,22.882,17.425
64.277,76.587,63.52,60.395,60.119,56.626,82.669,80.332
117.353,129.657,114.885,115.169,111.403,112.06,134.525,136.06
151.711,162.968,144.986,150.185,141.436,147.457,161.48,168.761
156.012,164.976,144.13,154.69,140.536,153.388,154.193,164.661
137.744,145.415,125.136,137.613,121.425,138.328,131.075,138.941
107.452,115.941,100.964,109.21,97.164,111.02,106.541,110.395
65.958,74.921,68.262,67.077,64.568,69.996,72.819,74.145
15.523,22.695,20.484,12.509,16.88,18.549,25.863,25.099
-32.199,-26.972,-33.463,-39.751,-37.133,-29.285,-21.531,-23.195
-66.09,-60.403,-72.732,-76.372,-76.234,-62.825,-54.775,-56.46
-88.357,-80.566,-90.027,-99.416,-92.969,-85.149,-70.348,-75.499
-110.37,-100.818,-99.749,-119.424,-102.282,-105.422,-78.001,-88.37
-131.77,-121.725,-113.249,-137.549,-115.788,-123,-92.274,-100.079
-135.635,-126.911,-122.363,-143.096,-124.879,-127.298,-112.763,-111.83
-117.741,-111.386,-118.706,-133.133,-121.058,-117.336,-123.707,-119.759
-99.109,-93.193,-110.443,-121.214,-112.825,-107.135,-121.286,-119.284
-92.407,-83.671,-103.649,-116.195,-106.145,-103.895,-114.758,-112.273
-86.26,-74.284,-92.222,-109.98,-94.669,-98.795,-102.046,-100.366
-69.87,-57.061,-74.209,-93.459,-76.634,-82.614,-74.939,-80.252
-47.535,-35.258,-55.692,-70.555,-58.112,-58.155,-42.663,-55.965
-32.64,-19.348,-45.515,-56.002,-47.746,-40.66,-29.411,-44.303
-33.385,-16.969,-49.468,-58.795,-51.679,-41.729,-43.747,-53.405
-45.165,-26.181,-62.713,-71.812,-65.295,-53.887,-66.839,-69.177
-66.104,-47.427,-81.876,-91.002,-84.566,-70.347,-86.404,-82.615
-102.371,-86.188,-113.68,-125.732,-115.864,-102.324,-114.897,-108.25
-149.434,-136.152,-157.051,-175.401,-158.802,-152.704,-157.831,-156.442
-190.452,-179.541,-196.082,-220.103,-197.98,-199.276,-195.331,-210.006
-210.625,-200.526,-214.27,-239.921,-216.504,-219.544,-208.057,-238.717
-204.043,-192.304,-208.728,-229.582,-211.026,-210.102,-202.246,-226.835
-175.663,-161.024,-188.129,-196.492,-190.322,-178.619,-189.247,-182.357
-142.218,-125.73,-161.276,-158.255,-163.474,-141.268,-166.147,-131.702
-123.477,-105.62,-139.773,-137.562,-142.024,-121.498,-141.899,-106.164
-124.27,-102.546,-137.05,-140.977,-139.228,-125.601,-135.401,-112.974
-135.239,-109.217,-151.285,-154.546,-153.338,-138.648,-142.829,-131.457
-146.062,-121.639,-161.641,-163.165,-163.658,-147.705,-147.321,-142.371
-142.947,-124.463,-148.56,-154.789,-150.701,-141.245,-139.122,-135.669
-114.839,-98.987,-113.293,-123.128,-115.679,-109.535,-114.123,-106.103
-84.112,-66.884,-83.919,-91.26,-86.442,-75.313,-88.031,-73.855
-92.609,-73.071,-91.674,-97.407,-94.055,-80.298,-92.873,-77.341
-126.408,-102.75,-119.773,-126.981,-122.005,-110.806,-118.428,-107.095
-128.887,-100.002,-125.266,-128.04,-127.715,-113.198,-119.602,-111.857
-106.909,-76.749,-117.622,-109.35,-120.374,-95.186,-104.97,-95.698
-109.883,-84.341,-126.961,-114.75,-129.567,-99.669,-112.469,-101.72
-122.371,-102.219,-129.262,-123.819,-131.553,-106.966,-117.85,-111.999
-99.089,-78.901,-94.49,-93.646,-96.852,-77.166,-82.34,-83.413
-62.246,-37.117,-55.247,-51.913,-57.912,-38.087,-40.168,-42.036
-64.799,-35.544,-57.783,-55.122,-60.641,-43.358,-44.969,-43.496
-94.541,-63.752,-83.569,-90.575,-86.499,-79.152,-75.766,-76.568
-96.041,-64.621,-82.728,-98.623,-85.564,-86.537,-75.822,-86.271
-65.782,-37.795,-59.185,-71.919,-61.799,-58.485,-51.772,-67.172
-43.947,-24.851,-45.922,-48.961,-48.464,-33.375,-45.725,-51.763
-29.114,-15.893,-27.918,-28.639,-30.621,-10.183,-41.516,-31.77
13.372,29.163,24.344,21.135,21.378,42.425,5.631,24.48
67.367,87.632,77.441,79.998,74.133,101.279,73.284,93.242
70.378,91.267,70.881,81.507,67.39,97.682,88.557,106.765
18.814,38.815,18.526,23.199,15.382,32.476,40.132,56.652
-11.278,6.853,-3.467,-12.505,-5.937,-7.015,0.105,17.158
19.879,32.747,27.489,18.274,25.414,23.128,17.703,36.621
72.886,81.67,68.53,74.021,66.462,79.191,69.185,86.296
106.953,118.791,95.753,109.116,93.765,115.878,111.275,122.152
113.865,131.203,109.035,113.746,107.431,124.934,122.088,127.225
96.41,113.538,101.415,94.056,100.267,110.55,102.837,106.08
65.001,76.787,79.19,62.976,78.419,80.542,68.268,73.452
47.642,55.463,67.95,47.627,67.398,61.808,47.606,55.912
71.017,79.688,83.556,74.898,82.984,87.22,71.902,79.604
113.469,125.485,108.915,122.956,108.388,135.697,121.262,123.552
115.212,129.052,100.363,127.744,100.3,137.822,126.226,124.749
60.229,73.379,43.436,70.23,44.143,75.988,61.842,62.813
1.908,14.411,-9.396,6.807,-8.021,13.02,-10.786,-5.754
-12.089,1.494,-7.711,-10.353,-6.168,-0.075,-29.218,-22.246
0.177,14.575,17.459,2.36,18.695,14.876,-10.825,-0.509
-4.856,8.549,7.016,1.67,8.084,14.277,-8.651,7.294
-26.773,-14.799,-26.654,-14.151,-25.269,-3.072,-25.457,-5.699
-40.239,-29.07,-36.858,-24.969,-35.111,-18.364,-34.749,-13.716
-52.935,-42.51,-39.42,-38.866,-37.709,-37.087,-44.702,-23.508
-80.16,-71.658,-69.161,-65.419,-67.736,-64.983,-69.494,-50.26
-96.105,-90.917,-93.588,-77.835,-92.469,-76.059,-82.01,-66.213
-72.865,-69.954,-70.549,-53.145,-69.787,-50.016,-56.349,-42.125
-40.058,-36.887,-33.813,-22.315,-33.367,-18.415,-23.475,-9.431
-48.826,-45.155,-41.249,-34.12,-40.847,-29.04,-33.295,-22.045
-91.688,-88.185,-82.657,-79.615,-82.065,-72.367,-76.977,-71.369
-118.737,-113.637,-106.858,-107.535,-106.103,-98.479,-103.566,-102.343
-119.309,-111.189,-104.702,-107.889,-103.941,-99.185,-104.539,-103.107
-110.127,-100.9,-92.315,-100.077,-91.538,-92.513,-100.986,-94.231
-80.96,-72.776,-62.767,-71.624,-61.752,-62.549,-78.968,-64.591
-35.712,-28.745,-25.178,-22.423,-23.892,-8.956,-34.897,-15.511
-7.659,-3.083,-8.15,10.856,-6.879,26.379,-5.455,14.428
4.509,4.315,-1.031,25.599,-0.012,36.557,4.855,23.513
12.799,9.232,8.53,37.377,9.267,42.13,12.056,30.472
-3.896,-6.381,-5.201,25.634,-4.648,28.812,-1.511,16.206
-43.883,-44.914,-42.246,-15.018,-41.568,-12.883,-37.357,-23.302
-75.964,-79.033,-71.115,-54.773,-69.802,-57.352,-67.379,-57.462
-107.157,-112.685,-98.556,-93.133,-96.436,-98.004,-98.782,-90.25
-170.398,-175.539,-161.05,-157.362,-158.707,-158.431,-160.057,-153.668
-256.219,-260.394,-250.752,-239.298,-248.823,-237.646,-239.749,-238.068
-315.96,-322.111,-313.274,-295.889,-311.652,-296.731,-299.165,-297.71
-328.629,-339.066,-328.003,-308.833,-326.251,-311.406,-321.92,-314.29
-325.374,-338.259,-330.598,-305.91,-328.681,-306.64,-325.297,-315.068
-338.791,-350.692,-345.812,-318.506,-344.097,-318.655,-334.456,-330.316
-360.669,-371.534,-359.317,-342.686,-358.06,-343.976,-355.595,-356.758
-360.225,-371.861,-351.57,-348.445,-350.731,-347.703,-367.99,-363.58
-320.224,-331.543,-314.052,-313.291,-313.61,-307.545,-339.914,-324.501
-261.836,-270.283,-261.487,-255.38,-261.371,-245.898,-278.777,-258.48
-231.382,-237.437,-232.808,-223.765,-232.666,-213.192,-241.43,-220.846
-235.808,-242.222,-233.836,-227.945,-233.512,-217.926,-245.132,-223.842
-231.123,-238.379,-222.873,-221.779,-222.728,-212.426,-235.544,-218.922
-201.46,-208.041,-188.995,-187.873,-189.168,-178.206,-190.67,-185.428
-176.776,-183.835,-163.441,-160.218,-163.376,-150.267,-156.416,-157.051
-159.147,-168.868,-142.068,-143.718,-141.2,-135.584,-147.82,-142.855
-122.99,-133.255,-100.549,-109.323,-98.975,-104.96,-125.926,-114.71
-83.512,-90.82,-66.27,-69.331,-64.441,-67.878,-86.306,-78.528
-78.738,-83.863,-75.464,-63.697,-73.529,-63.076,-70.407,-71.487
-109.73,-115.528,-114.234,-95.526,-111.98,-95.219,-96.37,-102.119
-155.416,-163.003,-159.047,-142.956,-156.394,-142.014,-147.918,-151.56
-206.777,-216.762,-206.127,-195.32,-203.268,-191.138,-206.429,-204.967
-254.935,-267.117,-245.817,-243.25,-242.837,-236.304,-254.513,-250.295
-274.96,-286.071,-254.917,-262.874,-251.766,-258.139,-269.778,-267.124
-250.706,-258.824,-225.585,-239.877,-222.39,-240.023,-244.422,-243.85
-210.603,-219.848,-191.055,-203.714,-187.953,-205.345,-209.654,-208.137
-203.961,-218.447,-194.583,-202.124,-191.356,-200.892,-210.039,-206.452
-238.538,-255.645,-234.013,-239.006,-230.304,-235.227,-246.855,-243.955
-275.092,-289.552,-270.136,-272.063,-266.021,-269.888,-277.248,-278.293
-277.346,-287.469,-271.79,-265.947,-267.776,-267.153,-268.204,-272.861
-236.838,-243.906,-229.24,-217.518,-225.532,-218.593,-220.677,-226.035
-164.875,-170.547,-152.926,-143.588,-149.162,-142.262,-150.428,-155.632
-87.036,-93.266,-73.142,-70.413,-69.033,-69.937,-77.751,-83.405
-27.472,-36.298,-16.627,-17.706,-12.323,-20.16,-21.805,-26.033
7.199,-4.493,13.038,13.538,17.29,10.597,11.734,10.07
19.99,7.312,23.069,27.371,27.157,25.101,25.712,22.848
20.754,8.571,24.928,29.305,28.874,26.348,26.58,19.962
26.91,14.401,34.583,34.232,38.551,31.475,29.562,22.507
43.496,28.933,53.506,49.045,57.562,48.679,44.401,39.71
54.322,37.697,62.556,57.968,66.519,57.581,58.012,54.163
49.644,33.397,54.488,50.522,58.286,44.593,56.772,52.062
43.188,30.12,51.029,43.52,54.941,31.764,51.684,46.292
47.834,38.688,66.169,51.814,70.506,40.052,56.471,50.507
62.114,55.275,85.735,69.281,90.483,61.828,68.964,61.648
78.85,70.884,94.642,85.033,99.578,80.375,82.037,73.511
86.359,73.788,90.674,90.673,95.782,84.235,87.376,79.636
89.499,73.004,88.491,94.973,93.988,84.671,91.754,85.619
122.237,107.243,122.794,131.137,128.685,118.336,128.129,120.963
194.583,185.654,202.344,206.895,208.287,192.755,204.372,193.806
265.355,262.66,279.017,280.169,284.739,265.868,276.073,264.143
303.297,303.995,311.493,318.66,317.086,306.748,310.49,301.229
319.364,319.728,315.691,332.676,321.469,323.935,321.451,315.656
326.676,324.69,321.625,337.858,327.741,329.732,325.664,320.763
323.509,320.598,329.885,335.181,336.178,324.913,321.604,315.744
315.123,313.566,326.25,327.947,332.655,316.072,313.227,305.917
315.531,315.03,314.008,327.37,320.74,316.14,315.865,305.979
326.062,325.513,312.627,337.001,319.63,325.537,332.481,319.493
331.316,331.41,321.981,344.388,328.856,329.77,343.125,328.728
320.609,321.005,321.35,336.676,328.065,319.031,330.963,317.235
301.981,300.101,310.438,318.931,317.404,302.203,306.223,293.811
294.738,290.089,310.66,311.179,317.985,299.181,294.255,282.995
308.83,304.147,323.884,324.421,331.096,315.289,306.115,296.275
326.367,323.905,325.857,339.674,332.566,327.411,321.134,313.544
317.049,316.618,301.084,325.846,307.533,309.348,306.699,301.13
282.407,282.637,266.134,286.078,272.836,269.421,266.076,260.338
262.013,261.336,255.981,262.361,263.044,246.714,242.851,235.068
274.912,271.758,274.79,274.238,281.93,257.503,256.07,246.449
287.045,281.502,280.387,286.936,287.511,268.627,269.833,258.868
269.567,264.34,253.044,271.776,260.288,253.08,256.088,243.157
246.769,244.658,230.773,253.071,237.942,235.066,238.315,223.336
248.533,248.974,241.608,259.163,248.326,242.283,243.514,227.933
261.284,260.485,262.61,274.937,268.959,258.141,258.431,243.483
260.046,255.249,266.659,275.119,273.006,257.335,258.993,244.673
249.495,241.78,259.251,264.387,265.611,246.627,247.732,233.898
247.404,239.242,257.324,261.139,263.395,244.373,242.378,229.256
254.836,247.148,262.695,268.513,268.409,252.053,248.317,235.44
258.298,251.73,265.78,274.555,271.289,257.596,254.574,240.868
250.332,246.449,261.283,270.835,266.478,252.76,251.18,236.886
239.959,238.424,252.604,264.182,257.287,244.886,243.864,230.283
235.866,234.098,243.512,262.018,247.852,242.533,240.953,227.85
230.285,227.44,232.698,255.898,236.953,236.667,235.54,221.332
216.907,213.877,221.659,239.095,225.814,219.371,221.248,205.554
207.68,204.66,219.497,225.739,223.439,205.655,209.893,193.98
213.008,210.407,227.322,229.917,230.988,210.226,213.238,198.637
221.113,219.68,230.704,239.711,234.074,219.23,221.768,208.74
217.343,216.047,223.36,236.745,226.446,213.629,220.489,207.036
209.461,206.145,218.886,227.11,221.59,202.887,213.647,197.155
211.217,205.47,225.465,225.953,227.571,204.451,212.37,193.292
215.888,209.614,228.261,228.198,229.698,211.151,211.41,193.551
209.571,204.971,213.897,221.537,214.827,207.948,202.157,187.638
197.967,195.277,196.671,212.125,197.213,198.911,192.694,179.857
194.236,191.508,193.786,210.892,193.872,194.02,191.63,179.539
193.259,188.918,195.634,210.983,195.223,189.86,191.064,180.651
185.117,180.098,189.637,202.837,188.772,180.835,184.124,174.097
176.716,173.471,184.488,193.485,183.185,172.535,179.644,166.083
178.838,179.247,190.101,194.132,188.527,173.436,186.197,167.157
188.12,192.083,198.727,202.862,197.155,182.652,195.052,175.123
192.285,196.365,198.296,207.367,196.721,189.136,191.504,178.431
187.097,186.38,191.911,200.966,190.189,183.82,178.472,172.55
182.561,176.477,190.863,191.858,189.143,172.32,172.062,166.032
187.628,179.78,193.869,190.993,192.334,167.734,176.24,166.746
195.709,187.803,192.656,196.248,191.079,172.777,180.301,170.075
195.833,188.273,190.329,198.223,188.457,178.763,177.806,167.982
191.001,185.313,193.897,196.516,191.866,179.931,175.295,163.869
192.212,187.129,201.106,199.72,199.107,180.651,181.198,167.927
200.637,192.743,207.472,210.944,205.485,187.494,192.567,180.16
207.391,197.026,210.602,220.801,208.61,196.49,199.464,189.17
207.178,197.392,207.484,219.398,205.527,196.877,198.378,187.783
204.093,196.397,200.978,211.084,198.982,189.823,193.555,180.578
202.459,196.906,198.037,205.908,195.974,185.999,187.826,174.116
200.443,196.399,196.953,203.184,195.05,184.865,180.734,169.123
195.367,190.872,190.635,196.43,189.062,177.265,173.507,163.891
188.165,180.604,180.757,186.937,179.329,165.271,168.906,158.943
182.914,171.987,176.333,182.413,174.733,160.035,167.918,157.366
182.637,171.583,179.722,184.692,177.828,163.082,167.987,159.239
184.391,176.763,183.098,187.103,181.136,166.142,165.506,159.519
181.721,178.982,179.432,184.418,177.746,164.328,160.852,155.323
175.233,177.26,172.89,180.005,171.495,160.671,158.89,150.863
175.706,180.966,174.151,182.997,172.752,163.388,165.272,154.26
185.276,191.609,183.565,194.255,181.863,173.428,177.855,166.071
187.268,193.391,187.913,199.368,185.716,177.445,183.133,172.901
171.892,177.374,178.658,188.35,175.905,166.958,173.329,164.66
153.85,158.077,164.483,172.177,161.32,152.287,159.763,150.93
151.908,153.674,162.072,168.333,158.831,148.757,157.119,147.628
164.795,163.302,175.651,178.113,172.476,158.202,163.444,155.354
173.756,169.909,189.156,185.732,185.742,166.742,165.132,159.911
167.724,164.211,188.177,181.009,184.283,163.259,157.163,152.832
158.655,158.381,180.206,174.749,176.127,155.985,150.004,144.363
159.879,162.741,175.236,178.455,171.279,156.616,152.605,146.087
161.134,163.052,166.145,179.331,162.099,155.192,154.733,147.572
148.866,146.087,148.321,161.958,143.912,137.495,142.804,134.079
135.963,128.687,136.272,141.954,131.631,117.972,128.326,118.391
141.937,132.125,144.588,143.715,139.849,120.668,132.098,122.665
155.759,143.577,158.77,155.76,153.843,134.76,144.284,136.298
146.719,131.623,145.107,143.03,140.071,123.819,133.163,125.378
112.28,96.382,103.883,103,98.796,82.396,96.369,86.917
89.666,76.123,78.371,76.361,72.917,50.886,71.805,60.809
108.81,96.745,96.878,92.729,91.002,62.73,87.674,76.748
155.863,141.422,145.818,136.332,139.945,105.609,130.008,120.738
196.004,177.933,194.634,173.86,188.804,144.974,167.401,160.81
214.485,193.937,219.123,191.52,212.908,164.241,185.019,180.628
221.6,199.026,216.238,198.45,209.545,171.706,190.375,186.667
226.184,202.237,202.568,204.288,195.755,177.086,194.274,190.376
226.734,202.905,196.611,207.956,189.903,179.977,197.143,192.858
232.443,209.975,211.947,216.218,205.192,187.646,205.894,200.742
258.922,239.11,247.889,244.155,240.796,215.179,236.687,229.263
293.194,276.303,278.528,280.514,270.971,252.078,277.201,266.553
300.339,283.747,278.187,289.228,270.381,261.495,286.069,274.839
268.489,248.754,249.92,256.174,242.196,225.501,247.608,240.625
214.333,190.766,204.532,199.586,196.828,161.466,185.728,183.784
152.996,127.752,140.56,137.573,132.475,93.937,122.82,122.051
91.903,66.728,68.348,77.303,59.719,35.292,63.424,61.554
40.984,15.319,14.811,26.727,5.807,-11.053,12.372,10.244
7.937,-18.606,-10.97,-5.142,-20.176,-41.426,-19.375,-22.572
-4.651,-30.282,-18.514,-12.744,-27.782,-47.63,-25.124,-32.062
3.947,-19.376,-7.615,2.372,-16.703,-29.929,-9.599,-19.638
25.714,3.659,21.506,26.314,12.782,-7.021,12.988,3.665
47.27,24.783,50.38,44.327,42.001,6.497,31.732,24.326
65.08,42.179,63.822,57.259,55.752,17.926,47.682,39.797
84.423,62.803,70.192,74.86,62.393,38.597,66.39,56.795
108.913,89.221,87.589,100.277,79.872,66.782,90.316,80.59
133.345,113.531,116.331,124.298,108.579,90.278,114.557,105.892
147.499,125.121,138.29,135.568,130.537,100.017,129.231,120.665
153.238,128.569,145.94,139.631,138.014,103.615,136.117,126.352
161.915,137.188,151.289,149.875,142.948,112.869,146.006,135.346
169.323,145.225,157.853,158.924,149.365,120.38,153.05,142.762
158.36,133.595,147.258,147.989,139.157,110.912,140.587,130.995
129.291,103.722,113.971,120.249,106.212,87.079,111.925,102.717
104.295,80,85.375,98.902,77.441,66.3,89.598,81.786
99.778,78.076,85.861,97.676,77.67,61.793,86.822,82.363
110.318,89.889,109.315,109.745,101.235,72.528,96.471,95.4
121.712,100.965,130.386,121.591,122.441,86.355,106.642,106.292
127.108,105.9,128.918,126.478,120.752,92.621,112.934,111.069
125.437,104.172,111.265,123.067,102.827,89.158,112.544,109.794
114.62,94.584,98.434,110.289,90.087,77.892,100.509,98.745
97.295,80.427,92.163,92.603,84.099,63.649,80.597,80.422
83.376,69.837,79.931,80.312,72.068,52.516,66.017,66.87
78.655,66.708,66.92,77.184,59.304,46.258,62.791,64.161
82.437,71.342,69.398,80.517,62.164,46.607,67.857,69.044
95.216,85.754,86.191,91.492,79.362,58.236,80.653,80.782
119.385,110.77,107.254,114.688,100.812,82.351,103.68,103.235
153.493,143.726,132.981,150.311,126.836,115.611,136.338,136.955
185.047,175.401,160.626,186.303,154.493,148.921,168.592,170.801
194.919,189.142,172.429,202.032,166.075,165.087,182.585,185.645
178.029,176.659,157.446,190.606,151.088,155.063,171.522,175.177
151.611,151.439,132.893,169.491,126.9,134.007,150.757,155.48
134.289,133.441,124.192,157.763,118.563,122.636,138.88,144.656
126.57,126.294,130.202,153.885,124.783,120.908,135.849,141.535
120.319,121.105,131.13,147.195,125.971,117.122,130.692,134.945
117.387,117.144,124.586,140.458,119.848,113.083,124.338,127.151
128.305,126.219,129.091,147.286,124.833,123.214,130.985,133.474
152.3,151.044,150.144,167.429,146.112,147.496,153.216,155.665
167.07,169.321,163.201,177.494,158.967,160.041,168.794,170.051
152.245,157.696,146.197,159.433,141.718,141.5,157.66,157.045
117.05,123.057,112.564,125.266,108.304,107.37,129.403,127.856
88.834,92.18,91.567,98.732,87.861,84.514,106.939,105.738
81.203,80.855,91.05,88.702,87.734,79.914,99.212,98.749
87.007,85.669,99.934,90.674,96.781,85.085,102.248,102.256
97.639,98.557,113.962,100.41,110.933,94.145,112.557,112.723
111.657,115.587,129.355,115.307,126.272,106.71,128.218,128.119
122.617,129.321,129.789,126.434,126.449,117.025,140.616,139.588
119.78,128.435,113.926,123.408,110.649,115.092,137.94,136.141
106.464,114.254,104.33,110.386,101.657,103.732,122.266,120.986
99.491,104.506,109.803,103.784,107.657,98.975,111.016,110.993
107.591,111.992,116.096,112.177,113.899,109.027,116.621,117.313
120.405,127.025,114.903,125.93,112.415,122.309,131.287,132.209
121.153,128.997,109.926,127.643,107.342,121.073,135.546,137.179
109.614,115.645,104.108,115.02,101.638,106.586,125.121,127.956
102.238,105.777,101.616,105.049,99.431,97.987,117.571,120.77
103.235,105.991,103.871,105.666,101.927,100.289,121.472,123.297
98.481,102.426,103.044,104.324,100.931,98.418,122.8,122.674
84.044,91.539,96.674,94.443,94.155,87.962,112.564,112.345
71.788,84.242,89.914,85.078,87.232,80.637,99.809,102.276
66.123,80.762,81.444,80.183,78.822,79.443,91.629,97.728
57.682,69.889,67.234,70.865,64.527,72.822,81.484,89.975
40.054,49.541,49.491,51.296,46.547,54.144,62.576,72.014
20.122,30.288,33.536,29.692,30.667,33.391,41.164,50.886
6.011,17.798,22.058,15.83,19.826,21.523,26.847,36.46
-7.328,4.185,8.986,4.567,7.488,12.17,15.774,25.043
-30.683,-19.566,-17.398,-17.15,-18.689,-8.603,-4.082,4.943
-62.876,-50.418,-53.348,-49.767,-54.92,-40.446,-33.496,-24.497
-90.804,-76.647,-80.063,-79.409,-81.88,-69.422,-60.288,-51.216
-105.307,-90.427,-92.141,-95.369,-93.854,-85.285,-75.259,-66.257
-108.302,-93.377,-97.218,-99.471,-98.562,-88.727,-79.92,-70.888
-107.76,-93.881,-97.409,-101.208,-98.352,-88.803,-81.954,-72.263
-110.786,-99.331,-95.503,-107.635,-96.092,-94.427,-86.767,-76.573
-118.31,-108.204,-100.375,-116.534,-100.683,-103.381,-91.976,-82.896
-125.51,-114.217,-112.592,-122.089,-112.873,-107.101,-94.438,-87.086
-129.09,-116.905,-122.697,-124.919,-123.161,-106.443,-98.835,-90.981
-133.259,-122.498,-128.518,-131.479,-129.032,-111.964,-110.656,-100.135
-143.327,-134.535,-135.333,-143.587,-135.724,-126.509,-125.292,-113.209
-154.491,-146.199,-141.375,-152.504,-141.734,-137.617,-131.496,-120.392
-157.81,-147.865,-141.745,-150.404,-142.172,-135.345,-125.818,-116.274
-155.302,-141.573,-139.659,-143.502,-140.058,-127.428,-118.076,-108.935
-157.378,-139.879,-142.218,-144.427,-142.465,-127.298,-119.79,-110.405
-166.49,-149.092,-150.252,-155.944,-150.377,-136.786,-131.507,-122.106
-173.754,-160.885,-158.455,-169.461,-158.676,-148.011,-144.55,-135.222
-174.207,-165.949,-164.42,-177.903,-165,-155.871,-153.327,-143.846
-174.784,-167.462,-169.043,-183.108,-169.958,-161.566,-159.871,-150.071
-181.797,-171.843,-170.497,-188.5,-171.321,-166.31,-166.395,-156.078
-191.434,-176.838,-170.163,-192.713,-170.525,-169.169,-171.401,-160.597
-201.573,-181.801,-178.005,-197.461,-178.086,-173.876,-176.649,-166.529
-219.393,-195.833,-200.591,-210.865,-200.865,-188.283,-189.77,-181.54
-243.46,-218.845,-227.751,-231.489,-228.345,-209.219,-209.588,-202.305
-256.144,-232.218,-239.275,-243.728,-239.913,-220.615,-220.667,-212.246
-248.219,-224.842,-229.476,-239.537,-229.894,-214.952,-215.426,-204.899
-233.545,-210.141,-216.88,-229.784,-216.934,-203.858,-205.724,-193.729
-230.676,-206.458,-219.859,-229.472,-219.485,-203.026,-205.555,-194.001
-242.122,-215.788,-233.916,-241.144,-233.233,-214.352,-216.518,-206.524
-254.484,-226.013,-242.077,-252.795,-241.257,-224.117,-229.027,-218.858
-258.653,-229.832,-242.405,-255.689,-241.456,-223.586,-235.108,-222.792
-265.219,-236.967,-252.03,-261.095,-250.905,-227.085,-241.477,-228.068
-282.051,-253.679,-273.398,-278.423,-272.105,-246.179,-254.466,-242.243
-292.673,-264.38,-282.909,-291.312,-281.51,-261.571,-260.64,-250.672
-284.496,-257.859,-270.872,-285.351,-269.581,-255.194,-249.822,-242.311
-271.68,-247.518,-257.362,-274.647,-256.41,-242.242,-238.407,-231.982
-269.634,-247.109,-257.984,-276.432,-257.33,-242.572,-244.297,-234.805
-274.318,-252.203,-264.354,-285.796,-263.846,-251.404,-259.916,-243.987
-277.397,-255.264,-265.747,-290.802,-265.376,-255.794,-268.671,-248.181
-281.733,-259.426,-270.2,-292.293,-269.879,-256.608,-269.651,-249.432
-289.945,-267.556,-285.321,-295.896,-284.741,-259.787,-269.304,-252.324
-293.093,-272.018,-293.939,-298.528,-293.042,-261.199,-266.268,-252.476
-285.311,-266.828,-280.554,-295.032,-279.784,-254.917,-258.754,-245.826
-275.271,-258.383,-264.609,-289.062,-264.368,-246.676,-252.095,-237.458
-274.642,-257.448,-271.348,-289.843,-271.503,-248.075,-253.117,-237.147
-282.749,-264.437,-287.312,-297.752,-287.339,-258.235,-260.677,-246.106
-286.004,-266.676,-282.298,-299.414,-281.859,-260.913,-263.382,-250.634
-275.449,-255.97,-259.878,-286.871,-259.107,-248.025,-253.782,-240.496
-260.319,-241.458,-249.628,-271.66,-248.877,-233.359,-240.335,-226.273
-255.981,-236.61,-260.663,-268.474,-260.152,-231.99,-236.497,-224.265
-263.948,-242.222,-273.636,-275.186,-273.272,-238.57,-243.416,-233.29
-273.262,-249.285,-274.218,-279.403,-273.841,-238.998,-250.926,-239.717
-276.807,-252.292,-269.772,-277.362,-269.412,-234.306,-251.992,-238.361
-276.427,-253.045,-270.135,-275.159,-269.738,-234.997,-248.896,-235.315
-276.113,-254.689,-271.743,-276.301,-271.138,-240.201,-247.271,-235.88
-276.241,-256.149,-267.266,-277.232,-266.525,-240.94,-248.582,-238.659
-273.04,-252.655,-258.126,-273.152,-257.393,-234.569,-249.051,-238.364
-264.812,-243.42,-252.681,-265.356,-251.831,-225.67,-246.307,-233.277
-255.728,-234.072,-253.81,-260.079,-252.726,-219.499,-243.127,-228.143
-249.382,-228.398,-252.796,-259.598,-251.656,-217.533,-242.124,-226.625
-244.856,-225.561,-243.949,-260.644,-242.966,-218.319,-241.538,-226.47
-242.365,-225.719,-236.646,-261.565,-235.758,-220.423,-240.027,-226.203
-245.413,-230.651,-241.866,-264.841,-240.87,-223.256,-240.975,-229.38
-253.802,-238.661,-255.244,-271.344,-254.168,-226.863,-246.443,-236.854
-259.94,-243.54,-261.966,-275.904,-260.975,-229.821,-251.496,-242.207
-255.749,-240.043,-255.638,-271.492,-254.575,-227.386,-248.45,-238.475
-244.432,-231.707,-246.129,-260.094,-244.691,-218.731,-237.511,-227.996
-240.439,-230,-245.508,-254.819,-243.777,-213.173,-230.61,-223.263
-249.368,-238.706,-251.838,-262.204,-250.106,-217.303,-235.75,-230.464
-257.775,-245.818,-255.196,-270.926,-253.56,-223.313,-244.081,-238.844
-253.941,-240.231,-252.629,-268.815,-251.053,-221.029,-243.88,-237.167
-246.517,-229.623,-249.034,-261.224,-247.499,-213.88,-238.412,-230.951
-249.686,-230.428,-249.213,-261.51,-247.554,-214.178,-238.467,-232.082
-260.124,-243.198,-251.96,-269.717,-249.855,-223.408,-244.233,-238.999
-263.765,-251.923,-252.519,-273.837,-249.946,-229.042,-246.499,-240.517
-256.96,-247.553,-250.889,-269.42,-248.253,-225.47,-241.758,-234.444
-249.899,-239.15,-251.915,-265.362,-249.485,-222.455,-238.096,-230.508
-252.264,-238.29,-255.199,-268.895,-252.783,-226.624,-243.555,-235.328
-257.71,-240.999,-250.419,-273.202,-247.656,-229.815,-251.319,-241.562
-253.197,-236.284,-234.636,-269.431,-231.379,-225.977,-250.315,-239.981
-243.275,-227.247,-227.401,-263.639,-223.895,-223.697,-245.099,-235.543
-242.809,-227.761,-242.221,-265.935,-238.833,-229.342,-245.311,-237.166
-249.676,-239.236,-260.589,-271.187,-257.412,-234.15,-247.304,-240.534
-247.339,-244.378,-262.341,-265.992,-259.215,-226.674,-242.066,-234.929
-236.287,-235.683,-255.031,-253.122,-251.836,-212.189,-233.59,-223.425
-237.584,-231.281,-255.077,-251.312,-251.885,-209.573,-235.383,-222.141
-255.489,-240.776,-261.116,-263.571,-258.011,-221.925,-247.709,-235.016
-269.74,-247.987,-259.248,-270.688,-256.199,-229.772,-255.935,-246.462
-268.76,-243.946,-247.432,-263.234,-244.508,-222.396,-252.296,-244.59
-262.413,-241.94,-242,-255.146,-239.243,-213.848,-244.772,-237.918
-262.106,-249.956,-252.205,-258.831,-249.418,-217.984,-243.851,-240.558
-262.11,-254.288,-261.136,-264.96,-258.4,-225.481,-245.747,-247.186
-250.176,-242.317,-250.995,-259.133,-248.786,-221.297,-238.261,-241.818
-231.359,-223.953,-232.303,-246.294,-230.63,-210.588,-225.271,-228.224
-224.043,-218.272,-225.313,-243.089,-223.656,-209.282,-224.939,-225.11
-231.764,-227.161,-228.946,-251.545,-227.177,-217.624,-237.568,-234.345
-236.469,-232.735,-231.386,-256.842,-229.924,-220.954,-243.498,-240.073
-226.902,-223.533,-232.322,-251.884,-231.376,-214.137,-237.118,-235.923
-214.394,-209.557,-233.395,-245.12,-232.709,-206.563,-230.061,-229.715
-210.999,-203.492,-229.32,-241.783,-228.737,-203.917,-224.295,-222.756
-210.914,-203.275,-218.471,-236.378,-218.101,-200.909,-213.528,-208.247
-202.098,-198.837,-204.053,-225.862,-203.812,-192.829,-202.125,-192.83
-186.724,-187.677,-190.693,-216.488,-190.389,-184.625,-198.877,-191.47
-179.818,-179.677,-187.718,-214.893,-187.533,-183.315,-202.676,-200.949
-186.851,-182.376,-201.224,-219.746,-201.509,-187.12,-207.476,-207.124
-194.179,-187.088,-217.715,-221.668,-218.517,-186.293,-206.859,-203.985
-188.323,-181.86,-214.852,-212.134,-216.018,-174.262,-194.908,-190.235
-177.171,-173.209,-195.188,-198.607,-196.659,-160.43,-179.178,-171.976
-176.901,-175.049,-179.539,-196.725,-181.297,-159.612,-175.813,-163.524
-182.963,-180.959,-170.295,-202.114,-172.31,-165.275,-182.875,-165.66
-179.482,-175.556,-162.348,-198.45,-164.696,-161.3,-185.371,-166.23
-171.349,-166.376,-168.198,-192.653,-170.838,-156.76,-186.113,-170.241
-175.766,-171.459,-192.225,-202.598,-194.821,-167.935,-197.291,-188.939
-187.986,-183.853,-212.641,-218.499,-215.048,-182.772,-209.743,-208.017
-188.422,-183.733,-212.029,-220.076,-214.609,-185.149,-209.899,-213.578
-177.158,-174.089,-197.198,-211.397,-200.155,-180.349,-204.285,-213.451
-171.33,-171.534,-183.701,-204.171,-186.632,-172.945,-197.284,-204.141
-175.32,-176.039,-177.798,-196.546,-180.351,-160.107,-180.772,-174.73
-176.933,-175.148,-176.211,-187.041,-178.496,-148.692,-160.513,-145.094
-168.909,-166.419,-177.25,-181.833,-179.378,-146.78,-158.577,-143.884
-157.349,-158.206,-179.776,-181.688,-181.685,-148.146,-176.928,-162.806
-151.693,-156.812,-173.972,-181.592,-175.594,-146.562,-188.491,-171.821
-153.47,-160.289,-152.963,-180.25,-154.176,-146.616,-179.347,-163.265
-151.32,-157.941,-130.813,-175.879,-131.508,-146.409,-165.122,-154.312
-137.909,-144.525,-130.384,-165.788,-130.693,-136.449,-158.814,-154.8
-128.457,-134.778,-152.633,-157.741,-152.91,-123.103,-158.628,-158.752
