EEG 1,EEG 2,EEG 3,EEG 4,EEG 5,EEG 6,EEG 7,EEG 8
0.881,3.633,-8.255,5.883,-0.762,-1.003,-1.165,-0.88
1.478,5.4,-7.186,7.85,0.14,1.663,0.148,3.742
5.879,10.902,-5.446,10.445,2.294,5.262,3.746,5.998
8.834,13.549,-6.67,8.791,1.177,4.303,4.064,0.862
4.337,7.229,-13.011,0.016,-5.488,-4.859,-3.269,-12.958
-1.755,-1.159,-17.895,-8.205,-10.292,-14.133,-10.582,-23.686
0.417,-0.353,-13.383,-6.091,-5.453,-12.575,-7.311,-19.737
6.865,5.926,-4.197,2.267,3.314,-4.022,1.582,-8.154
6.404,5.463,-1.556,5.472,5.697,-0.282,4.251,-2.716
-0.412,-1.134,-5.38,3.077,3.253,-1.995,2.026,-2.918
-4.251,-3.864,-6.826,2.366,3.396,-2.036,2.695,-1.289
-2.157,-1.007,-4.406,4.328,5.798,0.233,5.146,1.241
1.379,2.261,-2.921,5.666,6.37,1.498,5.144,1.167
2.503,3.657,-3.019,6.036,5.309,2.065,3.798,0.486
1.26,3.094,-3.014,5.862,4.388,2.846,3.01,0.609
-0.777,0.292,-3.402,4.422,3.592,2.584,2.037,-0.695
-3.268,-3.783,-4.523,2.536,2.467,1.037,0.575,-2.805
-5.593,-6.38,-5.439,2.571,1.291,0.115,0.284,-1.732
-5.882,-5.637,-6.185,4.949,0.504,1.371,2.012,2.669
-5.098,-4.034,-8.381,6.912,-0.63,3.932,3.657,6.426
-6.244,-5.31,-12.071,6.773,-2.537,5.687,3.19,9.366
-8.145,-8.285,-14.11,6.71,-3.118,6.31,2.006,14.436
-8.041,-9.907,-13.609,6.623,-1.773,5.432,2.079,16.811
-7.991,-11.54,-14.631,1.428,-2.169,-0.041,2.143,6.824
-10.174,-14.528,-18.13,-8.255,-5.381,-9.391,0.48,-11.667
-11.567,-15.246,-19.142,-13.31,-7.101,-14.817,-1.149,-21.429
-9.925,-11.997,-16.385,-10.644,-5.679,-12.452,-0.814,-15.541
-7.888,-8.936,-14.841,-7.079,-4.567,-7.728,-0.48,-5.428
-8.547,-9.233,-17.363,-6.939,-5.945,-5.942,-2.461,-1.765
-12.15,-12.062,-21.117,-8.183,-8.4,-6.375,-5.147,-2.651
-16.7,-15.553,-22.43,-8.684,-9.532,-6.39,-5.112,-4.248
-20.22,-18.197,-22.191,-9.137,-9.169,-5.999,-2.481,-8.797
-22.676,-20.053,-23.977,-10.878,-10.08,-6.791,-1.691,-15.338
-23.944,-21.727,-26.397,-12.131,-12.489,-7.263,-3.902,-15.439
-22.568,-21.881,-24.776,-10.279,-12.748,-4.919,-4.829,-7.474
-20.074,-20.362,-21.363,-8.08,-11.511,-2.625,-3.666,-2.116
-19.813,-19.338,-21.92,-9.18,-13.006,-3.722,-3.85,-4.87
-20.077,-18.401,-24.844,-10.478,-16.268,-4.644,-5.348,-7.492
-16.588,-14.656,-25.05,-7.491,-17.009,-1.016,-4.886,-2.853
-9.512,-7.68,-21.689,-1.808,-13.547,4.824,-1.079,4.548
-2.48,-1.153,-16.951,1.243,-7.699,7.023,3.465,6.256
1.444,0.926,-14.279,-1.375,-4.076,3.164,4.46,1.093
1.239,-0.624,-15.415,-6.923,-4.762,-2.813,1.823,-4.288
-0.856,-1.179,-16.542,-9.647,-5.266,-5.23,0.518,-4.757
-1.229,0.728,-14.578,-8.384,-2.65,-4.292,2.737,-2.125
-0.306,1.722,-13.426,-7.026,-1.212,-4.128,4.376,-0.369
-1.281,0.101,-15.513,-6.656,-3.183,-4.43,2.87,0.14
-3.455,-1.669,-16.059,-4.358,-3.524,-1.8,2.095,2.309
-4.283,-2.016,-12.896,-0.336,0.135,2.403,4.733,6.598
-5.387,-2.343,-11.653,0.697,2.13,3.016,6.529,7.917
-9.089,-4.165,-16.188,-3.834,-1.959,-1.462,3.337,2.287
-13.732,-7.681,-22.53,-10.693,-8.563,-7.182,-2.219,-6.338
-16.746,-11.422,-24.81,-14.56,-11.559,-9.652,-5.217,-10.895
-17.692,-12.602,-22.105,-13.082,-9.533,-7.476,-4.878,-9.494
-17.367,-10.252,-17.98,-7.288,-5.79,-1.606,-2.938,-3.646
-16.871,-6.973,-15.739,-0.071,-3.827,5.733,-0.387,5.173
-16.008,-5.386,-15.648,4.239,-4.532,10.406,0.689,10.85
-12.549,-4.667,-15.294,3.145,-6.011,9.495,-1.554,6.156
-6.983,-2.887,-12.961,-0.439,-5.785,5.821,-4.137,-3.526
-4.304,-0.829,-10.946,-2.15,-4.235,4.121,-3.438,-6.087
-6.964,-1.089,-12.228,-2.606,-4.152,3.585,-2.034,-3.321
-11.071,-3.295,-14.926,-4.415,-5.824,1.107,-3.671,-5.081
-11.06,-3.043,-13.937,-5.115,-5.314,-0.644,-5.438,-8.438
-6.083,0.692,-8.074,-1.694,-0.747,1.874,-2.933,-5.638
-1.711,2.041,-2.619,1.472,3.125,4.691,1.346,-1.701
-2.587,-1.618,-1.778,-0.303,2.492,3.311,2.8,-3.868
-5.486,-4.439,-3.008,-2.962,0.668,1.263,2.224,-7.321
-5.428,-2.84,-3.399,-1.729,0.894,2.62,1.88,-5.856
-3.978,-0.883,-4.914,0.121,0.688,4.367,0.694,-2.897
-4.845,-1.251,-8.8,-1.358,-2.364,3.167,-2.218,-2.89
-6.724,-1.142,-11.567,-3.858,-5.702,0.984,-4.925,-4.225
-6.746,1.006,-10.71,-4.117,-6.262,0.299,-6.292,-4.594
-5.489,2.684,-8.586,-2.399,-4.851,1.172,-6.975,-3.82
-4.37,1.859,-7.548,-0.857,-3.229,2.58,-6.18,-2.352
-3.363,-0.085,-6.687,-1.221,-1.649,3.013,-3.234,-1.451
-2.334,-0.541,-4.826,-2.911,-0.37,2.412,-0.556,-1.556
-1.929,0.509,-3.213,-3.909,0.056,2.543,-0.198,-1.07
-3.449,0.625,-4.619,-4.133,-1,3.535,-1.163,0.845
-5.948,-0.291,-8.93,-4.569,-3.758,4.039,-2.33,3.114
-5.645,0.87,-12,-4.39,-6.758,4.515,-4.346,4.323
-1.975,4.464,-11.97,-2.983,-8.456,5.831,-6.97,3.81
0.544,6.478,-11.165,-2.514,-9.371,6.166,-7.62,1.932
-2.041,3.458,-11.771,-5.786,-11.645,2.652,-6.674,-1.292
-8.92,-4.412,-14.429,-12.659,-16.662,-4.474,-8.961,-6.609
-14.337,-12.213,-16.906,-18.551,-21.195,-10.403,-14.142,-12.134
-12.029,-12.708,-14.065,-17.487,-18.869,-9.428,-14.136,-12.336
-4.307,-5.67,-5.707,-10.556,-9.954,-2.869,-6.454,-6.837
-1.276,0.256,0.375,-6.733,-3.58,0.519,-0.14,-4.286
-5.198,0.24,-0.273,-9.602,-4.738,-2.611,-1.834,-8.709
-7.573,-1.553,-2.808,-13.111,-7.985,-6.175,-6.286,-13.685
-6.08,-2.172,-3.361,-13.954,-8.502,-6.9,-7.249,-14.851
-6.908,-3.415,-4.08,-15.018,-8.446,-7.624,-6.548,-14.078
-9.399,-4.074,-5.048,-16.311,-8.963,-8.659,-6.164,-11.837
-7.128,-0.791,-3.364,-14.939,-7.332,-7.687,-3.85,-7.291
-0.958,4.179,0.022,-11.65,-3.777,-4.713,-0.445,-2.776
2.929,5.823,1.021,-9.084,-2.489,-1.098,0.091,-0.43
3.086,4.201,-1.682,-7.633,-5.299,1.734,-2.025,1.132
2.964,3.339,-4.701,-6.383,-9.021,2.637,-3.472,2.925
4.394,5.017,-4.592,-4.889,-10.1,2.398,-3.733,2.992
5.779,7.063,-2.432,-3.653,-8.999,2.333,-4.231,-0.065
4.455,5.943,-1.913,-4.215,-8.755,1.412,-5.211,-4.439
0.563,1.505,-3.28,-5.992,-9.747,-0.322,-5.778,-5.741
-1.646,-1.562,-2.441,-4.706,-8.993,1.414,-5.064,-0.154
-0.689,-0.825,1.228,0.524,-6.446,7.734,-3.953,8.64
0.567,1.323,3.907,4.556,-4.673,12.668,-2.951,11.837
1.62,3.136,4.603,4.334,-3.589,12.16,-0.905,8.576
3.619,4.311,5.4,2.343,-2.102,9.484,1.572,5.684
6.385,5.157,8.565,2.016,0.47,9.274,3.83,5.695
9.462,6.517,14.44,3.342,4.138,10.756,6.053,5.32
11.537,7.73,19.26,3.304,6.489,9.8,6.197,2.93
10.831,7.699,18.812,0.55,5.42,5.78,3.127,0.156
8.546,7.393,14.465,-2.086,2.597,2.649,-0.505,-1.716
8.179,8.163,11.654,-1.253,1.368,3.593,-1.258,-1.497
9.105,8.46,11.402,1.41,1.487,6.405,1.13,1.051
7.033,6.103,9.883,1.859,0.002,6.789,3.094,3.119
1.718,2.532,6.992,1,-2.756,5.36,1.241,3.343
-2.478,0.259,6.265,2.078,-3.937,5.507,-3.132,2.965
-2.078,-0.052,8.989,4.528,-1.841,7.341,-3.834,1.965
1.856,1.421,13.814,6.59,3.102,9.012,2.255,0.796
4.295,2.612,18.383,8.3,7.669,10.089,9.105,2.001
2.629,1.03,20.931,9.318,8.754,10.892,10.45,5.889
0.418,-1.197,21.499,8.587,6.857,10.947,7.835,8.754
0.656,-0.261,20.677,6.834,4.081,10.192,4.873,8.606
1.237,2.729,18.819,5.556,1.391,9.336,2.195,7.106
0.896,4.649,17.07,4.366,-0.641,8.151,-0.062,4.734
1.75,5.558,16.843,3.292,-1.004,7.146,-0.341,2.507
4.715,6.734,18.493,3.996,0.668,7.955,2.155,3.496
7.427,7.8,20.643,5.477,2.726,9.097,4.602,5.725
6.621,7.551,20.727,5.155,2.677,8.157,3.528,5.303
3.39,6.09,19.201,4.65,1.337,7.422,1.424,6.543
2.149,4.438,19.311,5.712,1.524,8.496,2.777,12.118
2.073,2.085,20.162,4.421,1.784,6.734,4.496,12.112
-0.397,-1.473,18.355,-1.164,-0.53,0.141,1.696,1.472
-2.592,-3.818,15.459,-5.222,-2.763,-4.772,-2.126,-7.564
0.635,-1.575,16.334,-2.785,-1.04,-2.748,-1.526,-4.549
9.646,6.24,22.936,4.345,4.595,3.863,2.809,6.538
18.927,15.217,31.188,10.381,10.581,9.209,6.946,16.261
19.987,16.869,32.745,8.298,11.059,7.233,6.607,15.001
12.359,10.576,25.967,-1.741,5.032,-1.922,1.355,0.786
6.995,7.051,20.853,-7.726,0.802,-7.71,-2.028,-11.668
9.491,11.322,23.943,-1.792,3.627,-2.478,0.557,-8.126
13.942,16.439,30.326,9.43,8.8,8.508,4.435,6.753
14.241,16.259,32.983,15.735,10.385,15.276,4.86,17.875
7.769,10.29,27.117,11.753,5.129,11.477,0.97,13.412
-1.719,2.628,15.735,1.358,-4.131,0.908,-4.51,-3.089
-4.419,0.561,10.76,-4.117,-7.917,-4.562,-6.083,-14.44
0.829,5.236,14.944,-1.655,-4.221,-2.06,-3.045,-13.846
5.893,10.729,19.625,2.285,-0.019,1.872,0.673,-7.615
7.905,14.22,22.035,5.634,2.588,5.658,3.596,1.388
8.561,16.17,24.245,8.676,5.272,9.391,4.995,9.169
7.951,15.966,25.045,8.759,6.965,9.442,3.811,8.228
6.762,13.951,24.11,6.351,7.33,6.146,2.212,1.102
6.098,11.609,23.669,5.294,8.028,4.194,2.798,-2.364
5.946,10.013,24.756,7.036,9.668,5.37,4.578,1.067
6.404,9.977,26.22,9.837,11.013,7.507,5.253,6.826
6.861,10.629,25.479,10.27,9.953,7.033,4.441,8.681
6.721,10.878,22.32,7.634,6.999,3.712,4.154,6.542
7.494,12.024,20.964,6.541,6.046,2.736,6.384,8.763
9.247,13.526,22.937,8.106,7.636,5.426,9.523,17.254
8.339,11.296,22.574,5.255,6.383,4.199,9.28,18.895
2.689,4.335,15.45,-5.117,-0.995,-5.114,3.771,5.938
-4.083,-2.737,6.87,-14.819,-9.512,-15.031,-3.538,-8.978
-6.723,-5.673,5.493,-15.764,-11.834,-17.307,-6.67,-12.141
-5.251,-5.2,11.27,-9.886,-7.719,-13.326,-3.73,-6.819
-4.105,-4.293,17.318,-3.301,-2.641,-8.643,0.911,-1.845
-5.259,-4.16,20.043,1.25,0.161,-5.331,2.604,0.622
-5.949,-4.272,20.815,3.697,1.34,-3.091,1.751,0.815
-2.502,-3.106,22.618,4.966,3.217,-1.447,2.108,-0.744
4.461,0.741,27.399,6.358,8.043,0.331,5.86,-0.314
9.586,5.23,32.608,7.372,14.063,1.899,10.38,4.373
9.033,5.747,33.109,5.989,15.882,1.628,11.124,9.365
4.127,0.944,27.674,1.659,11.411,-1.144,7.055,10.099
-1.168,-5.607,19.255,-4.565,3.72,-5.573,0.783,6.089
-2.946,-8.791,12.423,-10.895,-2.167,-9.959,-3.389,-0.49
-0.316,-6.827,11.505,-14.343,-2.659,-11.822,-2.894,-5.369
2.476,-3.835,14.766,-13.619,-0.181,-10.497,-0.76,-5.958
1.104,-3.732,15.683,-10.851,0.207,-8.097,0.043,-4.22
-2.412,-4.511,13.887,-7.332,-0.337,-5.496,1.849,-1.307
-3.755,-3.79,14.567,-2.788,1.689,-1.968,5.597,3.545
-3.052,-2.651,18.688,2.215,4.989,2.556,9.38,9.483
-3.572,-2.781,22.005,5.531,6.683,6.195,12.798,12.908
-7.314,-5.414,20.807,3.93,5.28,4.809,13.795,9.28
-10.809,-8.291,17.63,-0.481,2.328,-0.51,10.744,2.256
-8.512,-6.796,17.896,-0.622,1.951,-2.098,7.291,1.796
-3.159,-2.672,19.923,2.876,3.801,0.946,5.63,7.042
-1.291,-1.249,19.054,2.644,4.091,1.505,3.848,8.28
-1.011,-1.651,17.373,-1.892,3.451,-2.432,1.557,3.493
1.798,-0.372,18.026,-4.528,3.809,-5.588,-0.58,-0.964
4.262,1.133,18.61,-2.682,3.41,-4.615,-2.413,-0.668
3.559,-0.554,16.225,-0.545,1.043,-2.86,-2.986,1.101
2.259,-4.015,13.203,-1.148,-0.15,-3.625,-0.942,-0.147
2.101,-4.755,14.181,-1.304,3.082,-4.098,3.624,-1.382
0.286,-4.014,16.847,-0.536,6.807,-3.285,6.365,-0.982
-5.875,-7.773,13.314,-4.001,3.891,-5.741,2.527,-4.546
-13.758,-15.294,4.866,-9.962,-3.33,-10.141,-3.97,-10.418
-17.35,-19.355,2.228,-10.337,-5.375,-9.216,-4.601,-9.368
-15.208,-18.102,7.98,-5.291,-0.874,-3.554,0.811,-1.701
-11.437,-15.141,14.815,-0.436,3.55,1.019,5.724,6.164
-8.028,-11.693,18.963,4.176,5.162,4.324,7.061,12.572
-4.232,-8.61,20.431,8.466,5.073,6.265,5.89,13.942
-1.059,-7.716,18.799,9.056,3.913,3.82,5.046,7.431
-0.582,-7.37,15.723,7.4,2.509,-0.509,6.124,0.796
-3.263,-5.404,12.69,7.374,0.331,-2.098,5.295,-0.401
-7.067,-3.588,9.4,7.963,-3.437,-2.275,-0.435,-1.678
-10.223,-5.076,6.972,6.402,-6.716,-4.061,-7.38,-5.838
-12.569,-9.558,7.183,3.395,-6.75,-6.47,-10.86,-7.632
-12.033,-11.858,10.829,2.659,-1.799,-6.06,-7.991,-3.447
-7.747,-9.582,16.242,5.254,6.966,-2.773,0.603,3.295
-5.04,-8.156,18.929,7.2,13.405,-1.14,7.525,7.262
-7.25,-10.576,18.052,6.311,13.578,-2.947,6.943,7.843
-9.616,-11.982,17.353,4.493,10.927,-5.678,2.711,6.17
-8.293,-9.957,17.53,2.478,9.383,-8.191,1.301,2.123
-6.185,-8.156,17.3,0.699,9.16,-9.741,3.789,-0.829
-6.702,-8.673,17.27,0.62,9.203,-8.922,6.801,1.007
-8.264,-9.947,16.877,1.059,8.159,-7.527,6.912,3.906
-6.923,-9.428,15.983,1.244,6.553,-6.977,5.155,4.389
-2.914,-6.256,16.792,2.907,6.689,-5.481,4.958,5.05
-0.13,-3.323,18.491,4.244,7.672,-4.288,5.23,5.952
1.619,-2.107,18.674,2.651,7.461,-5.891,4.099,4.859
4.94,0.004,17.992,-0.006,6.913,-8.743,3.734,2.847
7.843,2.944,16.988,-2.115,6.183,-11.2,3.892,0.361
7.914,3.973,15.549,-3.246,4.716,-12.462,2.68,-1.963
6.913,2.951,14.912,-2.316,3.958,-11.365,2.43,-0.513
6.551,1.205,15.447,-0.291,4.465,-9.38,4.22,4.504
6.809,0.243,16.899,1.489,5.798,-8.316,5.905,8.335
7.274,0.706,19.254,3.427,8.361,-7.44,7.55,9.333
6.612,-0.314,20.711,4.028,10.43,-7.602,8.818,7.701
4.284,-4.978,20.003,1.203,9.571,-10.74,7.291,2.507
1.87,-9.601,19.345,-2.266,7.897,-14.152,4.653,-2.719
0.535,-10.327,20.448,-2.241,8.611,-13.659,5.126,-1.395
-0.118,-9.125,21.086,-0.091,9.833,-10.722,7.227,5.743
-1.161,-9.627,18.679,-0.028,7.792,-9.933,5.647,9.763
-2.924,-10.812,14.617,-2.683,3.693,-12.424,0.921,4.303
-3.383,-8.493,12.75,-4.67,2.607,-14.975,-0.362,-4.954
-1.09,-2.345,14.308,-2.86,5.534,-14.082,3.423,-5.98
1.754,2.891,15.768,1.168,7.118,-11.014,5.761,1.528
3.738,4.77,13.772,2.979,4.013,-10.082,2.934,5.83
6.259,6.119,10.479,2.074,0.36,-11.238,-0.392,3.476
8.152,7.606,9.229,0.73,0.2,-11.717,0.049,1.504
7.234,6.105,10.172,-0.902,2.193,-11.803,2.865,2.446
5.328,2.739,12.678,-2.601,4.46,-12.174,5.578,3.334
2.968,0.538,13.963,-3.438,5.165,-12.027,6.07,3.482
-1.397,-1.77,11.35,-3.72,2.898,-10.883,3.973,4.839
-4.046,-3.864,9.033,-3.004,1.368,-8.243,3.459,7.126
-1.716,-2.975,10.463,-0.962,3.537,-4.836,6.208,7.013
1.192,-0.853,11,0.391,5.535,-2.961,7.306,4.099
1.439,-0.288,7.907,-0.204,4.72,-3.214,4.812,1.857
1.887,0.351,5.129,-1.535,3.791,-4.392,2.472,1.115
3.974,2.507,4.802,-2.029,4.243,-5.381,1.699,0.356
5.549,4.502,4.89,-0.563,4.566,-4.766,0.867,0.521
6.244,5.785,4.642,3.257,4.318,-1.653,-0.089,2.628
7.302,6.992,4.745,7.48,4.171,1.839,-0.503,4.389
7.342,6.232,3.669,8.146,3.066,1.651,-1.037,3.18
4.172,2.051,-0.315,4.09,-0.423,-2.802,-2.395,-0.04
-0.242,-2.49,-4.248,0.058,-4.158,-6.377,-3.842,-0.686
-0.53,-3.128,-2.575,1.27,-3.585,-4.276,-3.366,4.367
4.459,0.117,3.713,5.179,1.132,0.311,-0.494,10.049
8.201,2.151,5.416,3.398,2.946,-0.933,1.351,7.775
6.371,-0.941,-1.681,-6.239,-2.166,-9.622,-0.592,-1.477
3.739,-5.514,-9.47,-16.177,-8.236,-18.316,-3.656,-8.417
3.944,-5.884,-10.774,-20.214,-9.076,-21.433,-4.59,-8.252
4.367,-2.765,-7.983,-18.986,-6.438,-19.597,-4.008,-3.214
5.561,0.687,-3.289,-14.472,-2.657,-14.48,-2.413,2.421
9.646,4.127,4.13,-8.341,2.745,-8.148,0.477,4.382
12.574,7.457,11.205,-2.283,7.788,-2.771,2.888,2.46
12.02,9.911,14.631,4.496,10.568,2.855,4.175,2.667
11.733,11.472,16.632,13.081,13.048,10.534,5.782,8.857
11.646,11.603,19.046,20.6,15.498,17.58,6.431,14.936
8.044,9.207,18.85,22.127,14.417,18.981,3.798,11.559
3.043,5.528,14.921,17.469,9.84,14.753,0.71,1.449
1.055,3.233,11.032,13.04,6.268,11.706,0.989,-1.17
0.268,1.849,8.49,12.397,4.463,13.055,1.667,6.606
-2.035,-0.477,5.295,10.931,1.826,12.678,-0.593,9.965
-2.527,-1.765,2.969,6.098,-0.332,7.003,-2.124,2.288
1.182,0.369,3.79,2.155,0.279,1.497,-0.446,-4.485
4.8,3.182,4.235,0.568,1.258,-0.624,1.021,-3.316
5.706,4.02,1.888,-1.307,1.092,-2.329,1.231,-1.09
8.316,5.502,1.948,-2.288,3.049,-3.627,2.451,-0.918
14.51,9.147,7.268,0.56,7.984,-1.383,3.646,1.837
18.001,11.664,12.669,5.881,12.219,3.887,3.538,7.313
14.554,10.766,13.894,9.778,13.67,8.342,4.547,9.819
8.644,7.773,12.117,10.428,12.889,9.854,7.08,8.043
5.764,5.076,10.505,10.621,11.489,11.212,8.241,8.972
6.437,4.13,10.937,13.836,11.648,15.528,7.377,16.141
9.343,4.673,12.165,17.322,13.211,18.971,6.38,20.444
12.843,5.548,11.423,15.21,13.273,15.512,5.903,13.129
14.123,5.906,7.927,7.94,10.221,7.264,4.402,0.122
13.714,6.65,4.184,2.547,6.343,2.578,1.645,-6.349
16.203,10.263,3.728,3.393,5.521,4.901,0.424,-3.494
21.239,16.334,6.621,6.915,7.967,9.035,1.652,1.302
23.141,20.323,9.265,7.761,9.888,9.405,2.386,1.879
20.76,19.394,9.459,6.511,9.381,7.354,1.152,0.27
17.983,15.853,8.389,7.392,8.496,7.437,0.056,1.901
17.061,14.083,7.437,11.122,8.962,10.286,0.891,6.53
16.715,15.385,5.785,13.76,9.55,11.997,2.431,7.07
14.459,16.086,2.37,12.044,8.157,9.615,1.866,0.217
10.866,13.553,-0.529,8.816,5.748,6.223,-0.471,-5.677
10.14,11.475,0.881,10.035,6.24,7.492,0.009,-1.704
14.08,13.469,5.453,15.474,10.207,13.106,4.686,7.842
18.831,16.338,7.854,18.801,12.797,17.339,8.226,12.983
19.965,15.652,6.314,17.101,10.843,17.263,6.657,11.11
18.389,13.353,4.185,13.634,7.515,15.04,3.571,5.749
17.508,13.506,3.685,12.226,6.654,13.898,3.984,2.382
17.265,14.837,3.162,13.236,6.969,14.919,6.321,5.144
16.445,14.084,1.391,13.844,6.032,16.104,5.956,9.757
16.072,11.618,-0.561,11.308,4.402,14.596,2.39,7.409
16.323,9.439,-1.824,7.005,3.147,11.31,-1.19,-0.43
15.409,8.5,-2.028,4.953,2.562,10.082,-1.877,-3.298
13.293,9.113,-0.606,6.037,3.186,11.819,0.208,1.684
13.472,11.717,2.36,8.308,5.549,14.676,2.51,7.983
17.833,15.747,4.779,10.13,8.537,16.962,3.671,10.284
21.263,18.057,3.994,9.251,9.356,15.874,4.116,6.41
18.348,16.676,0.922,5.823,7.394,11.105,3.858,-1.499
11.113,13.477,-2.211,4.42,4.143,8.131,1.884,-5.71
4.512,9.602,-6.004,6.326,-0.145,9.64,-2.168,-3.615
1.754,5.877,-8.427,9.222,-2.998,12.786,-4.742,-0.283
3.348,5.757,-4.851,13.769,-0.1,16.58,-1.542,2.731
5.592,8.966,0.929,18.51,5.683,20.031,3.935,5.702
5.13,10.363,0.459,17.894,7.15,19.855,4.787,5.277
3.603,8.821,-5.105,11.861,4.15,16.479,1.441,1.161
3.404,7.472,-8.69,5.715,1.553,13.202,-1.524,-2.61
4.821,7.892,-8.416,2.482,1.262,11.519,-2.713,-3.63
7.596,9.248,-6.948,1.725,2.007,11.268,-3.284,-2.796
9.808,9.571,-7.219,1.406,1.905,10.888,-4.036,-2.65
9.08,7.922,-9.921,0.789,0.163,9.608,-4.56,-3.098
6.077,5.033,-13.058,0.981,-2.58,9.03,-5.047,-1.328
3.347,1.75,-14.829,1.174,-5.174,9.368,-6.096,2.035
3.553,-0.1,-14.03,0.049,-5.148,9.184,-5.126,3.508
7.098,0.523,-11.069,-1.432,-1.657,7.958,-0.48,1.736
9.812,1.017,-10.117,-2.997,0.566,5.414,3.046,-1.748
9.765,0.833,-12.075,-4.164,-0.838,3.144,2.463,-2.856
11.626,3.812,-11.287,-2.242,-0.489,4.782,1.85,1.195
16.321,9.491,-6.722,2.377,3.724,10.038,2.981,7.165
16.856,11.424,-4.645,4.666,6.012,13.512,2.63,9.682
10.894,7.081,-6.841,1.998,3.753,11.74,0.431,7.376
4.846,0.793,-9.409,-2.968,0.426,6.831,-1.813,1.844
2.426,-3.397,-11.233,-6.632,-1.824,2.91,-4.267,-4.463
1.834,-4.286,-11.995,-6.736,-1.826,3.004,-4.775,-7.809
1.975,-2.983,-9.821,-3.824,1.236,6.507,-1.093,-7.411
2.778,-2.579,-6.026,-1.043,4.536,9.862,2.642,-6.092
3.592,-3.026,-2.962,1.962,6.458,13.195,3.493,-2.659
3.372,-2.145,-1.381,7.223,8.093,18.108,4.028,3.697
1.869,-1.416,-2.196,11.094,7.973,20.97,4.321,6.328
-0.127,-1.965,-4.123,10.234,5.315,19.457,2.566,2.81
-2.614,-1.612,-4.41,7.592,3.108,17.057,0.813,-0.332
-4.18,0.404,-2.809,5.9,3.449,15.824,2.048,-0.195
-2.615,1.81,-1.783,4.214,4.412,14.363,4.67,0.669
-1.196,-0.439,-4.986,1.081,1.955,11.65,3.699,0.735
-3.984,-6.04,-11.217,-2.799,-3.258,8.372,-0.853,0.102
-8.096,-10.419,-13.575,-4.386,-4.932,6.901,-2.442,0.663
-10.552,-11.926,-11.506,-2.798,-2.003,8.457,0.814,4.655
-13.748,-14.148,-12.106,-1.535,-0.999,10.696,2.539,10.473
-18.822,-18.204,-17.441,-3.372,-5.325,10.601,-1.203,12.456
-22.693,-20.903,-23.166,-7.162,-11.807,7.448,-7.08,6.732
-23.307,-21.152,-27.158,-10.788,-17.057,2.25,-11.272,-2.561
-21.559,-20.089,-29.994,-12.882,-20.247,-2.618,-13.134,-6.742
-17.089,-16.19,-29.123,-10.95,-19.482,-2.982,-11.723,-3.002
-10.468,-10.301,-23.163,-5.916,-14.052,0.767,-7.325,0.868
-9.384,-10.112,-19.452,-6.052,-10.43,-0.041,-5.657,-4.258
-16.966,-16.277,-21.825,-12.307,-11.896,-6.311,-8.443,-12.419
-21.844,-17.679,-21.566,-12.784,-10.339,-5.679,-7.298,-9.235
-18.792,-12.625,-16.581,-6.113,-4.133,2.776,-0.382,2.098
-17.578,-11.717,-16.433,-4.812,-3.036,5.08,2.392,6.082
-19.582,-15.437,-20.609,-9.774,-7.143,-0.486,-0.791,2.456
-16.879,-15.749,-20.946,-11.42,-8.115,-3.383,-1.853,0.966
-13.071,-14.328,-20.836,-10.921,-7.942,-3.408,-1.258,-0.653
-15.797,-16.737,-26.193,-15.029,-12.644,-7.665,-5.638,-9.128
-19.142,-19.053,-30.33,-19.796,-17.024,-13.235,-11.546,-17.329
-15.091,-15.91,-26.712,-17.62,-13.96,-11.909,-11.009,-14.528
-8.924,-11.416,-21.476,-11.297,-8.04,-5.39,-6.142,-5.602
-7.744,-10.616,-20.675,-7.665,-6.019,-0.998,-2.887,-1.225
-9.254,-11.621,-21.115,-6.888,-6.295,0.125,-0.896,-0.602
-10.783,-12.915,-20.266,-6.466,-6.219,0.724,1.505,2.071
-13.082,-14.733,-19.447,-5.281,-6.083,2.523,3.739,7.018
-15.146,-14.805,-18.262,-2.786,-5.397,5.699,5.102,10.434
-16.499,-13.44,-17.211,-0.959,-4.991,7.742,4.121,9.484
-18.99,-14.183,-18.793,-1.737,-7.049,6.884,-0.005,5.897
-22.365,-16.377,-21.929,-2.766,-10.19,5.746,-5.068,3.505
-23.399,-16.162,-22.787,-1.027,-10.834,7.211,-7.913,3.593
-20.718,-13.439,-20.646,2.218,-8.533,9.819,-7.32,4.639
-17.502,-12.503,-18.607,2.285,-6.776,9.122,-5.948,2.22
-17.208,-15.499,-18.759,-2.22,-8.086,4.09,-7.549,-5.591
-18.343,-17.836,-18.895,-5.431,-9.468,0.608,-9.592,-10.578
-17.481,-15.025,-16.612,-3.072,-7.275,2.971,-6.535,-5.719
-16.226,-11.288,-14.733,-0.817,-5.106,5.533,-1.768,0.153
-18.112,-12.045,-16.336,-4.526,-7.706,2.134,-2.976,-3.753
-20.329,-13.083,-17.46,-9.28,-10.636,-2.585,-7.259,-11.817
-17.976,-8.508,-13.874,-8.386,-7.808,-1.729,-6.152,-12.821
-14.019,-2.775,-10.539,-5.443,-3.639,1.669,-1.502,-8.279
-14.512,-3.512,-13.132,-6.63,-4.943,1.583,-1.417,-6.421
-16.626,-8.109,-16.138,-8.247,-7.663,0.964,-5.059,-5.959
-14.237,-9.545,-13.363,-4.838,-5.803,4.49,-5.861,-2.005
-9.591,-8.324,-9.657,-0.624,-3.022,8.165,-3.249,1.248
-6.955,-8.14,-9.702,-0.836,-3.506,7.211,-0.847,-1.139
-5.457,-9.093,-10.965,-3.027,-5.17,3.965,-0.731,-6.021
-4.344,-9.523,-12.12,-3.085,-6.074,2.911,-2.461,-7.916
-4.875,-8.773,-14.508,-1.684,-6.955,4.344,-4.204,-6.092
-6.443,-7.775,-17.006,-2.27,-8.14,4.613,-5.352,-4.693
-6.681,-6.994,-17.032,-4.956,-8.618,2.146,-6.743,-5.674
-5.809,-5.928,-15.275,-6.701,-8.494,-0.498,-9.031,-6.459
-6.148,-4.936,-14.33,-6.593,-8.958,-1.118,-11.256,-5.049
-6.676,-3.983,-13.259,-5.912,-8.697,-0.019,-10.328,-2.205
-5.832,-3.343,-11.022,-6.715,-6.745,-0.069,-6.37,-1.759
-6.594,-5.298,-11.095,-10.486,-6.274,-3.592,-5.333,-5.47
-9.949,-8.767,-13.961,-14.072,-7.787,-6.926,-8.58,-7.147
-11.856,-8.687,-14.348,-13.515,-6.702,-5.849,-8.671,-3.116
-11.827,-5.483,-11.812,-11.972,-3.18,-4.378,-3.406,-1.291
-13.445,-4.857,-12.458,-14.303,-3.267,-7.654,-0.919,-7.69
-15.399,-6.498,-17.305,-16.944,-7.745,-11.103,-4.386,-14.391
-12.667,-4.068,-20.052,-12.972,-10.662,-7.264,-6.597,-11.742
-6.277,2.56,-18.825,-4.535,-10.237,0.859,-4.278,-4.151
-2.325,5.663,-19.419,-0.057,-11.187,4.079,-3.303,-2.335
-2.312,1.919,-23.466,-0.683,-14.742,1.801,-6.426,-6.062
-3.63,-3.756,-25.326,-0.623,-16.54,0.798,-9.017,-7.145
-6.005,-7.916,-23.723,0.528,-15.736,1.587,-9.365,-5.285
-9.932,-11.976,-23.106,-1.776,-15.408,-0.866,-10.467,-6.825
-13.022,-14.952,-22.879,-5.48,-14.409,-4.557,-11.012,-9.246
-13.037,-14.074,-19.607,-5.258,-10.641,-3.862,-8.082,-5.045
-11.813,-11.602,-16.472,-4.29,-8.051,-2.087,-5.234,0.94
-10.974,-9.821,-16.689,-7.096,-8.704,-4.491,-5.118,-0.789
-8.96,-7.027,-16.935,-10.532,-8.364,-8.511,-3.919,-7.395
-5.761,-3.911,-15.071,-11.643,-5.786,-10.673,-0.601,-9.957
-2.668,-2.1,-12.232,-10.678,-3.116,-10.333,1.106,-6.014
-0.498,-1.261,-9.691,-8.62,-1.222,-8.478,-0.371,-1.439
-1.564,-3.128,-10.023,-8.776,-1.888,-8.664,-3.774,-2.986
-5.568,-7.492,-13.023,-11.379,-4.906,-10.763,-6.296,-7.655
-7.365,-8.681,-13.24,-10.369,-5.079,-8.833,-4.169,-6.651
-5.152,-5.086,-8.814,-3.547,-0.507,-1.808,2.323,0.283
-2.87,-2.075,-4.498,3.532,3.844,4.28,7.373,5.683
-2.478,-2.206,-3.654,6.434,4.156,5.987,7.008,5.788
-1.917,-2.723,-5.322,6.139,1.452,5.114,3.298,2.571
0.394,-1.046,-7.194,5.471,-1.292,4.249,0.202,-0.998
3.048,2.14,-8.662,4.629,-2.615,3.533,-1.268,-3.573
4.547,4.201,-10.595,2.199,-3.241,1.999,-1.633,-3.82
7.083,4.841,-11.256,-0.097,-2.695,1.189,0.301,-0.056
11.634,5.375,-9.421,-1.144,-0.711,1.411,3.938,4.467
13.358,4.161,-9.227,-4.888,-0.698,-1.702,4.381,3.204
8.932,-0.982,-12.701,-12.667,-4.337,-9.37,-0.792,-4.078
3.146,-6.854,-14.233,-18.098,-6.583,-15.192,-5.708,-10.805
2.512,-7.071,-8.91,-14.672,-1.939,-12.767,-2.899,-10.756
5.373,-1.526,-0.445,-3.844,6.696,-3.468,4.838,-3.369
4.554,2.27,3.099,5.954,10.42,4.366,7.229,4.446
-1.048,0.338,-0.777,8.087,5.945,4.429,1.668,4.329
-5.605,-2.771,-7.038,4.503,-0.904,-0.568,-4.711,-3.667
-5.405,-1.986,-9.612,2.041,-3.502,-3.591,-6.633,-10.592
-1.224,2.504,-6.715,3.889,-0.776,-1.932,-5.194,-9.392
5.027,8.082,-1.779,7.388,3.657,1.677,-3.551,-2.692
11.052,13.22,0.481,9.128,5.931,4.06,-2.781,3.202
13.849,16.564,-0.904,7.932,5.289,3.711,-1.968,4.867
11.266,15.166,-4.781,2.877,2.418,-0.983,-1.889,0.195
4.209,7.385,-10.664,-5.198,-2.544,-9.174,-5.038,-8.498
-2.55,-1.825,-15.209,-10.227,-7.088,-14.045,-9.49,-12.547
-4.3,-4.718,-14.051,-7.461,-7.199,-10.688,-9.398,-9.037
-1.398,-1,-9.916,-1.567,-3.961,-4.643,-4.712,-5.924
3.2,3.757,-8.054,0.942,-1.454,-2.966,-0.714,-7.305
7.465,6.747,-7.683,0.696,-0.357,-4.208,0.377,-8.023
9.916,8.254,-6.001,0.652,0.359,-4.512,-0.961,-6.182
11.033,9.357,-2.302,1.405,1.542,-3.767,-3.007,-5.021
12.217,10.854,2.554,2.372,3.667,-3.295,-2.975,-4.949
12.003,11.312,5.305,2.178,4.547,-4.098,-1.981,-5.203
8.865,9.189,3.828,0.154,2.238,-6.323,-3.494,-6.908
5.525,6.296,1.457,-1.852,-0.391,-8.542,-5.905,-9.718
4.562,4.721,1.275,-2.041,-0.503,-9.393,-6.002,-11.588
4.137,3.615,1.237,-0.636,0.029,-8.679,-5.39,-11.326
2.563,2.75,0.211,2.377,-0.058,-6.077,-5.412,-8.523
1.237,3.438,0.169,6.562,0.875,-2.328,-4.038,-4.973
1.513,5.027,0.994,9.487,2.702,0.218,-1.221,-4.024
3.282,6.373,1.408,10.741,3.627,1.73,0.431,-4.642
5.725,7.875,2.208,12.701,3.364,4.693,-0.666,-2.997
7.834,9.069,3.858,15.232,2.898,8.393,-3.357,-0.4
8.514,8.407,4.617,15.043,2.766,8.914,-4.598,-0.895
6.921,5.948,3.003,10.866,2.314,4.94,-3.617,-3.786
4.135,3.775,-0.097,5.702,0.975,0.134,-2.929,-5.455
2.96,3.558,-2.645,2.77,-0.268,-1.914,-3.385,-4.852
5.623,5.513,-2.747,2.302,0.408,-1.931,-2.411,-3.289
10.886,8.229,-0.267,3.135,3.06,-1.96,0.532,-2.097
13.738,8.446,1.776,4.487,5.092,-1.753,1.57,-1.473
12.534,5.84,2.227,7.058,5.647,0.775,-0.26,0.817
11.177,4.367,3.859,10.688,6.779,5.126,-0.689,4.743
10.971,5.014,6.64,11.56,8.202,6.4,1.748,4.624
9.161,4.695,6.84,7.667,7.082,2.286,3.343,-1.12
5.11,2.489,3.038,2.212,2.506,-3.855,0.887,-7.665
1.8,1.12,-1.815,-1.379,-2.851,-8.485,-4.068,-12.811
1.461,2.62,-3.513,-1.743,-4.905,-9.754,-6.922,-15.154
2.515,5.354,-1.057,0.713,-2.597,-7.402,-5.937,-11.766
1.994,5.89,1.389,2.795,0.17,-4.664,-4.185,-5.256
-0.689,3.052,-1.224,1.292,-1.331,-5.434,-4.923,-2.755
-3.52,-0.264,-7.505,-2.376,-6.305,-8.956,-7.237,-6.328
-5.017,-0.379,-11.305,-3.707,-9.402,-10.862,-8.072,-10.506
-4.996,3.027,-10.595,-0.823,-8.375,-8.502,-6.833,-9.368
-3.181,7.136,-8.39,3.49,-6.04,-3.951,-4.987,-4.074
-1.249,8.496,-7.327,4.837,-5.347,-2.144,-3.346,-1.326
-1.649,6.308,-7.305,2.239,-6.036,-4.764,-1.905,-3.341
-2.514,3.438,-6.41,-0.751,-6.129,-7.981,-0.967,-5.015
-1.188,1.871,-3.873,-1.513,-5.316,-8.864,-1.567,-3.554
0.145,0.631,-1.419,-1.574,-4.736,-8.984,-3.9,-2.363
-1.349,-0.855,-0.857,-2.785,-4.894,-9.924,-6.254,-3.485
-3.894,-1.617,-2.005,-4.223,-5.484,-10.7,-6.748,-4.64
-3.962,-0.956,-3.486,-4.537,-6.026,-10.704,-5.319,-4.962
-1.842,0.384,-5.116,-4.925,-6.988,-11.735,-3.917,-6.699
-0.017,1.761,-6.564,-5.532,-8.026,-13.566,-3.616,-8.135
1.893,4.104,-4.898,-2.69,-6.048,-11.743,-2.273,-3.898
3.815,6.309,-0.349,2.493,-1.258,-6.952,1.145,2.22
1.824,4.408,1.072,2.332,0.349,-6.965,2.886,0.848
-3.983,-0.846,-1.555,-2.475,-2.457,-11.428,0.818,-3.446
-6.296,-2.455,-0.743,-1.86,-2.435,-10.446,-0.546,0.562
-2.723,1.37,5.144,3.902,2.585,-4.303,1.693,6.684
-1.153,3.099,6.891,2.792,4.078,-5.074,2.277,0.584
-6.275,-0.961,-0.03,-7.33,-2.383,-14.764,-2.776,-13.479
-12.146,-4.797,-8.31,-15.326,-9.864,-22.143,-8.729,-19.431
-13.348,-4.478,-12.204,-16.072,-13.064,-22.496,-10.776,-15.242
-12.45,-3.528,-14.675,-15.508,-15.038,-22.256,-10.787,-11.552
-13.011,-4.621,-18.004,-16.742,-17.783,-24.4,-11.121,-11.558
-13.489,-5.664,-18.649,-15.26,-17.632,-23.819,-9.892,-8.735
-11.653,-5.405,-14.87,-9.151,-13.399,-18.338,-6.196,-1.429
-9.845,-6.132,-11.565,-4.331,-10.698,-13.972,-4.096,2.402
-10.703,-8.533,-12.729,-5.554,-13.184,-15.435,-6.329,-2.129
-11.978,-9.829,-14.991,-9.201,-16.434,-19.133,-9.299,-8.526
-10.787,-9.019,-13.632,-9.397,-15.399,-19.408,-9.156,-8.683
-8.607,-8.458,-9.928,-5.981,-11.753,-15.742,-7.155,-3.758
-8.726,-10.096,-8.41,-3.954,-10.339,-12.781,-6.26,-1.728
-11.092,-12.662,-9.253,-5.676,-11.444,-14.001,-6.837,-5.678
-11.637,-12.372,-7.422,-5.564,-9.846,-14.73,-6.412,-7.001
-7.613,-7.578,-0.531,0.936,-2.466,-9.055,-1.947,1.542
-1.727,-1.657,6.461,7.055,6.122,-2.437,5.81,10.652
1.256,1.118,7.501,4.477,8.978,-4.021,10.925,8.366
0.675,1.096,4.463,-2.363,6.479,-10.298,10.419,1.408
0.222,1.684,4.725,-4.048,5.458,-11.442,9.278,3.347
0.98,2.813,8.363,-2.136,7.241,-8.802,10.126,10.042
-0.513,1.507,7.511,-4.313,5.626,-10.724,8.086,7.638
-4.037,-1.049,1.106,-9.476,-0.75,-16.513,2.223,-2.908
-4.29,-0.771,-3.111,-10.624,-5.531,-18.897,-1.053,-8.957
-0.144,1.84,-1.7,-6.802,-5.169,-16.555,0.972,-6.067
2.946,2.259,1.521,-2.82,-2.833,-14.154,3.306,-0.811
1.297,-0.544,3.894,-1.15,-1.802,-13.948,1.622,0.952
-0.981,-1.576,7.986,1.933,0.189,-11.597,-0.096,2.428
0.838,2.029,15.511,9.733,6.306,-3.227,4.274,9.052
2.027,3.938,19.888,15.236,11.264,3.547,9.962,13.722
-3.906,-1.663,13.995,9.625,7.185,-1.526,7.317,5.179
-11.884,-8.467,3.771,-0.339,-1.544,-11.71,-0.125,-8.445
-12.619,-7.726,0.077,-1.945,-4.404,-12.966,-1.398,-10.468
-7.183,-2.098,1.44,1.981,-2.266,-7.794,2.446,-3.935
-3.392,0.4,-0.859,0.647,-3.627,-7.603,2.319,-2.493
-4.077,-1.92,-7.688,-5.618,-9.64,-12.318,-2.874,-6.672
-6.172,-5.221,-12.663,-9.173,-14.119,-14.38,-7.074,-8.371
-6.334,-6.05,-11.223,-7.545,-12.567,-11.677,-6.664,-5.143
-3.734,-3.995,-4.215,-3.242,-5.84,-7.088,-2.557,0.017
-0.187,-1.673,3.841,1.156,1.743,-3.134,2.533,4.545
2.479,-1.051,9.69,4.398,7.145,-0.741,6.824,8.352
4.812,-0.818,13.639,5.921,10.693,-0.375,10.248,11.31
5.825,-0.902,15.193,4.126,12.08,-3.309,11.494,9.894
2.59,-3.307,13.026,-0.784,10.298,-8.44,8.811,3.464
-1.777,-5.495,10.202,-3.245,8.099,-10.088,5.284,0.24
-1.729,-3.79,9.268,-0.756,7.585,-6.932,4.492,4.026
-0.078,-1.596,7.085,0.269,5.69,-5.847,4.044,5.511
-1.436,-2.891,3.161,-3.156,1.664,-9.05,2.047,0.017
-3.724,-5.369,1.449,-4.987,-0.816,-10.579,0.887,-4.01
-3.634,-5.323,3.01,-1.607,-0.106,-7.76,2.288,-0.81
-0.355,-1.347,7.316,4.34,3.64,-2.946,6.213,5.923
3.685,3.494,12.136,8.136,8.142,0.299,9.335,8.87
3.399,2.709,11.771,5.588,8.317,-2.076,7.068,3.869
-1.907,-4.749,5.675,-1.926,4.003,-9.265,1.778,-3.724
-6.693,-12.419,0.789,-7.859,0.999,-14.766,-0.787,-6.061
-6.017,-14.22,1.802,-8.01,2.666,-14.248,0.473,-3.426
-0.726,-10.682,6.316,-3.962,6.957,-9.793,3.989,0.014
3.958,-7.595,9.559,-0.158,10.331,-6.383,7.773,2.672
5.244,-7.779,10.984,2.1,12.405,-5.024,10.185,5.099
4.331,-8.846,12.614,4.803,14.409,-2.945,11.394,7.183
1.069,-9.771,13.574,7.858,15.13,-0.004,11.915,7.613
-5.23,-11.304,12.704,10.01,13.887,2.106,12.193,7.68
-10.809,-11.819,11.756,11.589,13.078,3.542,13.203,10.133
-11.087,-9.668,11.869,12.222,13.683,4.32,14.135,13.129
-7.335,-6.522,11.883,10.662,13.554,3.399,12.466,12.785
-3.77,-4.842,11.158,7.792,11.61,1.361,8.402,10.717
-1.009,-4.321,10.702,6.227,9.599,0.266,5.596,11.492
2.109,-2.992,10.759,5.886,8.796,-0.318,5.67,12.911
3.262,-1.573,9.125,3.183,7.426,-3.489,5.296,8.543
0.487,-2.561,5.013,-1.758,4.345,-8.281,2.087,0.919
-2.701,-5.199,1.376,-4.208,1.672,-10.221,-1.437,-2.792
-3.367,-7.219,-0.437,-4.077,0.189,-10.081,-3.377,-3.928
-1.629,-7.37,-0.602,-3.627,-0.077,-9.91,-3.289,-3.52
4.307,-3.757,3.216,-0.961,3.631,-7.033,0.91,2.847
13.279,2.522,9.587,2.506,10.115,-2.936,7.55,9.989
17.68,5.479,11.419,0.862,12.56,-4.152,10.564,7.054
14.231,2.218,7.12,-5.752,9.147,-10.634,7.94,-3.904
8.768,-2.956,3.282,-10.951,5.479,-15.561,3.369,-11.366
6.984,-4.668,4.648,-10.706,5.609,-14.957,1.018,-10.098
8.849,-1.795,9.623,-6.259,8.637,-10.649,2.052,-4.886
11.911,3.502,15.127,-0.255,13.441,-5.219,5.698,-0.535
13.341,7.595,19.006,5.587,18.631,0.493,10.267,4.314
10.795,7.585,19.394,9.455,20.058,5.068,12.368,9.707
5.589,4.751,16.899,10.44,16.11,6.818,10.385,10.835
1.662,2.528,14.103,9.284,10.42,5.789,6.997,6.158
0.974,1.67,11.708,6.792,5.866,3.354,4.89,0.754
2.662,1.066,8.891,3.703,2.2,1.065,3.812,-0.487
4.981,0.702,6.116,1.551,-0.595,-0.011,2.64,1.786
6.489,1.243,4.46,1.454,-1.836,0.158,1.418,3.645
7.013,2.429,3.611,2.094,-2.034,0.45,0.597,2.847
7.751,3.298,3.192,1.088,-1.973,-0.32,0.14,0.357
8.951,3.324,4.064,-1.401,-1.035,-1.792,0.25,-1.717
9.462,2.657,6.131,-2.735,1.139,-2.264,0.641,-2.23
8.857,1.426,7.231,-1.943,2.588,-1.39,-0.149,-1.662
6.916,-0.69,6.155,-1.209,1.476,-1.159,-2.305,-0.992
3.563,-3.313,5.074,-1.736,-0.241,-2.177,-3.756,0.157
1.226,-4.522,6.864,-1.512,0.959,-2.169,-2.629,2.276
2.212,-3.747,10.799,0.413,4.754,-0.695,0.503,4.03
4.678,-3.405,14.189,2.445,8.118,0.277,3.31,5.221
5.477,-4.597,16.027,3.278,9.465,0.226,4.245,5.953
3.556,-5.851,15.36,0.955,7.799,-1.875,3.197,2.051
-0.494,-6.921,11.189,-5.068,3.02,-7.033,0.716,-7.168
-5.057,-8.642,5.344,-9.63,-2.217,-11.143,-2.359,-13.187
-7.359,-9.209,1.762,-7.231,-4.43,-8.762,-3.827,-9.854
-4.996,-5.158,3.135,1.132,-2.015,-0.317,-0.482,-0.484
-0.2,2.088,7.157,8.992,2.266,7.796,5.976,7.375
1.969,7.101,9.174,11.39,3.949,10.098,9.067,9.871
1.945,9.339,9.585,10.472,3.664,8.634,7.782,10.123
3.255,11.015,9.877,9.11,3.251,6.998,6.292,9.157
3.932,10.128,7.167,5.589,0.346,3.794,5.085,3.631
1.076,5.982,1.937,1.467,-4.461,0.065,2.979,-2.329
-2.345,2.516,-0.824,1.524,-6.533,0.361,1.07,-2.253
-3.087,1.529,-0.698,4.351,-5.704,3.545,0.474,0.351
-3.199,0.798,-1.086,4.936,-5.105,4.669,1.332,0.403
-5.355,-1.38,-2.482,3.26,-5.046,3.408,2.446,-0.069
-7.206,-3.506,-2.34,3.426,-3.768,3.534,2.38,2.512
-5.099,-3.218,0.242,6.526,-1.077,6.224,1.817,7.522
-0.211,-0.698,3.192,9.128,1.306,8.258,1.786,10.747
3.387,1.91,4.835,7.919,2.388,6.285,1.823,8.594
3.768,2.781,4.969,2.569,2.763,0.46,2.198,3.026
2.078,1.997,3.482,-3.45,2.695,-5.02,3.628,0.765
0.12,1.18,0.718,-5.775,1.347,-6.322,4.155,2.913
-2.489,0.387,-2.72,-5.698,-1.991,-5.749,1.586,1.515
-7.27,-1.969,-6.488,-7.453,-6.53,-7.416,-2.745,-6.053
-11.812,-4.482,-8.516,-8.76,-9.283,-8.56,-5.594,-10.236
-11.276,-3.694,-6.598,-4.615,-7.932,-4.437,-5.046,-5.17
-6.438,-0.008,-2.831,2.157,-4.589,1.982,-1.62,2.109
-2.362,3.694,-0.522,5.321,-2.279,5.126,3.286,5.273
-1.588,5.37,-0.807,3.966,-1.975,4.355,6.437,5.733
-3.302,3.932,-4.344,0.295,-4.73,0.989,3.344,3.908
-3.604,2.386,-8.23,-2.789,-8.315,-2.871,-3.033,-0.676
0.427,5.226,-6.631,-2.082,-6.877,-3.503,-3.884,-3.631
5.03,10.835,-0.132,2.412,-0.36,0.41,1.611,-0.292
5.873,14.621,4.82,7.287,4.972,5.957,6.59,7.132
5.041,15.348,5.944,9.609,6.758,9.182,8.321,11.5
4.486,12.97,5.739,8.651,7.616,8.192,8.586,9.021
1.714,7.48,4.773,5.346,7.533,4.089,6.789,2.505
-2.79,2.284,1.984,2.079,4.725,0.291,2.775,-2.577
-3.958,1.586,-0.431,1.575,1.923,0.048,0.978,-2.631
-0.291,4.483,0.998,4.62,3.058,3.633,3.164,1.986
3.827,6.452,4.396,8.538,5.765,7.608,4.428,7.305
4.62,5.32,4.401,8.899,4.775,7.714,1.756,8.931
3.923,3.6,1.176,5.542,0.825,4.578,-1.03,6.474
5.616,4.639,-0.164,3.247,-0.898,2.902,0.319,3.367
9.135,7.155,0.931,3.508,0.228,3.401,4.193,2.112
11.138,8.091,0.787,3.409,0.567,3.283,6.375,2.859
10.837,8.732,-0.663,2.409,-0.48,2.875,6.078,4.835
9.346,10.781,-1.236,2.033,-1.207,3.803,4.379,6.63
7.241,12.059,-1.025,2.001,-1.498,5.149,1.619,7.326
4.233,10.63,-1.09,0.363,-1.963,4.611,-1.316,6.284
0.375,7.288,-1.696,-4.206,-2.752,0.928,-3.643,2.147
-2.171,4.327,-1.581,-9.476,-2.765,-3.72,-5.108,-3.569
-1.506,3.694,0.681,-11.178,-0.567,-5.201,-4.95,-5.343
0.573,4.646,3.649,-8.625,2.685,-2.751,-3.36,-1.132
1.366,5.107,5.157,-4.332,4.6,1.132,-1.683,4.663
1.269,5.026,5.971,0.378,5.058,5.044,-0.133,7.929
1.473,5.29,7.161,4.307,4.915,7.805,1.351,7.055
0.635,4.882,7.373,5.485,3.481,7.522,1.033,2.155
-1.589,3.021,6.359,5.685,0.757,6.184,-2.101,-1.69
-1.533,2.646,7.198,8.845,-0.258,8.067,-4.71,0.583
1.872,5.538,10.562,12.917,1.707,11.385,-3.338,5.07
3.862,7.196,11.943,12.445,3.018,10.746,-0.472,5.689
2.739,4.384,9.674,8.127,1.863,6.655,0.229,3.986
3.429,1.865,8.69,5.195,1.999,4.081,0.194,3.611
8.138,4.34,11.542,5.238,5.375,4.412,1.664,4.039
11.417,7.952,13.383,4.788,7.442,4.103,2.49,3.117
9.184,6.788,10.893,1.535,4.735,0.976,0.377,0.684
5.28,1.74,8.013,-2.167,0.833,-2.467,-2.384,-0.967
4,-2.922,8.211,-4.459,-0.303,-4.468,-3.305,-1.236
4.829,-4.456,10.268,-5.843,0.931,-5.655,-2.825,-1.53
6.546,-2.051,12.771,-5.414,3.215,-5.024,-1.451,-0.581
8.278,1.656,14.671,-2.837,5.056,-2.108,0.108,2.502
9.055,3.714,14.625,-0.399,5.102,0.73,0.893,4.628
9.375,5.225,12.888,0.159,3.82,1.559,1.212,3.952
9.123,7.174,9.859,-1.212,1.242,0.193,0.433,2.219
8.057,8.889,6.62,-2.256,-1.922,-1.018,-1.535,2.51
8.856,11.794,6.972,0.55,-1.715,1.699,-1.023,7.232
11.996,15.723,10.937,5.332,2.04,6.26,2.695,12.708
13.02,16.899,12.85,6.378,3.517,6.362,4.171,11.559
9.811,14.249,10.848,3.824,0.742,2.344,0.878,4.545
5.992,10.725,9.118,2.559,-1.841,0.038,-2.596,0.204
6.223,9.291,10.733,4.443,-0.755,1.532,-1.699,2.324
9.664,9.493,12.961,5.508,1.48,2.211,0.616,3.296
10.998,8.101,11.864,1.69,0.662,-2.281,-0.995,-4.117
9.739,5.517,10.161,-2.878,-1.025,-7.114,-3.938,-12.044
10.367,5.832,12.277,-1.981,1.153,-5.363,-2.88,-9.862
13.315,9.11,16.225,2.464,6.038,0.616,0.872,-1.42
14.41,10.966,18.225,5.386,9.428,5.017,3.41,4.546
11.139,9.118,17.678,5.774,9.546,7.01,3.799,6.97
4.779,5.056,14.835,4.972,6.794,7.968,2.618,7.709
-2.405,-0.037,9.393,3.052,2.025,7.049,-0.541,5.123
-8.362,-5.7,3.025,-0.177,-2.707,3.588,-5.151,-1.184
-10.116,-8.961,0.142,-1.861,-3.386,1.111,-6.898,-4.748
-6.887,-7.231,1.897,0.588,0.765,3.105,-3.084,-0.28
-2.847,-2.978,3.834,4.665,4.387,7.248,1.79,7.804
-1.128,0.443,4.046,7.723,4.361,10.247,3.261,13.439
0.07,3.123,4.846,10.093,3.397,11.999,2.695,15.518
1.302,4.835,4.91,9.919,2.206,11.064,0.782,12.966
0.969,4.944,2.629,6.396,-0.027,7.045,-2.688,7.368
1.036,5.634,2.277,4.15,-0.445,4.526,-3.537,5.123
3.549,7.521,4.966,4.44,1.218,4.769,-0.386,6.368
6.288,8.187,5.395,3.369,0.761,4.062,1.633,5.409
6.86,7.319,2.27,0.292,-2.316,1.756,0.13,1.616
5.13,6.107,-1.049,-2.918,-5.182,-0.757,-2.499,-3.145
3.376,5.354,-2.961,-4.999,-6.484,-2.776,-3.618,-7.546
5.163,6.841,-3.512,-4.19,-6.071,-2.471,-2.19,-7.956
9.384,10.456,-3.399,-0.93,-5.293,0.388,-0.656,-3.823
10.423,12.222,-4.116,1.167,-6.323,2.501,-2.238,-0.339
8.154,10.582,-5.484,1.038,-8.208,2.394,-5.21,-0.055
7.636,8.61,-5.587,1.002,-8.1,2.27,-6.151,-0.901
8.203,7.212,-4.293,1.507,-6.243,3.089,-5.992,-2.115
6.041,4.905,-2.162,2.11,-3.858,4.424,-5.588,-2.545
3.121,2.877,1.637,4.22,-0.068,7.052,-2.493,0.97
2.71,2.969,6.246,7.918,4.404,10.726,2.544,7.042
3.478,4.382,8.866,10.636,6.692,13.18,5.095,10.406
2.924,5.179,8.03,9.718,5.574,12.336,3.332,9.108
1.303,5.046,4.606,5.349,2.451,8.565,-0.754,5.271
1.244,5.876,2.038,1.749,0.714,5.475,-3.282,2.4
4.444,8.551,2.982,1.533,2.298,5.039,-1.971,1.797
8.202,10.216,4.048,0.802,3.916,3.626,0.462,0.733
8.254,8.581,1.397,-3.138,2.28,-0.838,0.404,-1.954
5.625,6.663,-1.234,-5.485,0.071,-3.496,-0.885,-3.102
4.455,7.29,0.079,-2.932,0.29,-1.145,-0.64,-1.681
4.431,7.802,2.125,0.514,1.307,2.403,0.631,-0.183
2.386,5.364,1.7,0.86,1.272,3.275,1.283,0.158
-1.1,1.629,0.64,-0.87,0.802,2.222,1.188,-0.176
-2.913,-0.683,0.875,-1.576,0.591,1.719,0.667,-0.892
-3.37,-1.941,0.598,-0.975,-0.342,1.703,-0.67,-2.758
-4.327,-3.157,-1.425,-0.881,-2.272,0.903,-2.151,-4.997
-4.886,-3.098,-2.423,-0.781,-2.845,0.535,-1.765,-4.454
-5.065,-2.488,-1.822,-0.435,-1.728,0.744,-0.572,-2.339
-6.438,-4.181,-2.626,-1.829,-1.562,-0.817,-1.406,-2.949
-7.551,-6.848,-3.944,-3.958,-1.985,-3.099,-2.583,-4.191
-6.872,-7.451,-2.956,-4.104,-1.033,-3.098,-1.553,-1.77
-6.395,-7.252,-1.045,-3.095,0.299,-1.446,-0.294,2.317
-7.587,-8.517,-0.833,-2.88,0.421,-0.316,-0.865,4.434
-9.425,-10.663,-2.828,-3.954,-0.889,-0.903,-2.43,3.84
-11.371,-12.909,-6.533,-7.334,-3.752,-4.719,-4.703,-0.482
-12.625,-14.428,-9.414,-11.589,-6.444,-9.939,-7.392,-7.452
-9.387,-11.86,-6.266,-10.221,-3.83,-9.37,-6.114,-10.08
-1.048,-5.162,2.929,-2.07,5.052,-1.812,1.545,-5.147
5.616,-0.496,10.754,5.398,13.361,5.13,9.716,2.622
6.094,-0.67,13.813,9.383,16.746,9.169,12.648,10.522
2.244,-3.553,13.609,10.933,15.866,11.69,10.325,15.181
-2.773,-7.666,9.694,6.964,11.236,8.69,5.472,10.307
-5.346,-10.148,4.172,-0.872,5.967,0.994,2.533,0.291
-4.86,-8.833,1.134,-5.557,3.567,-3.639,3.552,-4.521
-5.509,-6.856,-0.733,-6.869,2.147,-4.073,5.327,-4.051
-7.994,-6.384,-3.381,-7.718,-0.059,-3.675,5.232,-2.24
-8.989,-5.698,-4.974,-7.374,-1.448,-2.875,3.549,-0.053
-8.733,-4.662,-4.632,-6.097,-1.345,-2.409,1.652,0.348
-8.506,-3.88,-2.632,-4.709,0.624,-2.529,2.61,-0.826
-6.635,-2.364,0.839,-1.725,4.635,-0.932,7.032,0.461
-3.134,-0.661,3.716,2.846,7.966,2.82,10.286,4.733
-2.431,-2.177,3.206,5.331,7.225,5.296,8.716,6.737
-7.322,-8.443,-0.706,3.141,2.747,3.926,4.014,2.643
-12.593,-13.817,-3.764,0.005,-0.568,1.535,1.62,-2.306
-11.32,-11.597,-2.068,1.039,1.054,1.676,4.853,-0.423
-5.741,-4.976,1.974,4.617,4.674,3.138,9.565,6.281
-2.947,-1.763,3.428,6.688,5.44,4.718,9.654,10.328
-4.184,-2.833,1.285,6.949,2.718,6.862,5.126,9.132
-5.838,-4.484,-2.456,5.632,-1.512,6.776,0.289,4.478
-5.263,-4.428,-4.769,3.588,-4.675,1.98,-1.855,-1.564
-2.674,-1.925,-3.468,3.923,-5.462,-5.114,-2.153,-6.411
-0.506,1.433,-1,5.188,-6.184,-11.413,-2.732,-6.978
-0.151,2.216,-1.561,2.49,-8.136,-13.799,-3.601,-3.62
0.461,0.184,-2.861,-1.491,-6.984,-8.106,-3.611,0.421
3.154,-0.966,0.597,-0.541,-0.11,3.487,-2.179,5.008
5.14,-0.322,6.336,2.793,6.986,11.589,-0.179,9.845
2.54,-1.883,6.724,0.975,8.12,10.416,0.05,9.127
-3.052,-6.896,1.646,-6.357,4.488,2.838,-2.548,0.937
-6.156,-10.297,-1.696,-12.151,1.536,-4.021,-5.354,-6.936
-6.043,-10.235,-1.699,-13.68,0.56,-6.458,-6.05,-9.999
-6.838,-11.459,-3.623,-14.593,-1.094,-5.882,-6.145,-11.227
-8.404,-13.892,-7.002,-14.286,-2.279,-2.997,-6.358,-10.121
-7.864,-12.84,-6.854,-9.522,-1.003,1.252,-6.41,-5.232
-6.825,-9.703,-4.75,-3.489,-0.706,3.328,-8.497,-1.417
-7.623,-8.664,-5.665,-1.724,-3.723,2.544,-12.395,-2.788
-8.676,-9.241,-9.136,-4.246,-6.307,1.849,-13.6,-6.123
-7.577,-8.855,-10.488,-6.111,-4.94,2.946,-10.558,-5.851
-5.157,-7.641,-8.875,-4.81,-2.267,3.965,-7.914,-3.185
-4.01,-7.482,-8.618,-3.721,-2.964,2.177,-10.015,-4.01
-3.663,-7.86,-10.987,-4.284,-5.738,0.117,-14.352,-6.56
-1.786,-6.675,-12.214,-2.497,-5.783,3.283,-15.808,-3.895
1.558,-3.667,-10.505,2.587,-2.943,10.159,-13.891,1.645
4.766,0.058,-8.214,6.402,-0.858,13.497,-11.274,1.937
6.455,3.202,-7.551,6.676,-0.847,11.549,-9.34,-1.921
5.425,4.199,-7.935,5.767,-1.07,9.378,-7.713,-2.457
2.103,2.508,-7.564,5.371,-0.049,9.872,-5.794,0.944
-0.558,-0.2,-5.216,5.618,2.329,11.441,-3.389,4.128
-0.664,-2.13,-1.206,6.855,5.757,12.446,-0.756,6.53
0.024,-3.215,1.844,7.668,8.484,12.028,0.962,8.49
-1.016,-4.381,0.949,5.46,7.453,9.601,0.152,7.736
-5.274,-7.612,-4.91,-0.641,1.254,4.803,-4.052,1.261
-11.117,-12.365,-12.602,-7.868,-6.156,-1.179,-8.824,-9.311
-12.448,-12.994,-15.361,-9.959,-7.425,-3.567,-8.035,-14.234
-7.982,-8.383,-12.211,-5.358,-2.51,-0.078,-1.618,-7.891
-4.048,-4.601,-9.725,-0.589,1.038,4.588,3.335,1.398
-2.298,-3.013,-9.776,0.487,1.163,6.541,4.412,5.061
0.291,-0.653,-9.087,0.227,1.339,6.692,4.793,4.655
1.416,0.738,-8.27,-0.204,1.493,5.961,5.273,4.376
-1.992,-1.36,-9.444,-1.44,-0.04,4.41,4.75,4.671
-5.844,-4.22,-11.102,-2.183,-1.805,3.334,3.895,3.535
-4.854,-4.055,-10.841,-1.363,-1.577,3.376,4.288,0.201
-0.463,-1.125,-9.289,-0.455,0.088,3.283,5.277,-2.849
2.519,1.449,-9.402,-0.468,0.562,2.741,4.413,-3.212
3.011,1.938,-11.949,-0.69,-1.142,2.628,2.159,-2.607
3.004,1.399,-14.176,-0.868,-3.409,2.789,1.09,-3.552
3.045,1.561,-14.131,-0.658,-4.674,3.411,1.052,-4.334
2.838,3.469,-12.688,1.238,-4.612,5.822,1.167,-2.083
2.943,6.393,-11.48,3.932,-3.942,8.827,1.948,1.091
3.255,7.68,-10.886,4.4,-3.539,9.2,2.771,1.093
2.919,6.333,-9.817,2.689,-2.891,7.306,2.869,-0.237
2.585,5.306,-7.258,2.853,-0.451,7.337,4.002,3.204
3.926,7.231,-3.675,7.03,3.861,10.922,7.68,11.563
4.815,8.661,-2.13,9.997,5.999,12.509,10.459,15.118
1.706,5.434,-4.481,6.112,2.916,7.202,9.129,8.488
-2.385,1.009,-7.052,-0.323,-0.915,0.34,7.122,1.109
-3.268,-1.005,-7.903,-3.231,-2.079,-2.105,6.463,0.707
-2.562,-3.112,-9.932,-4.306,-3.622,-2.61,4.304,2.814
-2.113,-6.121,-12.648,-6.5,-6.047,-4.344,1.482,2.275
-1.455,-7.295,-13.213,-9.813,-6.556,-7.283,1.667,-1.834
0.17,-5.407,-11.56,-12.291,-4.469,-9.84,5.261,-6.783
2.985,-1.801,-8.903,-10.798,-1.151,-9.021,9.426,-7.055
5.055,0.935,-7.253,-5.827,0.605,-4.659,10.582,-2.905
5.01,2.371,-7.933,-1.373,-0.591,-0.051,8.301,0.19
4.246,3.901,-9.961,0.548,-3.221,2.431,4.826,1.006
3.676,4.927,-11.916,0.188,-5.795,1.948,1.185,0.679
2.301,4.056,-12.854,-1.788,-7.422,-0.959,-1.473,-1.727
-1.626,0.607,-13.219,-4.906,-8.271,-4.445,-1.79,-5.543
-7.371,-4.881,-14.223,-8.376,-9.394,-6.833,-0.821,-7.511
-10.723,-9.162,-15.578,-10.605,-10.247,-7.555,-0.393,-6.943
-10.372,-10.113,-17.326,-11.835,-10.504,-8.236,-1.256,-7.157
-9.923,-9.733,-20.325,-14.324,-11.748,-11.061,-3.279,-10.109
-10.943,-9.279,-22.8,-17.592,-13.701,-14.509,-5.106,-12.845
-11.13,-7.617,-21.751,-17.814,-13.428,-14.141,-5.349,-10.637
-10.001,-5.736,-18,-13.392,-10.456,-8.679,-4.84,-3.299
-10.765,-6.938,-16.258,-8.776,-8.979,-3.242,-5.819,1.837
-14.709,-11.91,-19.249,-10.2,-12.085,-4.251,-8.392,-2.649
-17.457,-16.93,-23.643,-17.122,-16.498,-10.917,-9.875,-12.951
-15.981,-18.62,-25.007,-22.783,-17.692,-16.164,-9.346,-18.339
-13.703,-17.123,-23.546,-23.372,-16.172,-15.963,-9.107,-15.729
-12.053,-13.087,-20.837,-20.267,-13.667,-12.08,-9.116,-9.373
-8.045,-7.552,-17.178,-16.319,-10.067,-8.113,-7.035,-2.716
-2.692,-3.263,-13.897,-14.05,-6.655,-6.45,-4.204,1.087
0.337,-0.998,-12.497,-13.924,-5.595,-6.729,-3.276,0.246
-0.249,-0.323,-13.744,-15.316,-7.638,-8.052,-4.039,-3.611
-4.741,-2.879,-17.578,-17.892,-11.78,-10.382,-5.478,-8.596
-11.74,-8.609,-21.534,-19.828,-15.244,-11.985,-6.784,-12.381
-17.674,-13.957,-23.666,-19.842,-16.735,-11.494,-7.216,-12.525
-19.118,-15.161,-24.042,-18.545,-16.684,-9.836,-5.873,-9.145
-14.45,-10.639,-21.204,-14.99,-13.469,-6.563,-1.416,-3.006
-6.821,-3.868,-14.991,-9.063,-7.108,-1.53,4.6,3.771
-2.595,-0.957,-9.604,-4.739,-2.303,1.594,7.455,5.862
-2.921,-1.807,-7.254,-3.712,-1.279,1.286,5.492,2.039
-3.153,-1.306,-5.507,-1.954,-1.053,1.827,1.779,-1.221
-1.293,0.909,-3.269,2.53,-0.008,5.441,-0.654,-0.162
0.245,1.002,-2.719,5.422,-0.016,7.784,-1.471,0.6
0.171,-1.042,-4.484,3.356,-1.782,5.544,-1.641,-2.038
-0.18,-1.51,-5.767,-0.286,-3.03,2.329,-1.236,-4.07
-0.742,-0.052,-5.561,-1.305,-2.667,2.32,-0.331,-3.037
-3.308,-0.332,-6.874,-1.164,-3.184,3.716,-1.058,-2.306
-6.608,-2.52,-9.771,-1.53,-5.529,4.299,-3.918,-3.089
-6.943,-2.614,-9.679,0.205,-6.184,6.19,-4.803,-1.801
-5.581,-1.047,-6.753,3.454,-4.098,9.073,-1.966,1.124
-6.246,-1.598,-5.658,3.802,-2.602,9.294,0.918,0.669
-7.389,-3.099,-6.192,1.571,-2.434,7.373,1.985,-3.097
-6.793,-2.767,-6.099,-0.257,-2.349,5.833,2.097,-5.654
-5.506,-1.075,-6.084,-0.818,-2.458,5.214,1.358,-5.222
-4.088,0.799,-6.351,-0.037,-2.677,5.823,-0.076,-3.46
-3.417,1.406,-6.177,0.656,-3.189,6.491,-2.164,-2.91
-2.767,1.525,-3.857,1.277,-2.518,7.165,-3.015,-1.998
2.619,5.781,3.116,5.695,3.197,11.843,1.327,4.691
11.44,13.164,11.2,12.218,11.316,19.125,8.09,14.275
14.084,15.028,12.572,12.253,13.369,20.011,9.612,15.41
7.769,8.685,7.151,4.364,8.622,12.205,6.282,5.915
0.979,1.608,2.142,-3.318,4.102,3.938,4.24,-3.941
0.544,0.536,0.991,-5.603,2.936,1.244,5.156,-6.765
3.497,3.483,0.644,-5.343,1.953,1.243,6.074,-5.688
3.974,4.566,-1.564,-5.633,-1.076,0.406,4.603,-5.751
2.36,3.379,-3.906,-4.542,-3.866,1.189,1.9,-5.487
2.739,3.743,-4.207,-0.745,-4.192,5.294,0.599,-2.503
5.247,5.717,-3.432,2.25,-3.158,8.19,0.696,-1.189
6.659,6.161,-3.147,2.01,-2.417,6.621,0.076,-5.067
6.566,5.266,-2.232,2.021,-1.199,5.113,-0.441,-7.556
7.062,5.632,0.12,5.092,1.521,7.935,2.316,-3.03
7.619,6.61,1.176,7.749,3.57,11.29,6.785,2.131
5.52,5.227,-1.434,6.424,1.926,10.335,7.173,0.765
1.233,1.863,-5.808,3.134,-2.308,7.259,2.372,-3.409
0.185,1.49,-7.304,2.352,-3.896,7.576,-1.415,-2.726
5.994,7.089,-3.413,5.164,0.342,11.826,0.603,2.547
13.567,13.776,2.446,7.679,6.244,14.75,4.362,5.974
14.784,14.799,4.621,6.074,7.244,12.934,3.387,4.919
10.071,11.613,2.7,1.653,3.694,8.839,-1.064,1.434
7.505,10.744,1.102,-1.311,1.376,6.254,-3.316,-2.271
10.447,12.977,2.097,-0.643,2.445,6.504,-2.371,-3.862
13.379,13.537,3.439,2.277,3.796,8.663,-1.492,-2.117
11.556,10.805,2.705,4.795,2.797,10.67,-2.976,0.291
8.265,8.473,0.814,6.231,0.402,11.867,-5.864,0.869
9.539,10.295,0.655,8.195,-0.393,13.884,-6.105,2.41
15.068,15.43,2.904,10.853,1.571,16.921,-2.067,6.787
17.899,18.392,3.925,10.775,2.931,17.436,0.802,8.095
15.019,16.079,1.668,6.817,1.362,14.049,-0.781,3.42
11.89,12.423,0.101,4.419,0.616,11.967,-1.399,0.885
11.442,10.545,0.901,6.408,2.586,14.194,1.209,4.422
10.33,8.809,0.085,7.556,3.379,15.647,1.834,6.424
8.885,7.817,-2.765,4.494,1.883,12.621,-0.312,3.096
11.043,10.245,-3.319,1.086,1.586,9.266,-0.315,0.619
15.021,14.373,-1.16,0.659,2.926,9.698,1.523,2.398
15.364,15.954,-0.675,0.878,2.301,11.006,0.228,2.969
13.491,15.405,-2.359,0.043,-0.05,10.11,-2.361,0.132
15.736,16.65,-1.813,0.998,0.431,10.087,-0.14,0.346
20.908,19.35,1.268,4.42,3.654,13.248,4.744,5.452
21.596,19.748,2.913,6.641,5.058,16.197,6.115,8.83
17.843,17.875,2.824,6.347,3.972,16.093,4.952,7.673
16.535,16.846,3.575,5.983,3.222,14.856,5.211,6.114
17.978,16.578,4.178,5.916,2.822,13.936,5.765,5.758
16.854,14.54,2.008,3.715,0.936,11.323,3.993,3.285
13.482,11.597,-1.336,0.366,-1.331,7.575,1.526,-1.093
11.523,10.305,-3.032,-0.387,-2.364,6.649,0.545,-3.076
10.352,9.739,-3.813,1.293,-3.495,8.83,-0.433,-2.24
8.899,8.786,-3.813,3.721,-4.476,11.924,-1.391,0.132
9.793,9.724,-0.528,7.98,-1.974,16.153,1.26,5.229
13.424,12.963,4.744,12.608,3.09,20.136,6.365,9.732
15.174,14.236,6.519,12.171,4.93,19.352,7.605,6.79
11.956,10.415,3.085,5.618,1.46,13.359,3.426,-1.481
5.318,3.246,-2.28,-2.032,-4.202,6.889,-2.51,-6.914
-0.318,-2.06,-5.393,-6.045,-7.94,3.814,-6.376,-7.101
0.296,-0.827,-2.496,-4.532,-6.046,5.328,-4.772,-3.399
6.873,4.854,5.69,1.066,1.048,10.031,1.273,2.91
12.143,8.292,12.733,6.357,7.573,14.165,6.095,8.639
11.864,7.675,14.637,7.604,9.653,14.375,8.041,10.067
9.013,6.162,13.461,5.122,8.893,10.828,9.626,7.33
6.537,4.925,11.381,2.607,7.239,7.149,10.186,4.692
4.239,2.899,8.435,1.852,4.302,5.144,7.48,3.245
2.783,1.435,6.229,1.199,1.12,3.147,3.404,-0.766
3.5,2.878,6.556,0.399,0.172,1.336,1.566,-6.894
5.602,6.239,8.235,1.818,1.692,2.436,2.942,-8.414
7.299,8.57,9.393,5.607,3.768,6.391,5.701,-2.511
7.048,7.863,8.425,7.383,3.593,8.681,6.103,3.727
4.187,4.405,4.601,4.232,0.117,6.201,3.019,3.707
-0.275,0.504,0.454,-0.492,-3.783,1.846,0.161,0.704
-4.621,-2.618,-1.363,-3.064,-5.572,-0.508,-0.484,-0.966
-7.509,-5.09,-1.227,-4.072,-5.55,-1.102,-0.16,-2.419
-8.774,-5.999,0.062,-4.12,-3.943,-1.239,1.443,-3.222
-9.734,-5.083,1.685,-2.192,-1.648,-0.489,3.766,-0.98
-11.493,-4.699,1.657,0.417,-1.426,0.7,3.546,1.854
-13.398,-6.581,-0.732,0.468,-4.153,0.011,0.466,0.959
-13.063,-7.957,-2.902,-1.131,-6.68,-2.022,-1.261,-1.549
-9.66,-5.656,-2.058,0.317,-6.021,-1.328,0.848,-0.313
-7.203,-3.035,0.231,4.661,-3.948,2.305,3.751,3.839
-9.115,-4.867,0.467,6.985,-3.631,4.352,4.007,6.019
-13.206,-9.458,-1.859,5.422,-5.107,2.599,2.406,4.69
-17.054,-13.394,-5.698,1.217,-7.764,-1.574,0.56,1.504
-20.936,-16.318,-9.879,-3.713,-11.205,-5.686,-1.55,-0.779
-22.117,-16.171,-10.472,-4.783,-11.541,-5.775,-1.747,1.747
-15.585,-9.489,-3.71,1.504,-4.729,0.483,3.448,10.829
-4.977,-0.419,5.234,9.119,3.993,7.414,9.568,20.099
-1.154,1.759,5.835,8.084,4.039,6.22,6.696,18.637
-6.037,-3.629,-2.55,-1.281,-4.938,-2.865,-4.463,5.176
-11.106,-8.838,-10.366,-10.16,-12.954,-11.617,-13.084,-8.656
-11.225,-9.881,-11.882,-13.129,-14.313,-14.339,-14.627,-12.404
-8.363,-8.556,-8.751,-10.444,-11.439,-11.474,-13.271,-7.631
-5.428,-6.117,-3.64,-5.184,-7.634,-6.992,-12.123,-3.257
-2.875,-2.171,2.488,-0.983,-3.493,-4.04,-9.975,-2.776
-0.249,2.139,8.698,1.396,0.804,-2.148,-5.868,-2.098
0.085,3.599,11.8,3.028,2.229,-0.754,-3.607,-0.84
-3.985,1.253,9.652,4.183,-1.51,-0.874,-6.752,-2.484
-7.616,-0.768,6.896,6.275,-5.501,-0.822,-10.511,-4.02
-4.887,1.056,9.44,10.616,-3.483,1.791,-8.65,-0.793
0.832,3.771,14.414,13.923,1.345,4.007,-4.492,2.853
1.488,2.351,14.484,11.604,1.17,1.286,-5.23,0.089
-3.535,-2.806,10.032,5.168,-3.527,-4.49,-10.252,-6.439
-7.274,-6.963,8.049,0.706,-5.582,-7.312,-12.541,-7.678
-6.17,-7.778,10.616,0.56,-2.978,-5.779,-9.521,-0.776
-3.969,-6.886,13.484,1.72,0.118,-3.696,-5.68,7.591
-4.027,-6.061,14.67,1.606,1.575,-3.457,-4.393,10.106
-5.781,-6.245,15.434,0.224,2.205,-4.617,-4.937,6.099
-8.051,-8.169,16.038,-1.017,2.309,-5.876,-6.117,1.783
-9.229,-10.262,17.44,0.712,3.047,-4.451,-6.493,4.985
-8.47,-10.409,20.388,5.097,5.093,-0.157,-5.389,13.602
-7.591,-9.657,21.972,5.893,5.827,0.988,-4.646,14.431
-7.257,-9.513,20.809,0.433,4.475,-4.308,-5.293,2.643
-6.947,-10.001,19.883,-5.262,3.952,-10.619,-6.478,-9.477
-7.833,-10.931,20.62,-6.296,4.863,-12.501,-7.867,-11.212
-8.866,-10.844,21.825,-4.578,5.674,-10.791,-9.186,-6.309
-6.954,-8.494,23.388,-2.796,6.76,-7.984,-9.596,-1.644
-3.112,-5.191,25.886,-0.366,8.944,-4.291,-8.299,2.939
-0.972,-2.511,28.036,2.744,10.825,-0.576,-5.247,7.793
-1.591,-1.243,27.204,3.353,9.867,-0.205,-2.549,8.301
-4.002,-2.601,22.82,0.256,5.618,-3.668,-3.465,3.171
-7.421,-6.746,17.599,-2.537,0.69,-6.194,-7.811,-1.39
-10.162,-10.711,14.627,-1.911,-1.915,-4.96,-10.48,-1.217
-10.06,-11.459,13.833,-0.149,-2.163,-3.226,-8.671,-0.119
-7.991,-10.728,12.65,-0.758,-2.68,-4.727,-6.96,-2.771
-5.638,-10.532,11.56,-2.381,-3.273,-7.436,-8.127,-6.389
-1.524,-7.626,14.208,-0.355,-0.427,-6.145,-7.3,-4.195
4.636,-0.9,19.985,5.013,4.985,-0.894,-2.608,3.333
9.636,4.578,24.215,8.159,8.222,2.872,1.326,8.431
11.794,5.909,25.128,6.912,8.681,2.555,2.769,7.522
12.212,5.193,24.499,4.951,8.93,1.228,3.688,5.679
12.119,4.468,23.968,5.534,9.535,2.037,4.78,8.421
11.184,3.368,23.021,6.194,9.217,2.662,5.549,11.987
9.167,2.205,21.464,4.44,8.195,0.858,5.921,10.875
9.312,4.296,22.191,5.138,9.348,1.898,7.766,10.35
12.541,9.003,24.18,9.165,11.807,6.462,11.271,11.898
12.362,9.159,20.141,6.672,9.235,3.785,10.863,4.583
7.496,4.681,11.798,-1.833,3.135,-5.619,6.118,-8.111
6.756,4.6,10.793,-1.936,3.785,-6.084,6.56,-8.171
10.872,8.958,16.868,6.822,10.571,3.445,13.052,1.836
9.931,8.974,18.864,10.847,12.475,8.406,14.9,4.62
3.71,5.438,16.571,8.736,9.164,6.21,10.817,0.391
2.212,5.909,17.863,9.173,9.487,5.612,9.724,0.281
6.661,9.205,21.825,12.236,13.918,7.768,13.249,4.152
8.731,8.921,22.317,12.225,15.823,7.531,15.491,5.021
6.479,5.814,19.984,9.943,14.303,5.234,15.277,3.221
6.092,5.335,19.402,10.732,13.471,5.882,16.031,4.778
9.587,7.696,20.138,14.809,13.596,9.91,17.44,10.433
13.271,9.388,18.959,17.2,12.342,12.047,16.252,13.553
15.003,9.578,15.627,14.708,9.602,8.508,11.801,8.579
15.054,8.968,11.711,8.555,6.23,1.022,6.399,-1.329
14.548,8.433,9.895,3.691,4.558,-4.359,4.045,-6.204
15.016,9.543,13.32,5.091,8.02,-2.449,7.322,0.198
16.124,11.595,20.198,11.624,14.821,5.021,12.788,14.422
15.805,11.719,24.57,16.366,18.959,10.777,15.104,26.721
12.744,8.392,22.616,12.091,17.417,7.705,14.007,25.064
6.168,1.521,13.918,-2.318,10.225,-5.677,10.341,5.284
-2.769,-6.453,2.805,-16.875,0.449,-20.065,3.725,-16.929
-8.701,-10.037,-2.516,-19.894,-4.917,-23.46,-1.328,-21.8
-7.651,-7.125,0.944,-12.701,-2.126,-16.46,1.231,-11.565
-2.917,-2.116,7.781,-4.5,4.689,-8.48,9.353,-1.53
-0.028,0.578,11.789,0.717,9.32,-4.005,15.197,2.696
-0.048,0.795,10.912,3.018,9.093,-2.572,14.363,2.865
-1.87,-0.779,5.972,0.944,4.623,-4.912,8.706,-1.656
-5.412,-3.888,0.031,-4.628,-0.942,-10.156,3.309,-8.615
-8.638,-5.856,-1.934,-6.958,-2.759,-12.165,2.16,-9.508
-7.765,-4.173,1.825,-2.23,0.664,-7.492,4.715,-1.672
-3.246,-0.977,7.066,3.687,5.593,-1.766,7.846,5.847
-0.013,0.015,9.237,4.171,8.29,-1.289,10.004,5.6
-0.394,-1.71,7.75,0.48,7.595,-5.097,9.954,0.939
-0.566,-3.344,5.405,-1.339,5.143,-7.644,6.973,-0.71
3.18,-1.987,5.665,2.298,4.811,-5.118,4.439,3.447
7.285,0.968,7.215,7.273,6.594,-0.725,5.291,8.4
6.367,1.143,5.097,6.247,5.686,-1.541,6.453,6.399
2.723,-1.336,-0.508,-0.152,1.317,-7.863,4.621,-2.19
2.35,-1.435,-3.945,-3.951,-1.4,-12.05,2.389,-7.205
5.374,2.216,-2.335,-1.578,0.59,-9.491,3.745,-1.739
7.371,5.451,1.455,2.167,4.305,-4.589,7.308,7.66
6.793,5.831,3.644,2.392,5.609,-3.256,8.582,10.494
5.621,4.74,4.088,0.456,5.16,-4.786,7.447,6.885
4.865,3.268,4.585,-0.389,6.282,-5.507,7.863,3.938
3.874,1.524,5.129,-0.262,8.609,-5.2,9.848,3.192
2.208,-0.33,4.364,-1.271,8.679,-6.126,9.134,0.162
-0.706,-2.578,1.796,-4.393,5.572,-9.191,5.147,-6.803
-5.072,-4.944,-1.521,-7.76,1.791,-12.176,1.236,-13.275
-8.407,-5.541,-3.45,-7.662,-0.193,-11.371,-0.697,-14.03
-7.353,-3.007,-2.86,-3.367,-0.328,-6.37,-0.581,-9.487
-3.434,0.108,-2.424,0.28,-1.576,-2.337,-0.264,-6.653
-3.728,-1.896,-7.149,-1.995,-7.519,-4.611,-3.733,-11.384
-11.097,-9.301,-15.737,-7.334,-15.602,-10.135,-10.273,-18.394
-15.834,-11.901,-17.038,-5.04,-15.345,-8.22,-10.071,-14.8
-9.389,-3.431,-6.508,7.415,-3.161,3.697,1.675,0.833
-0.919,5.867,2.475,16.769,7.607,12.875,13.008,13.12
-1.32,6.2,-0.167,14.884,6.59,11.265,13.437,12.847
-5.726,2.612,-6.579,10.146,0.997,6.717,9.056,8.29
-7.174,1.148,-8.667,8.602,-1.058,5.339,7.425,7.147
-7.464,0.05,-8.449,6.624,-0.988,4.122,7.163,8.07
-8.675,-1.875,-9.014,3.23,-1.119,2.053,5.911,9.244
-8.568,-2.161,-9.831,1.772,-0.891,1.632,4.696,10.215
-5.775,0.078,-9.861,2.415,-0.304,2.375,5.302,9.551
-4.031,1.066,-11.175,0.914,-2.033,0.369,6.168,5.492
-7.517,-2.83,-16.047,-4.382,-7.815,-5.306,3.327,-1.55
-12.75,-7.982,-20.251,-7.356,-12.745,-8.443,-1.173,-5.748
-12.955,-7.96,-17.871,-2.174,-10.561,-3.313,-0.705,-0.739
-9.632,-4.212,-11.908,6.848,-4.35,6.062,3.517,9.43
-9.505,-3.342,-10.34,10.505,-2.626,10.189,3.76,11.72
-12.195,-5.847,-13.829,7.167,-6.269,6.642,-0.857,1.738
-12.098,-6.992,-15.974,3.631,-8.423,2.213,-3.776,-8.538
-9.312,-5.908,-14.024,3.703,-5.942,1.309,-2.625,-9.261
-8.398,-5.582,-12.052,3.786,-3.1,1.111,-2.478,-5.929
-10.684,-7.544,-13.963,0.541,-4.148,-0.983,-7.167,-6.349
-13.999,-10.671,-17.677,-4.205,-7.095,-3.712,-13.035,-8.652
-14.91,-11.857,-17.365,-6.284,-6.502,-4.463,-14.007,-7.197
-10.329,-8.309,-10.465,-3.563,-0.183,-1.643,-9.207,-1.12
-1.696,-1.727,-1.036,2.124,8.548,3.453,-3.082,5.801
4.26,2.411,3.544,5.91,13.469,6.552,-1.074,8.519
3.605,1.879,0.097,4.09,11.44,4.26,-4.006,4.681
0.758,0.2,-5.598,-0.618,7.103,-0.907,-6.322,-1.117
1.266,0.61,-5.936,-1.651,7.012,-2.724,-4.076,-2.372
3.234,1.687,-2.758,1.185,9.402,-0.67,-1.474,-0.929
1.96,0.949,-2.805,2.508,8.141,0.436,-3.219,-1.738
-1.119,-0.3,-4.802,2.674,4.451,0.864,-6.153,-1.575
-2.21,-0.038,-4.301,5.025,2.682,3.621,-7.058,2.608
-2.188,0.105,-4.494,6.446,0.704,5.647,-8.786,4.198
-2.652,-1.269,-9.023,3.471,-3.841,3.29,-11.682,-1.395
-2.234,-1.926,-13.668,-0.125,-7.081,-0.546,-11.823,-7.81
-0.195,-0.174,-13.993,-0.196,-6.059,-1.889,-8.876,-8.765
0.682,1.02,-13.347,-0.044,-4.667,-2.785,-6.767,-8.331
-2.774,-2.018,-16.247,-4.289,-7.009,-7.097,-7.791,-11.683
-7.799,-6.963,-19.05,-9.286,-9.702,-12.05,-9.158,-13.678
-8.406,-8.609,-16.211,-8.748,-7.792,-11.939,-7.672,-8.226
-4.786,-6.519,-10.186,-4.182,-3.163,-7.556,-5.114,0.07
-2.42,-4.183,-7.015,-1.763,-0.678,-4.696,-4.51,3.128
-3.884,-3.647,-8.384,-4.028,-1.882,-6.457,-5.905,-0.891
-5.999,-3.502,-11.13,-7.717,-4.359,-9.862,-7.328,-7.049
-4.328,-1.553,-10.793,-7.353,-3.924,-9.095,-6.355,-7.433
-0.214,0.922,-7.208,-2.355,-0.208,-3.617,-3.309,-0.366
0.639,0.734,-5.666,1.094,1.225,-0.467,-2.226,4.965
-1.921,-1.243,-8.665,-1.255,-2.374,-4.195,-4.286,1.093
-1.895,-0.778,-10.916,-5.022,-5.39,-9.134,-4.964,-5.324
2.22,2.906,-7.872,-3.935,-3.289,-7.785,-1.925,-3.733
4.468,5.334,-3.788,0.009,-0.268,-2.61,0.905,2.881
1.379,3.49,-4.419,0.35,-1.043,-1.086,0.741,4.113
-2.605,0.848,-7.522,-2.329,-3.211,-2.796,-0.147,0.198
-3.664,1.095,-8.421,-2.726,-3.8,-2.327,-0.486,-1.892
-4.517,1.357,-8.392,-1.686,-4.796,-0.973,-1.92,-3.061
-7.588,-2.065,-10.198,-3.662,-7.429,-3.635,-4.123,-7.348
-9.214,-6.17,-11.248,-6.645,-8.044,-7.815,-4.41,-10.428
-5.438,-5.911,-7.736,-4.835,-3.672,-6.66,-1.897,-5.584
0.029,-3.004,-2.459,0.087,1.817,-1.587,0.518,2.666
0.708,-3.115,-1.976,-0.639,2.043,-2.022,-0.567,1.981
-2.042,-5.935,-6.407,-8.507,-2.026,-9.892,-3.264,-7.854
-1.883,-5.925,-9.089,-13.355,-3.345,-14.9,-2.377,-12.613
1.417,-2.443,-7.364,-9.76,-0.488,-11.457,1.579,-7.417
1.875,-1.086,-5.902,-5.482,0.598,-7.217,2.774,-3.141
-2.867,-4.638,-8.118,-6.812,-2.824,-8.212,-0.249,-5
-7.995,-9.187,-11.465,-9.458,-6.354,-10.085,-3.134,-6.453
-8.377,-9.994,-12.239,-8.309,-5.864,-8.103,-3.199,-4.404
-5.38,-7.831,-11.056,-5.24,-3.734,-4.204,-2.97,-2.79
-4.286,-6.936,-11.543,-4.439,-4.681,-2.448,-4.826,-3.438
-6.193,-7.856,-14.084,-6.189,-7.487,-3.842,-5.623,-4.384
-8.18,-8.275,-15.532,-8.24,-7.852,-6.61,-2.847,-5.026
-9.68,-8.735,-14.641,-9.152,-5.949,-8.266,-0.122,-5.472
-11.406,-10.342,-12.315,-8.119,-3.746,-7.163,0.397,-3.216
-11.967,-11.321,-9.504,-5.907,-1.581,-4.593,0.823,1.852
-9.819,-9.782,-6.9,-4.836,0.418,-3.365,1.763,4.303
-6.04,-6.628,-4.429,-5.385,2.35,-3.906,2.513,0.888
-4.682,-5.515,-3.443,-7.058,2.596,-5.787,2.276,-5.638
-7.026,-8.027,-5.926,-9.793,-0.745,-8.702,0.536,-10.366
-7.749,-9.794,-8.916,-11.046,-3.722,-9.484,-0.062,-9.196
-4.036,-7.438,-8.411,-8.668,-2.221,-6.021,2.083,-2.773
-1.021,-4.509,-7.143,-6.123,-0.449,-2.579,2.344,1.62
-2.209,-4.5,-9.003,-7.397,-2.776,-3.699,-1.852,-1.695
-4.046,-5.598,-11.088,-9.942,-5.272,-6.634,-4.309,-7.31
-3.355,-5.741,-9.143,-9.114,-3.523,-6.278,-0.755,-6.551
-2.192,-6.033,-5.659,-6.444,-0.886,-4.095,2.421,-2.567
-2.847,-7.42,-5.597,-6.519,-2.437,-4.802,-1.144,-3.873
-3.58,-8.03,-7.849,-8.604,-6.254,-7.509,-7.102,-8.654
-1.968,-5.668,-8.01,-8.552,-7.302,-7.986,-8.515,-9.718
0.734,-1.455,-6.544,-6.474,-6.003,-6.44,-6.545,-7.3
1.124,0.92,-7.383,-6.423,-6.522,-6.559,-5.836,-6.501
-0.338,0.733,-9.588,-8.282,-8.494,-8.026,-5.736,-7.395
0.784,1.571,-8.22,-7.097,-7.567,-6.807,-3.314,-6.124
4.532,4.205,-4.231,-2.973,-4.222,-3.72,-0.333,-3.34
6.411,5.672,-2.648,-0.332,-2.529,-2.419,0.684,-1.264
6,6.239,-2.329,2.313,-1.745,-0.5,1.908,3.535
5.894,7.631,0.398,7.468,0.741,4.564,5.147,11.34
5.231,7.553,3.06,9.656,2.763,7.146,7.552,12.494
1.606,3.546,1.5,4.468,1.086,2.658,5.581,2.449
-4.418,-2.397,-3.111,-3.198,-3.267,-4.502,-0.954,-9.916
-9.986,-6.962,-7.383,-7.692,-7.386,-8.934,-8.996,-16.165
-12.155,-8.709,-10.265,-8.664,-9.899,-9.884,-14.221,-15.824
-10.166,-8.108,-12.639,-8.289,-11.315,-9.04,-15.118,-12.298
-6.108,-6.688,-14.977,-9.068,-12.375,-9.014,-14.067,-10.406
-1.271,-4.43,-14.978,-10.442,-11.056,-9.836,-11.45,-10.914
4.281,-0.665,-10.887,-9.458,-5.628,-8.829,-5.779,-9.556
8.521,2.7,-6.319,-6.835,-0.073,-6.372,-0.12,-5.867
9.883,4.27,-5.115,-5.4,1.347,-5.017,1.365,-3.482
10.398,5.952,-5.166,-4.079,1.19,-3.894,0.234,-2.136
12.144,8.548,-3.257,-0.624,3.284,-0.991,-0.074,0.438
13.897,9.914,-0.618,3.109,5.817,2.065,0.109,2.536
12.891,8.775,0.167,4.101,5.304,2.912,-1.051,1.827
7.986,5.758,-1.251,2.185,1.649,1.668,-3.625,-0.999
1.891,2.394,-2.984,-0.487,-2.364,-0.174,-5.641,-3.629
-0.939,0.613,-2.825,-1.355,-3.735,-0.83,-4.6,-3.98
-0.105,0.511,-1.803,-0.616,-2.778,-0.42,-1.593,-3.273
0.959,0.664,-2.149,-0.268,-1.985,-0.202,-0.72,-3.779
-0.092,0.219,-2.964,-0.134,-1.859,0.517,-3.206,-3.461
-2.803,-1.639,-3.047,0.066,-1.793,1.572,-6.673,-1.275
-4.064,-4.311,-2.607,-0.545,-1.261,1.191,-7.655,-1.022
-2.038,-5.735,-1.703,-1.262,-0.054,-0.113,-5.02,-3.75
-0.482,-6.279,-1.351,-1.088,0.195,-0.772,-2.86,-5.655
-1.813,-6.254,-1.466,0.283,-0.564,0.104,-3.626,-3.759
-1.144,-2.945,0.644,3.42,0.788,3.237,-3.146,1.394
3.381,2.451,4.237,6.561,3.573,6.506,-0.476,5.497
5.913,4.458,5.24,6.867,3.639,6.569,-0.291,4.841
5.399,3.687,4.912,6.173,2.442,5.418,-1.313,2.935
6.329,4.249,7.21,7.335,4.08,6.641,1.241,4.848
7.801,4.823,10.438,8.441,6.736,8.437,4.801,7.887
6.418,3.5,11.161,7.366,6.7,7.828,4.718,6.887
3.509,2.273,9.824,5.325,4.247,5.397,2.114,2.713
3.16,3.13,8.94,4.4,2.216,3.593,0.6,0.402
6.025,5.054,9.487,4.432,2.447,3.067,1.065,1.473
6.884,4.442,9.452,2.432,3.368,1.325,0.739,1.876
2.259,0.094,7.399,-1.952,2.772,-2.144,-2.297,-0.42
-3.423,-4.421,5.251,-4.885,1.617,-4.012,-5.632,-2.633
-4.576,-5.814,5.342,-4.84,2.189,-3.25,-5.658,-2.196
-2.277,-4.701,7.289,-3.555,4.468,-2.149,-2.066,1.426
-2.456,-4.872,7.49,-3.196,4.859,-2.969,0.436,4.374
-6.979,-8.046,4.012,-5.22,1.046,-6.201,-2.212,0.939
-8.696,-8.569,2.549,-6.426,-1.399,-7.665,-5.003,-4.149
-2.394,-1.929,7.951,-2.36,2.875,-3.294,-1.73,-1.424
5.324,5.472,13.371,3.033,7.726,1.942,2.18,3.841
7.602,6.744,10.756,2.955,5.684,1.223,-0.582,0.888
7.363,4.889,3.941,-1.066,0.326,-3.206,-6.088,-6.003
8.609,4.989,1.342,-3.317,-1.204,-5.523,-7.244,-7.248
9.575,6.189,3.857,-2.382,1.455,-4.638,-4.312,-3.881
8.142,5.461,6.561,-0.292,4.163,-2.583,-1.566,-0.761
6.619,3.87,7.951,2.174,5.798,-0.241,0.031,2.526
7.647,4.648,10.692,5.69,8.519,2.786,2.469,7.762
8.917,6.41,13.817,8.255,11.377,4.994,4.609,12.108
7.025,4.926,12.727,5.68,10.571,2.98,2.905,9.988
4.383,1.721,8.51,-0.78,7.264,-2.514,-0.743,2.503
5.613,2.474,7.671,-3.776,7.006,-5.36,-0.15,-0.725
8.732,6.336,10.486,-1.604,9.564,-3.877,4.078,2.772
7.819,6.366,10.321,-1.561,8.864,-4.544,4.528,2.783
2.645,0.973,6.081,-5.996,4.601,-9.411,0.21,-3.263
-2.646,-4.913,3.183,-7.994,2.203,-11.52,-2.621,-4.931
-6.938,-8.75,2.493,-5.421,1.802,-8.525,-3.051,0.086
-9.94,-11.006,1.021,-3.481,0.236,-5.633,-4.428,3.627
-8.482,-10.54,0.057,-3.433,-0.45,-4.51,-4.913,3.389
-3.764,-8.268,0.55,-4.123,0.875,-4.537,-3.324,0.498
-2.809,-8.551,-1.719,-7.7,-0.86,-7.891,-4.649,-6.566
-5.387,-10.221,-6.698,-12.086,-6.05,-11.953,-9.216,-12.327
-3.218,-6.549,-7.229,-10.131,-7.075,-9.572,-9.857,-7.83
5.706,3.158,-1.457,-2.232,-1.602,-2.057,-4.355,2.878
14.821,12.005,3.452,3.287,3.415,1.921,1.071,7.967
18.513,15.6,2.978,3.272,3.42,0.327,1.386,5.611
16.526,15.771,0.465,1.556,1.338,-1.834,-1.663,2.706
11.647,14.27,-0.815,-0.06,0.045,-3.045,-4.499,1.533
6.381,10.059,-1.884,-2.709,-1.673,-5.49,-7.248,-1.118
1.904,4.047,-3.354,-5.407,-4.438,-8.458,-10.514,-5.168
-0.194,0.642,-2.966,-5.714,-5.34,-8.902,-11.196,-6.906
1.555,2.042,0.318,-3.599,-2.403,-6.357,-7.43,-5.637
4.164,4.179,3.257,-2.046,1.177,-3.947,-2.97,-4.109
1.7,1.491,1.774,-3.963,0.578,-4.896,-2.499,-4.391
-4.887,-4.281,-2.965,-7.623,-3.522,-7.715,-5.682,-5.659
-6.895,-5.022,-5.004,-7.619,-5.222,-7.164,-7.802,-5.046
-1.868,0.924,-2.731,-3.724,-3.052,-2.902,-6.773,-2.875
2.25,5.626,-1.551,-2.141,-2.447,-0.971,-6.168,-3.623
0.283,4.362,-4.169,-4.735,-5.666,-3.653,-8.825,-7.745
-4.11,1.018,-6.463,-6.12,-8.531,-6.005,-12.533,-9.784
-5.656,0.021,-4.59,-2.708,-7.681,-4.045,-13.429,-6.815
-4.044,0.565,0.086,2.996,-4.193,0.327,-10.674,-1.765
-3.733,-0.889,2.699,6.443,-2.114,2.772,-8.51,0.493
-7.048,-4.644,0.219,5.818,-4.332,1.918,-10.966,-1.729
-8.884,-5.932,-3.411,4.349,-7.274,1.436,-13.401,-3.501
-4.772,-2.178,-2.566,5.615,-5.563,4.087,-9.084,-0.438
-0.171,1.533,-0.269,6.499,-2.346,5.484,-2.459,2.929
-1.367,0.587,-2.579,2.542,-4.032,1.516,-2.156,1.794
-4.543,-1.702,-6.709,-2.756,-8.129,-3.235,-6.795,-0.172
-3.729,-0.945,-6.474,-3.609,-8.203,-3.425,-9.913,0.372
-0.144,1.201,-2.667,-1.504,-4.726,-1.643,-11.162,-0.657
2.447,1.295,0.713,-0.636,-1.778,-1.778,-13.493,-5.522
3.685,0.1,3.419,0.031,0.384,-1.741,-15.418,-8.194
4.794,0.494,6.484,3.015,3.282,1.211,-14.022,-4.324
5.86,2.54,8.78,6.383,6.1,4.815,-11.206,1.651
7.467,4.964,9.874,7.453,7.656,6.166,-10.085,4.418
10.751,8.022,10.967,6.895,8.249,5.704,-9.984,4.069
13.929,10.921,11.573,5.873,7.867,4.518,-9.607,2.472
13.627,11.398,9.533,3.989,5.584,2.525,-10.333,-0.465
9.279,9.243,4.023,0.329,0.8,-0.832,-13.784,-5.309
3.496,6.492,-2.357,-4.302,-4.879,-4.761,-18.301,-9.209
-0.796,4.565,-5.854,-6.778,-8.548,-6.463,-20.521,-8.15
-2.971,3.129,-6.65,-6.295,-10.203,-5.391,-20.3,-4.433
-3.127,2.458,-6.684,-5.212,-11.205,-4.08,-19.582,-3.343
-0.873,3.58,-5.038,-3.906,-10.392,-3.125,-17.851,-3.528
2.368,5.131,-1.096,-0.869,-7.14,-0.953,-14.117,-0.338
4.63,4.874,2.94,3.303,-3.659,2.233,-10.56,4.598
6.092,3.474,5.799,6.014,-1.067,4.079,-9.162,5.809
7.065,2.819,8.99,6.238,2.4,3.57,-7.996,3.793
5.597,1.973,12.636,5.528,6.837,2.414,-5.943,3.597
0.484,-1.486,13.665,4.843,8.849,1.845,-5.553,4.967
-5.688,-6.874,10.626,2.682,6.77,0.292,-7.364,2.926
-9.188,-10.023,6.381,-1.161,3.507,-2.827,-8.281,-2.044
-7.974,-7.545,4.545,-2.836,2.656,-3.898,-6.885,-3.229
-3.241,-1.415,4.673,-0.688,3.396,-1.295,-5.957,0.723
1.116,3.295,3.722,1.347,2.482,0.99,-7.818,3.876
3.648,5.493,2.461,1.247,1.025,0.705,-9.583,4.097
5.362,6.854,3.304,0.752,1.592,-0.527,-8.681,3.461
4.842,6.273,3.844,-0.165,1.519,-2.407,-8.322,1.313
0.981,2.644,1.88,-1.856,-1.447,-4.929,-10.396,-2.375
-3.464,-1.275,0.816,-2.238,-3.571,-5.828,-11.151,-3.932
-6.215,-2.478,3.071,-0.234,-1.773,-3.67,-8.256,-0.944
-8.416,-2.198,5.626,2.301,1.201,-0.213,-4.533,4.707
-12.214,-4.9,4.42,1.869,0.626,0.313,-4.031,6.443
-16.794,-11.27,-0.5,-3.519,-3.929,-5.002,-6.829,-1.326
-16.663,-13.876,-3.026,-8.689,-6.226,-10.924,-6.956,-10.691
-9.744,-8.227,1.076,-6.732,-2.102,-9.511,-0.821,-9.101
-3.65,-2.468,5.292,-1.438,1.863,-4.016,4.52,-1.418
-3.172,-2.832,3.713,0.892,0.076,-1.279,3.489,2.194
-3.157,-3.004,1.794,3.167,-2.048,1.101,2.537,5.587
-2.698,-0.29,2.277,6.08,-2.044,3.851,4.827,10.43
-6.631,-1.043,-0.847,4.035,-5.382,1.483,3.284,8.636
-10.979,-3.976,-6.456,-0.802,-10.462,-3.738,-1.693,1.827
-8.962,-2.172,-6.793,-1.858,-10.162,-4.817,-1.129,-0.813
-4.726,1.479,-2.781,-1.261,-5.879,-3.677,4.874,-0.006
-4.507,0.525,-0.905,-3.801,-3.918,-5.71,8.267,-1.35
-6.226,-2.937,-1.801,-7.733,-5.074,-9.651,6.86,-4.432
-5.845,-3.467,-1.935,-8.87,-5.731,-10.786,5.013,-5.898
-4.231,-1.006,-0.803,-6.921,-4.366,-8.148,5.26,-4.8
-4.849,-0.204,-1.579,-5.603,-3.827,-5.668,5.307,-3.115
-7.755,-3.716,-5.181,-6.896,-6.265,-6.118,3.016,-2.87
-9.053,-7.865,-7.663,-7.463,-8.347,-6.591,0.916,-3.178
-6.408,-7.066,-5.079,-3.417,-5.469,-2.912,3.093,-1.299
-0.736,-0.912,2.528,4.375,1.81,4.512,9.536,3.77
5.237,5.312,10.497,10.933,7.791,10.835,15.154,8.938
7.896,6.295,12.44,11.742,7.716,11.668,14.987,9.592
6.02,2.437,7.91,7.443,3.396,7.776,10.753,5.649
2.607,-0.926,3.74,3.661,0.765,4.38,8.804,2.65
2.316,0.171,4.543,4.662,2.46,5.384,11.461,4.901
6.372,4.3,7.156,7.706,5.08,8.5,14.528,8.916
10.294,7.449,6.723,7.283,4.361,8.578,13.82,8.269
10.281,8.237,3.418,3.658,1.004,5.399,10.728,3.616
7.94,7.728,-0.134,1.105,-2.018,2.884,8.585,0.493
6.109,6.976,-3.009,1.028,-3.757,2.859,7.567,0.705
5.237,7.067,-4.762,2.055,-3.794,4.269,6.724,2.149
3.779,7.77,-5.514,2.366,-2.783,5.005,5.444,2.037
1.062,7.383,-6.34,1.13,-3.186,3.884,3.182,-0.527
-0.846,5.84,-6.635,0.166,-4.95,2.619,1.749,-2.468
-0.536,4.607,-4.952,1.229,-5.093,3.164,3.829,-1.283
0.539,4.351,-2.097,3.124,-2.556,4.801,8.755,1.469
0.844,4.861,-0.338,4.406,0.538,6.355,12.853,4.011
1.194,6.284,-0.208,5.166,2.417,7.59,13.566,5.001
3.6,9.087,-0.058,5.372,3.609,7.978,11.863,3.318
8.27,12.688,1.524,5.184,5.265,7.778,10.532,1.755
12.941,15.71,4.691,5.861,7.703,8.615,11.716,4.467
14.678,16.963,7.66,7.472,9.578,10.339,14.465,9.935
13.126,16.259,7.818,8.727,9.079,11.303,15.172,13.04
11.65,15.123,5.849,9.306,7.041,11.419,13.228,11.843
11.482,13.854,3.547,8.081,4.641,10.161,10.652,6.384
10.147,10.829,0.205,4.225,1.115,7.008,7.274,-1.754
9.025,8.034,-2.393,2.44,-1.353,6.146,4.723,-5.032
11.144,8.896,-0.842,6.001,0.651,10.108,6.888,0.568
12.615,10.378,1.575,7.992,3.654,12.007,10.803,5.43
8.493,7.339,-1.17,2.394,1.343,6.443,9.083,1.801
1.449,1.16,-7.928,-5.205,-5.291,-0.58,2.049,-3.925
-2.995,-3.255,-12.354,-7.78,-9.486,-2.19,-2.546,-4.89
-3.19,-3.988,-11.259,-6.645,-7.989,-0.211,-0.504,-2.882
-1.009,-2.43,-7.038,-5.745,-3.808,1.251,4.691,-0.582
0.118,-1.515,-4.662,-6.042,-1.607,1.423,7.659,1.358
-2.28,-3.487,-7.128,-7.554,-3.611,0.17,6.56,0.674
-6.391,-6.908,-12.25,-10.021,-8.338,-2.313,2.937,-3.683
-6.929,-7.554,-14.462,-10.731,-10.993,-3.033,-0.23,-7.269
-1.2,-3.651,-10.15,-6.279,-7.075,1.156,0.583,-4.466
5.164,0.293,-2.706,0.881,0.712,7.261,5.317,2.748
4.13,-0.678,0.948,4.352,4.73,9.338,8.643,6.937
-3.064,-4.637,-0.066,3.403,3.311,7.854,7.128,6.052
-9.798,-8.471,-2.325,0.776,-0.009,5.948,2.427,2.323
-13.454,-11.956,-4.337,-2.639,-2.96,3.331,-1.56,-2.6
-13.397,-13.007,-4.989,-4.55,-3.82,1.081,-1.1,-4.759
-8.607,-9.3,-2.723,-2.333,-1.404,2.3,3.946,-0.913
-0.672,-2.541,2.163,2.284,3.124,6.409,10.611,6.049
4.701,2.575,5.627,4.385,5.782,8.731,15.427,10.759
3.122,2.84,3.831,2.641,3.448,7.354,15.629,12.419
-1.651,0.489,-0.146,1.835,-1.073,6.362,12.048,13.901
-3.384,-0.698,-1.542,3.7,-3.642,7.463,8.29,13.342
-2.606,-1.17,-1.658,3.55,-4.839,6.716,6.197,6.742
-2.874,-2.914,-3.035,0.392,-6.213,3.518,4.985,-1.276
-3.962,-4.901,-4.218,-1.354,-6.572,1.838,3.648,-3.665
-3.829,-4.919,-3.32,-0.74,-4.813,2.295,2.333,-3.214
-1.786,-2.552,-0.891,0.038,-1.781,2.891,2.176,-4.696
2.126,1.493,2.345,1.953,1.987,4.483,4.525,-4.479
6.417,5.236,5.554,5.564,6.041,7.336,8.364,0.041
8.698,6.213,6.843,7.142,8.432,8.265,10.951,4.116
8.796,5.101,6.331,5.252,8.354,6.601,11.91,5.3
8.257,4.415,6.3,3.363,7.429,5.245,11.881,5.114
8.631,4.716,7.157,3.583,6.881,5.014,11.01,3.216
10.045,5.214,7.15,4.418,6.022,4.722,10.361,0.062
9.581,4.912,4.721,3.915,3.121,4.16,8.885,-2.254
5.62,3.267,-0.184,1.928,-2.278,3.421,4.209,-3.691
1.597,1.335,-5.23,0.063,-7.509,2.57,-1.052,-4.074
0.922,0.733,-6.912,0.244,-8.753,2.832,-1.819,-1.704
2.37,1.208,-4.541,2.526,-5.631,4.809,1.833,2.259
1.938,-0.341,-2.126,3.308,-2.837,5.452,4.58,2.701
-1.268,-5.094,-2.566,0.253,-3.428,2.6,3.769,-1.885
-2.934,-7.917,-2.942,-1.837,-3.589,0.534,3.369,-4.759
-0.879,-4.882,-0.685,1.59,-0.078,3.286,6.167,-1.249
0.815,-0.512,1.615,6.273,3.511,7.297,8.709,2.751
-2.137,-1.452,0.327,5.544,2.277,6.716,7.016,0.631
-7.972,-6.891,-3.186,0.937,-1.769,2.61,3.173,-3.449
-10.732,-9.731,-3.001,-0.087,-1.503,1.639,3.601,-0.656
-8.776,-7.474,1.804,3.547,3.454,5.02,8.534,7.877
-6.735,-5.517,4.409,4.756,5.316,6.564,10.084,11.486
-7.905,-7.46,1.086,-0.046,1.176,2.858,5.281,4.706
-9.854,-9.322,-2.917,-5.747,-2.34,-2.168,1.479,-5.735
-9.22,-7.319,-2.062,-7.03,-0.278,-3.975,3.958,-9.999
-8.413,-5.676,0.041,-6.289,1.966,-4.055,6.871,-8.164
-11.07,-8.54,-2.42,-7.351,-1.624,-5.184,4.249,-6.934
-13.803,-11.15,-6.422,-7.097,-6.41,-4.636,0.245,-5.863
-12.904,-9.647,-7.208,-2.925,-6.781,-0.588,-0.9,-1.007
-11.329,-8.276,-6.834,0.074,-5.929,2.278,-1.397,3.388
-10.86,-9.149,-7.098,-1.508,-6.35,1.169,-1.177,1.694
-9.981,-9.577,-6.977,-4.358,-5.967,-1.103,1.563,-3.002
-10.052,-10.152,-7.747,-6.322,-5.873,-3.122,3.534,-5.43
-11.623,-12.327,-9.699,-8.056,-7.745,-5.326,2.144,-5.649
-11.806,-13.883,-9.926,-8.885,-8.869,-6.351,0.102,-5.633
-10.736,-13.049,-7.336,-7.632,-6.855,-5.172,-0.236,-5.3
-11.374,-10.925,-3.731,-4.817,-3.107,-2.882,0.321,-4.145
-13.486,-9.381,-0.794,-2.007,-0.202,-0.664,0.802,-2.615
-13.251,-8.18,2.294,1.013,2.154,2.251,2.666,0.106
-9.402,-6.26,5.711,4.158,4.817,5.462,6.213,3.02
-6.693,-6.037,4.831,3.426,4.195,4.584,6.781,0.406
-8.774,-9.416,-1.893,-1.344,-1.304,-0.603,2.368,-7.038
-13.684,-13.186,-7.826,-3.53,-6.148,-3.279,-1.514,-9.794
-18.104,-14.319,-8.521,-1.422,-6.605,-1.109,-1.116,-5.701
-19.064,-13.045,-6.427,0.249,-4.99,1.411,0.597,-1.729
-15.76,-10.138,-4.275,0.205,-3.677,2.294,0.259,-0.183
-10.648,-6.067,-2.214,0.802,-2.462,3.189,-1.174,1.56
-5.391,-1.868,-0.204,1.317,-1.139,3.179,-0.679,2.284
-1.188,0.294,0.596,-1.264,-0.963,-0.253,1.654,-0.628
-0.462,-0.99,-0.554,-6.104,-2.57,-4.925,2.535,-4.956
-2.461,-3.563,-2.003,-9.143,-4.005,-6.452,1.385,-6.853
-3.01,-4.347,-1.534,-9.147,-3.158,-5.448,1.118,-5.984
-0.322,-3.2,0.881,-7.212,-0.297,-4.161,3.181,-3.59
2.715,-1.894,2.953,-3.471,2.568,-1.458,5.991,-0.11
1.004,-3.023,1.247,-0.414,2.105,1.29,6.423,2.007
-5.946,-7.184,-4.361,-1.862,-2.519,-0.149,3.903,0.599
-10.271,-9.285,-7.636,-4.492,-5.296,-2.768,3.063,0.24
-6.094,-5.186,-3.87,-1.786,-1.344,0.262,6.638,5.551
-0.206,-0.466,1.158,3.003,3.166,5.495,8.752,10.31
-1.942,-2.624,-0.97,1.534,0.084,4.057,3.298,5.994
-6.987,-7.882,-6.562,-3.733,-6.214,-1.386,-4.661,-2.271
-5.803,-8.142,-6.439,-4.2,-7.041,-1.763,-6.49,-3.729
-1.405,-5.06,-2.831,-1.27,-4.719,0.998,-3.89,-0.804
-0.989,-3.473,-2.664,-0.843,-4.922,0.154,-2.983,-1.28
-1.797,-1.623,-4.032,-1.141,-5.42,-1.832,-3.097,-2.479
-0.343,1.584,-3.439,0.247,-3.6,-1.064,-1.694,-0.392
0.098,2.72,-3.067,0.49,-2.105,-0.163,-0.358,1.428
-1.563,1.358,-3.977,-1.313,-2.242,-0.834,-0.539,0.355
-2.161,0.466,-3.623,-3.236,-1.782,-1.807,-1.258,-2.398
-1.091,0.428,-0.954,-4.567,0.577,-2.794,-1.241,-4.78
-0.163,-0.135,2.825,-4.217,4.021,-2.829,0.265,-3.969
1.088,0.014,6.785,-0.81,7.788,-0.063,3.441,0.357
4.641,3.079,10.171,4.302,11.577,4.979,7.652,5.472
8.101,6.367,10.603,7.17,13.149,8.599,9.737,8.668
6.861,5.443,6.928,5.74,10.501,7.983,7.142,8.662
3.338,2.834,3.149,3.484,7.1,5.848,4.426,7.779
2.354,2.875,1.701,2.898,5.942,4.881,5.37,6.827
3.082,4.433,-0.184,1.177,4.251,2.684,5.456,2.275
4.997,6.613,-1.692,-0.83,1.913,0.131,3.061,-2.434
8.639,9.512,0.187,1.607,2.3,2.219,2.603,0.126
9.957,9.885,2.206,6.324,3.636,7.193,3.796,5.054
6.335,6.298,0.355,7.205,1.985,8.62,2.519,2.781
2.451,2.85,-2.194,5.187,-0.528,6.706,-0.004,-2.221
2.578,2.984,-0.713,5.63,0.942,6.799,1.029,0.552
4.023,4.572,2.425,7.799,4.969,8.62,4.663,7.353
3.093,3.823,2.271,6.334,6.219,6.754,5.524,7.096
0.987,1.243,0.56,1.913,5.11,1.723,3.612,2.265
0.485,0.157,1.703,0.507,5.913,-0.223,3.115,2.402
2.61,2.054,5.333,3.66,8.904,2.66,4.81,6.341
6.776,6.068,9.023,7.955,11.768,6.925,7.017,8.255
8.866,8.137,9.71,9.279,11.728,8.356,6.865,7.507
5.134,4.475,5.052,6.377,7.19,5.493,2.18,6.045
1.471,0.535,0.557,5.393,3.735,4.571,-1.154,8.02
4.564,3.077,1.806,10.872,6.21,10.55,2.844,14.098
8.077,6.266,2.76,14.465,7.787,14.849,7.05,15.232
4.793,2.975,-1.13,9.315,3.413,9.794,4.328,7.832
-0.368,-2.145,-3.119,3.735,0.216,3.951,1.306,3.597
-1.5,-3.226,0.341,5.605,3.026,6.233,4.442,9.42
-1.049,-2.374,3.045,9.335,6.295,10.801,8.061,14.904
-2.222,-2.891,1.176,8.153,5.347,9.897,5.975,10.648
-3.345,-3.729,-1.34,4.579,2.931,6.035,1.622,2.343
-2.206,-2.606,-0.289,3.34,3.141,4.459,0.563,-0.225
0.245,-0.321,3.022,3.767,5.384,4.665,2.265,2.844
1.257,0.016,4.222,2.95,6.093,3.706,3.315,5.345
-0.068,-1.181,2.719,2.018,5.059,2.566,3.714,6.622
-1.482,-0.222,1.795,3.182,4.806,3.259,4.611,8.503
-0.789,2.808,2.466,4.536,5.213,4.053,4.591,8.668
1.523,4.902,3.814,4.647,5.506,3.885,4.279,7.149
2.839,5.204,5.166,4.697,5.952,3.981,5.632,7.103
1.428,4.138,4.872,4.504,5.183,4.038,5.836,8.13
-1.195,1.694,2.54,3.58,2.449,3.517,1.982,8.342
-2.199,-1.279,1.102,3.026,0.469,3.249,-2.617,8.057
-0.646,-2.636,2.856,3.307,1.976,3.288,-3.091,7.794
0.706,-2.81,4.546,1.876,4.57,1.365,-0.468,5.211
-0.876,-4.423,2.319,-2.748,4.349,-3.207,1.214,-0.386
-3.099,-6.157,-0.359,-5.729,3.258,-5.418,2.137,-2.8
-4.882,-6.661,-0.847,-4.425,2.917,-3.101,2.508,0.234
-9.71,-9.105,-3.837,-4.579,-0.504,-2.576,-0.535,0.797
-15.907,-13.144,-9.397,-8.135,-6.089,-6.003,-5.079,-3.882
-16.554,-13.412,-10.291,-8.75,-6.998,-6.552,-5.355,-5.816
-10.347,-8.338,-4.651,-3.636,-1.784,-1.078,-0.74,-0.86
-2.779,-2.064,1.457,2.218,4.063,4.904,4.192,4.834
0.959,0.601,2.682,3.639,5.276,5.634,4.683,4.289
0.669,-0.943,-0.214,1.229,1.618,1.999,-0.25,-1.461
1.297,-1.416,-1.786,0.358,-1.632,0.052,-4.784,-4.313
6.577,3.679,1.351,3.923,0.258,2.836,-2.269,0.653
11.616,9.374,4.349,6.628,3.12,4.803,2.805,6.202
10.437,9.048,2.083,3.913,0.626,1.385,1.511,4.353
8.336,7.356,0.514,1.974,-2.125,-1.176,-2.143,1.685
12.425,11.006,6.07,6.408,2.231,2.64,0.667,6.214
17.529,16.058,13.127,11.978,8.876,7.736,6.614,12.059
15.792,16.163,14.674,12.908,10.327,8.532,7.724,11.489
9.224,11.704,11.96,9.637,7.479,5.64,3.831,6.142
3.165,5.859,8.075,4.116,3.912,1.031,-0.778,0.151
-0.909,0.868,3.789,-0.969,0.778,-3.384,-3.581,-4.598
-2.09,-1.096,0.686,-1.791,-0.643,-4.325,-3.319,-4.944
0.234,0.691,0.725,1.677,0.88,-0.768,0.092,0.792
3.016,3.455,2.467,4.21,3.073,2.68,3.223,6.321
3.09,4.371,2.751,2.084,2.618,1.056,2.508,3.964
1.576,4.154,1.721,-2.048,0.446,-3.794,-0.401,-3.407
0.557,4.115,1.747,-3.493,-0.453,-6.047,-1.967,-6.623
0.098,3.929,3.128,-1.768,0.368,-4.234,-1.793,-4.083
-0.18,3.524,4.387,0.137,1.822,-1.981,-1.156,-1.674
-0.542,3.07,4.675,0.462,3.121,-1.807,-1.1,-1.631
-0.811,2.093,4.277,-0.101,3.523,-2.715,-2.35,-1.431
0.452,1.216,4.225,-0.16,3.396,-2.876,-3.64,-0.438
3.42,2.128,4.952,0.672,4.194,-2.075,-2.511,-0.484
4.811,3.566,4.753,1.005,5.14,-1.889,-0.161,-2.481
3.023,2.414,3.346,0.865,4.805,-2.101,0.19,-3.61
1.563,-0.349,4.496,3.046,5.316,0.158,-0.601,0.162
1.406,-2.201,8.306,6.646,7.327,3.747,-1.146,5.921
-0.584,-3.289,9.585,7.427,7.467,4.253,-2.851,7.026
-2.249,-2.628,8.543,6.363,6.215,2.768,-3.994,4.736
0.147,0.446,9.512,6.519,6.936,2.585,-1.673,4.105
2.689,2.562,11.302,6.152,8.42,1.871,1.886,3.953
1.241,1.586,9.938,2.59,7.34,-2.264,2.998,-0.253
-1.312,-0.59,5.546,-2.91,3.69,-8.224,0.947,-8.652
-0.024,-0.31,3.294,-4.494,2.185,-9.624,-0.471,-12.736
5.362,4.184,6.63,1.564,6.384,-2.982,2.899,-5.449
9.18,8.479,10.259,8.511,10.94,4.04,7.052,3.994
8.231,8.211,8.575,8.729,9.543,3.661,6.145,4.004
6.564,6.274,4.905,5.894,5.21,0.442,2.573,0.002
6.562,5.849,3.334,5.74,2.6,0.626,-0.066,0.61
5.03,5.178,2.213,6.155,0.529,1.938,-2.601,2.494
1.656,3.676,0.728,4.465,-1.792,1.51,-4.301,1.651
0.877,3.932,1.423,3.105,-1.536,1.209,-2.776,1.215
2.745,4.998,3.332,2.627,0.608,0.824,-0.632,1.141
2.58,3.061,2.343,-0.118,-0.113,-2.615,-2.59,-2.826
0.049,-0.55,-1.318,-4.238,-3.999,-7.03,-7.258,-8.162
-1.556,-2.071,-4.445,-5.785,-7.06,-7.676,-10.176,-8.794
-0.707,-1.432,-5.132,-4.066,-6.953,-4.56,-10.005,-4.981
1.635,0.044,-3.241,-1.375,-4.268,-1.18,-7.591,-1.423
1.738,0.877,-1.712,-0.945,-2.335,-0.692,-5.566,-1.393
-1.272,0.23,-2.209,-3.053,-2.865,-2.626,-6.175,-3.025
-2.064,-0.142,-1.331,-3.937,-2.541,-3.426,-7.239,-2.277
0.694,0.204,2.045,-3.136,0.321,-2.941,-5.992,-0.176
2.279,-0.448,4.915,-3.501,3.248,-3.348,-2.759,1.365
2.27,-1.037,7.228,-3.847,5.744,-3.196,1.646,4.435
1.947,-1.349,8.764,-3.718,7.015,-2.91,4.269,5.985
-1.278,-4.648,5.65,-7.171,3.394,-6.893,0.714,-0.418
-5.633,-8.786,-0.41,-12.258,-2.738,-12.367,-5.65,-9.207
-6.126,-8.462,-2.924,-12.436,-4.634,-12.252,-7.227,-10.231
-4.656,-5.958,-1.836,-9.057,-2.931,-8.517,-4.498,-5.628
-5.095,-6,-1.107,-7.655,-2.561,-7.47,-2.884,-3.505
-6.328,-7.537,-1.373,-8.703,-4.246,-9.378,-4.001,-6.223
-7.01,-8.178,-1.823,-9.826,-6.2,-11.047,-6.198,-10.275
-8.272,-9.09,-3.068,-11.058,-8.088,-12.035,-8.599,-12.423
-9.243,-10.483,-4.637,-12.728,-9.521,-13.105,-10.959,-12.916
-7.234,-8.867,-3.934,-11.606,-8.608,-11.999,-11.341,-11.271
-3.086,-3.777,-0.485,-6.294,-5.324,-7.396,-8.273,-6.55
0.755,0.821,3.718,-1.136,-1.725,-2.669,-3.334,-1.425
4.827,3.426,7.926,1.308,1.703,-0.011,1.204,1.767
8.882,4.687,10.855,2.514,4.435,1.534,4.178,3.332
8.973,3.462,9.413,1.841,4.086,1.331,4.806,2.7
4.442,0.494,4.966,-0.693,1.282,-0.199,4.075,0.983
1.626,0.24,3.748,-0.569,0.317,0.845,4.758,2.252
3.517,3.182,5.967,2.31,0.968,3.503,5.691,4.883
5.703,5.048,5.778,2.448,-0.667,2.576,3.315,3.273
7.919,6.536,4.154,1.395,-2.035,0.903,0.937,1.028
12.212,9.743,4.97,3.216,0.178,3.003,2.176,2.83
12.784,9.497,3.782,2.361,0.075,2.549,0.919,0.812
7.174,3.894,-1.954,-4.409,-5.568,-4.374,-6.209,-8.486
3.758,0.497,-5.579,-9.089,-9.467,-9.409,-11.715,-13.448
7.054,3.717,-3.483,-6.485,-7.103,-6.867,-10.664,-7.734
12.142,9.8,0.607,-0.814,-2.527,-1.243,-6.792,0.684
14.039,13.502,2.487,1.888,-0.649,1.159,-4.534,3
12.299,12.647,0.688,-0.872,-2.483,-1.764,-4.462,-1.69
9.068,8.96,-3.02,-6.752,-6.067,-7.481,-5.548,-8.533
6.891,6.195,-4.831,-10.313,-8.402,-10.903,-7.112,-11.037
7.576,6.865,-2.601,-8.251,-6.956,-8.972,-7.52,-6.402
9.98,9.346,1.053,-3.988,-3.231,-5.026,-5.925,-0.657
11.014,10.346,2.403,-2.609,-1.507,-3.887,-4.322,-0.867
10.771,10.4,2.587,-2.527,-1.491,-3.83,-3.184,-3.844
11.014,10.605,3.158,-1.519,-0.851,-2.868,-1.444,-4.903
11.482,9.523,2.374,-1.96,-0.807,-3.622,-0.43,-6.122
12.266,8.709,1.277,-2.301,-1.204,-4.392,-0.265,-6.681
13.487,10.623,2.209,1.362,-0.105,-1.1,1.093,-2.653
13.741,12.473,3.613,6.409,1.352,3.566,3.287,3.469
13.038,11.376,4.124,8.766,1.728,5.619,4.753,6.853
12.094,8.594,3.824,8.257,0.772,5.228,4.297,6.895
10.155,6.023,1.996,6.073,-1.909,3.588,1.323,4.649
7.806,4.829,-0.239,4.372,-4.54,2.217,-1.529,0.609
6.428,5.016,-0.946,4.247,-5.189,1.689,-1.643,-4.564
4.967,5.099,-0.621,4.246,-4.781,1.08,-0.752,-8.346
2.228,3.942,-0.555,3.994,-4.555,0.917,-1.408,-7.98
-0.466,1.495,-1.763,4.057,-5.309,1.715,-3.885,-4.987
-0.677,-0.264,-4.016,4.688,-7.013,2.979,-6.46,-2.278
1.928,1.395,-5.078,6.448,-7.998,4.821,-7.167,-0.436
4.548,5.235,-4.251,7.781,-7.83,5.677,-6.693,-0.702
5.771,8.047,-2.89,6.392,-7.113,3.538,-6.124,-3.686
7.512,9.623,-1.222,3.75,-5.097,0.304,-4.013,-6.196
9.271,9.846,0.421,2.264,-2.281,-1.243,-0.972,-5.494
8.082,7.656,0.999,1.58,-0.811,-1.296,-0.259,-3.047
5.213,5.078,1.275,0.895,-0.803,-0.979,-1.457,-1.849
4.151,4.761,2.34,0.954,-0.911,-0.209,-1.696,-2.068
4.598,5.83,3.48,2.841,-0.682,1.793,-0.818,-0.867
3.743,5.675,3.293,5.49,-0.879,4.258,-0.732,1.861
0.827,3.514,1.466,6.01,-2.384,4.623,-2.36,2.52
-0.72,1.826,0.161,4.538,-3.696,2.995,-3.79,1.735
1.246,2.181,0.726,3.75,-3.265,2.17,-3.318,2.936
2.491,1.718,0.326,2.949,-3.334,1.646,-3.424,2.963
1.586,0.116,-0.561,1.645,-3.457,0.316,-4.417,-0.873
3.655,1.685,3.658,3.397,1.125,1.233,-1.557,-2.516
6.873,4.374,10.019,6.957,7.342,4.164,3.24,-0.192
3.478,1.524,8.972,6.165,6.954,3.973,2.537,-0.326
-4.301,-4.631,1.973,1.556,1.691,0.573,-2.107,-2.884
-7.581,-6.605,-1.611,-0.902,-0.833,-1.391,-4.101,-1.978
-5.596,-4.49,-0.359,0.33,0.058,-0.858,-3.854,1.427
-4.256,-3.887,-0.076,0.673,0.17,-1.502,-4.39,0.569
-5.6,-5.892,-2.916,-3.517,-1.532,-5.887,-4.418,-5.832
-6.8,-6.551,-5.101,-8.111,-2.548,-10.316,-2.672,-10.526
-5.934,-3.775,-3.445,-6.759,-1.262,-9.38,-1.213,-7.976
-3.498,0.302,0.674,-1.025,1.262,-4.227,-0.976,-1.47
-0.053,3.235,4.675,3.271,3.841,0.134,0.327,3.501
2.769,3.785,7.073,3.806,5.62,1.003,2.728,4.572
2.695,1.711,7.064,1.54,5.262,-1.359,2.89,1.911
2.301,-0.22,6.635,-0.518,4.597,-3.57,1.766,-0.447
4.797,-0.129,7.496,-0.609,6.352,-3.12,3.029,0.696
6.572,-0.742,7.018,-0.854,7.96,-2.465,4.873,2.24
4.484,-3.371,4.236,-2.13,6.596,-3.441,3.983,1.296
1.115,-5.957,2.261,-2.361,4.418,-4.067,1.669,0.042
-1.003,-7.261,2.486,-0.921,4.143,-3.131,0.986,1.382
-1.34,-6.993,3.553,0.987,5.319,-1.634,2.468,4.586
-0.269,-5.465,3.863,2.316,5.585,-0.711,3.424,6.063
1.436,-3.316,3.202,3.305,4.276,-0.14,2.157,5.347
4.118,-0.042,3.259,5.114,3.663,1.229,1.041,5.786
7.52,3.762,4.617,7.137,4.831,2.91,1.614,7.341
8.912,4.999,4.94,7.346,5.547,2.981,1.243,6.57
7.126,3.12,3.145,5.954,4.528,1.41,-1.403,3.158
5.149,2.262,1.782,5.258,3.723,0.262,-3.425,0.137
5.412,4.802,2.929,6.386,4.687,0.955,-3.152,-0.672
6.32,7.61,5.063,7.797,6.141,2.387,-1.84,-0.401
4.962,6.611,4.312,5.74,4.971,0.851,-1.084,-2.117
1.29,2.149,-1.029,-0.919,-0.265,-5.116,-3.108,-7.379
-0.728,-0.673,-6.181,-5.909,-5.283,-9.695,-6.962,-11.663
2.008,1.912,-5.347,-3.202,-4.451,-6.931,-7.27,-9.119
6.218,6.663,-1.19,2.966,0.079,-0.491,-4.096,-2.435
6.318,7.925,-0.572,4.948,1.306,2.206,-3.71,1.213
3.324,6.326,-2.832,3.566,-0.833,1.332,-5.899,1.526
3.423,6.364,-2.203,3.722,-0.071,1.351,-4.205,2.319
6.925,6.869,0.091,3.355,3.323,0.609,0.16,1.527
7.039,3.476,-1.965,-1.806,2.539,-4.564,-0.498,-3.632
2.796,-0.771,-6.387,-6.983,-1.813,-9.377,-5.288,-6.819
2.049,1.256,-5.118,-4.483,-1.57,-6.859,-5.658,-1.89
6.925,7.952,1.804,2.649,4.087,-0.75,-0.895,4.568
9.78,10.856,5.744,4.834,6.945,-0.411,1.145,3.205
7.364,8.403,3.746,1.14,3.971,-5.789,-1.639,-2.352
5.103,6.634,1.644,-0.566,0.704,-8.412,-3.785,-3.04
5.856,7.38,2.286,2.916,0.265,-5.304,-3.788,0.223
5.717,6.258,1.699,6.384,-0.446,-1.799,-5.505,1.199
2.909,2.709,-1.504,6.132,-2.658,-1.386,-8.343,-0.482
1.806,2.34,-2.554,5.286,-2.468,-1.15,-6.771,-0.783
2.317,4.98,-0.83,5.616,-0.065,0.257,-2.453,0.465
-1.771,3.177,-2.111,3.212,-1.133,-1.055,-2.812,-1.126
-7.703,-2.01,-5.65,-2.025,-4.241,-5.221,-5.86,-5.028
-7.32,-2.683,-5.728,-5.205,-3.566,-7.523,-5.893,-6.467
-2.935,0.336,-3.78,-5.619,-1.222,-7.262,-5.774,-6.035
-0.252,2.079,-2.935,-5.152,-0.681,-6.62,-7.173,-6.076
0.896,2.07,-1.673,-4.161,-0.12,-6.079,-6.518,-5.403
1.167,1.062,0.74,-2.897,1.176,-5.308,-4.461,-2.395
1.495,0.97,3.75,-0.058,2.293,-2.6,-3.191,4.332
3.791,3.491,6.305,4.169,2.827,1.752,-1.816,12.041
6.077,5.224,4.592,3.423,0.441,0.939,-1.59,10.971
5.477,3.552,-1.899,-4.713,-4.944,-8.17,-4.037,-0.451
2.864,1.917,-6.995,-11.697,-8.111,-16.751,-6.2,-8.376
-0.511,1.646,-8.229,-12.894,-7.7,-18.821,-7.227,-7.394
-3.372,-0.07,-9.047,-13.837,-7.745,-19.354,-9.144,-7.222
-3.345,-2.464,-9.62,-16.456,-8.217,-20.632,-9.781,-9.622
-1.625,-2.926,-8.416,-18.309,-6.711,-20.707,-7.657,-11.254
-2.414,-2.58,-7.297,-20.023,-4.689,-20.775,-5.883,-15.482
-6.583,-3.709,-7.402,-20.204,-3.738,-19.622,-5.163,-18.489
-11.23,-5.928,-6.972,-15.245,-2.509,-13.788,-4.095,-11.994
-13.432,-7.002,-4.878,-7.443,-0.178,-6.21,-4.165,-2.432
-12.575,-6.213,-2.329,-2.694,1.614,-2.72,-6.358,-1.25
-10.688,-5.595,-0.964,-2.145,1.468,-3.384,-7.488,-5.73
-9.846,-6.709,-0.509,-2.355,0.723,-4.206,-4.733,-6.782
-9.509,-8.032,0.126,-1.411,1.125,-3.596,-0.395,-4.547
-8.204,-7.292,0.661,-0.112,2.117,-2.426,1.831,-3.555
-7.038,-5.411,-0.554,0.788,1.58,-1.122,1.243,-2.84
-8.14,-5.271,-5.042,0.68,-2.175,-0.339,-1.285,-0.451
-10.314,-6.959,-11.954,-1.793,-8.298,-1.716,-4.197,0.604
-11.473,-8.637,-18.934,-7.649,-14.529,-6.354,-6.427,-3.771
-12.367,-9.703,-24.459,-14.812,-19.62,-12.553,-8.839,-11.732
-12.71,-9.57,-27.035,-18.531,-22.221,-15.943,-10.971,-15.579
-9.716,-7.617,-25.602,-17.191,-21.194,-14.498,-10.401,-11.271
-4.524,-5.629,-21.805,-14.712,-17.952,-11.753,-7.419,-4.532
-3.437,-6.871,-18.687,-15.221,-15.007,-12.032,-5.022,-3.097
-8.621,-11.598,-17.121,-17.401,-12.919,-13.935,-4.177,-5.611
-13.577,-15.31,-14.958,-15.771,-10.027,-11.94,-2.674,-4.434
-12.781,-14.362,-9.819,-8.31,-4.635,-4.787,1.284,1.941
-9.891,-11.525,-3.285,-0.427,1.552,1.671,5.533,7.218
-10.508,-11.174,0.071,2.505,4.398,2.89,6.271,8.374
-12.261,-11.543,0.566,3.296,4.663,2.651,5.018,9.732
-10.38,-8.912,2.703,6.474,7.01,5.342,6.666,12.587
-8.182,-6.249,4.397,8.672,9.36,6.874,8.999,10.474
-10.646,-7.811,0.345,5.595,5.955,2.866,5.956,0.949
-13.243,-9.709,-5.609,2.094,0.163,-1.291,0.967,-7.744
-10.139,-6.783,-6.783,4.352,-0.745,1.046,1.739,-7.459
-5.859,-2.366,-5.995,8.754,0.948,6.392,5.525,-0.387
-6.426,-1.639,-8.765,8.574,-1.325,7.745,4.529,5.334
-8.864,-3.115,-13.351,4.753,-6.872,5.53,-0.759,6.202
-9.171,-3.846,-16.45,1.632,-11.299,3.526,-4.845,4.84
-9.329,-5.175,-19.118,-1.052,-13.717,1.088,-6.002,2.55
-11.025,-8.472,-22.235,-5.597,-14.916,-3.758,-5.547,-2.477
-12.237,-11.662,-23.504,-10.382,-14.225,-8.651,-4.486,-8.038
-11.051,-12.161,-20.331,-11.178,-10.271,-9.19,-2.489,-8.255
-8.348,-10.557,-13.471,-8.164,-3.884,-6.201,0.403,-4.44
-6.855,-10.395,-7.512,-6.494,0.896,-5.374,1.775,-3.513
-6.945,-12.673,-5.257,-7.755,1.962,-7.769,1.016,-4.674
-5.801,-13.667,-3.818,-7.613,2.409,-8.378,1.088,-2.321
-3.128,-11.466,-0.234,-3.871,4.755,-5.268,2.783,1.612
-3.03,-9.488,2.97,-0.511,6.674,-2.851,3.607,0.724
-7.529,-10.802,2.336,-1.248,5.521,-4.798,1.873,-4.881
-13.369,-13.995,-0.632,-3.481,2.47,-8.295,-1.692,-7.868
-17.275,-16.41,-2.779,-2.972,-0.109,-8.874,-5.177,-4.496
-18.711,-17.035,-3.764,-0.221,-1.425,-7.124,-6.746,-0.547
-17.455,-15.596,-4.056,2.276,-1.424,-5.856,-4.815,-1.074
-13.818,-12.786,-3.225,4.084,-0.544,-5.24,0.14,-2.257
-9.437,-10.082,-0.809,6.248,0.757,-3.637,5.073,1.294
-5.654,-7.753,2.487,9.52,2.529,-0.315,7.935,8.932
-4.393,-6.995,2.957,11.198,2.399,1.479,7.085,13.648
-7.838,-10.592,-2.579,6.609,-2.607,-3.358,0.666,7.955
-13.035,-16.055,-9.466,-1.937,-8.399,-12.454,-6.382,-4.353
-13.964,-16.481,-9.867,-6.118,-7.832,-16.922,-5.535,-9.925
-11.209,-11.852,-4.875,-4.522,-2.58,-14.836,0.859,-5.432
-10.302,-9.092,-1.851,-3.627,0.288,-12.877,3.39,-1.152
-11.533,-10.73,-2.247,-5.924,0.328,-14.275,1.078,-2.244
-11.065,-13.2,-2.001,-7.654,1.401,-15.625,-1.291,-2.843
-9.56,-14.294,-0.073,-7.048,2.835,-14.827,-3.096,0.035
-9.776,-13.852,1.733,-6.023,2.767,-13.621,-4.265,1.775
-10.189,-11.383,2.666,-5.823,2.939,-13.533,-2.337,0.12
-9.884,-9.024,2.064,-5.925,3.557,-13.961,0.857,-1.269
-11.005,-9.41,0.166,-4.596,2.703,-12.586,0.985,0.71
-12.824,-10.666,-1.021,-1.504,1.118,-8.986,-0.948,3.231
-13.56,-11.51,-1.802,-0.377,-0.47,-7.493,-2.066,0.334
-14.207,-13.768,-4.006,-3.094,-3.165,-10.372,-2.683,-6.741
-14.174,-14.931,-5.165,-3.805,-4.882,-11.428,-2.023,-7.036
-11.696,-10.863,-2.465,1.894,-2.81,-5.668,1.438,3.625
-9.472,-6.089,-0.683,7.142,-1.152,0.069,3.262,12.015
-10.489,-7.208,-4.697,4.964,-4.514,-1.753,-0.517,7.781
-12.175,-11.163,-9.635,0.211,-8.244,-6.653,-4.132,0.266
-11.348,-11.763,-9.446,-0.613,-6.79,-7.91,-1.667,0.089
-9.296,-9.705,-6.749,0.619,-3.036,-6.933,3.271,2.947
-8.72,-8.554,-6.64,0.406,-1.653,-7.122,5.108,2.31
-8.289,-7.04,-7.663,0.526,-1.066,-7.003,4.972,1.623
-4.784,-2.306,-6.014,3.203,1.709,-4.136,5.927,5.79
-0.062,2.752,-3.954,5.21,3.93,-1.144,5.728,10.768
2.006,4.125,-5.293,3.007,2.149,-1.871,2.218,10.452
1.727,3.819,-9.023,-1.624,-2.039,-5.225,-1.272,6.071
0.69,4.437,-13.415,-6.524,-6.257,-8.797,-2.418,0.739
-0.819,3.859,-17.772,-12.547,-9.978,-13.11,-3.33,-5.404
-2.229,0.48,-19.535,-18.706,-12.039,-17.654,-5.663,-10.141
-2.549,-3.098,-16.35,-21.272,-10.83,-19.233,-8.091,-10.253
-1.714,-4.595,-9.918,-19.758,-7.102,-17.69,-9.01,-8.064
-0.406,-4.383,-3.65,-16.405,-3.224,-15.442,-8.706,-7.417
2.241,-1.64,2.867,-9.791,1.577,-10.657,-6.354,-5.663
6.218,4.028,10.898,1.056,8.864,-1.853,-0.54,1.117
8.112,8.459,16.924,10.546,14.79,5.444,5.477,9.351
7.927,9.399,18.692,14.882,16.261,7.56,8.47,13.008
9.55,10.188,19.18,16.903,16.647,7.728,11.157,11.927
11.195,11.155,18.575,17.704,17.137,7.396,15.078,9.992
8.227,8.781,13.77,15.232,14.038,4.803,17.051,9.448
3.054,4.272,6.746,10.501,8.043,1.244,16.373,9.955
0.011,0.578,1.314,5.556,3.204,-1.335,14.449,10.025
-1.958,-3.446,-2.756,0.299,0.094,-3.959,11.099,8.929
-2.926,-6.475,-4.019,-3.342,-0.606,-6.023,8.803,9.195
-0.712,-4.814,-0.891,-3.623,1.82,-6.095,9.502,11.257
1.891,-1.331,1.548,-3.933,3.509,-6.493,8.63,9.537
0.647,-1.219,-0.093,-6.129,2.375,-7.985,3.855,3.92
-2.921,-3.85,-1.833,-7.351,1.329,-7.657,-0.234,1.989
-4.969,-6.057,-1.786,-7.287,0.784,-5.919,-1.298,3.64
-4.341,-5.984,-2.093,-7.357,-0.546,-5.027,-0.785,2.73
-1.971,-3.184,-2.524,-6.036,-0.854,-3.798,0.96,0.52
0.081,-0.34,-2.292,-3.657,-0.262,-2.105,2.056,0.037
0.586,-0.122,-1.631,-2.77,-0.707,-1.902,0.436,-0.059
0.702,-0.515,0.33,-2.04,-0.037,-1.823,-0.706,0.641
1.604,0.924,3.123,0.904,3.231,0.352,1.433,3.068
3.974,3.481,5.46,4.94,6.428,3.414,4.296,5.361
7.948,5.898,8.475,7.822,8.58,4.852,5.763,5.899
10.766,7.142,12.75,8.583,10.931,3.68,6.588,4.816
9.057,5.941,15.514,7.551,12.242,0.976,6.111,3.318
3.767,2.369,14.074,5.652,9.827,-1.448,2.348,2.131
0.227,-0.296,10.711,4.738,5.45,-1.769,-2.075,2.065
3.055,2.082,10.739,7.207,5.123,1.534,-0.611,4.869
9.373,7.521,13.506,11.493,9.019,6.32,5.686,8.548
10.82,8.994,12.306,12.207,9.378,7.75,7.028,8.153
5.378,5.008,5.934,7.867,3.534,5.149,1.174,3.319
0.094,1.384,1.176,2.914,-1.227,2.191,-2.4,-1.639
0.067,2.076,2.213,1.451,0.366,1.266,1.129,-2.975
1.925,4.099,4.944,2.83,3.757,1.892,4.885,-0.756
0.765,3.311,4.961,4.934,3.47,3.829,3.563,2.769
-2.079,1.39,4.485,8.073,1.944,7.859,1.411,6.532
-2.897,2.089,6.134,11.908,2.867,12.34,2.681,9.15
-2.563,4.332,7.421,13.756,4.072,13.768,4.687,8.105
-3.144,5.234,6.746,12.987,3.401,11.876,4.536,4.087
-2.256,5.529,6.871,11.941,3.263,9.832,4.187,1.639
2.028,6.554,8.34,11.733,4.469,9.317,4.558,2.412
6.342,6.996,8.069,11.128,4.068,9.096,3.376,3.199
7.479,6.384,5.935,9.711,1.786,8.622,1.151,3.473
7.269,6.968,4.771,9.595,0.781,9.927,1.074,7.094
9.098,9.751,5.148,11.741,1.842,13.48,3.429,12.957
12.774,12.107,5.114,12.697,2.299,15.193,4.65,13.27
15.006,11.629,3.531,9.921,0.544,12.56,2.17,6.065
13.926,9.859,1.739,6.865,-1.431,9.405,-1.698,-1.275
12.005,9.966,2.641,7.794,-0.12,9.985,-2.581,-3.548
12.915,12.385,7.839,11.79,5.49,13.169,0.506,-2.076
15.331,14.422,14.915,14.959,12.077,15.347,3.986,0.238
14.62,13.582,19.37,15.977,15.782,16.267,4.718,1.665
10.574,10.024,19.137,16.196,16.098,17.789,3.878,1.649
7.403,6.508,15.445,15.852,14.277,19.012,3.597,0.144
7.233,6.228,11.083,14.969,11.822,18.878,4.278,-1.008
8.365,9.065,8.426,15.03,10.31,19.165,5.484,1.231
9.016,11.905,8.002,16.354,10.042,20.593,6.283,6.246
9.221,12.896,8.478,17.034,9.913,21.097,6.428,9.768
9.262,12.122,7.255,15.151,8.056,19.015,6.213,9.194
9.381,11.067,3.374,11.93,3.981,16.243,5.087,6.852
9.996,12.097,-0.361,10.742,0.306,15.986,3.07,6.393
10.046,14.378,-2.075,10.781,-1.528,16.361,1.299,5.944
8.299,14.13,-3.965,7.723,-3.817,12.662,-0.104,1.072
5.823,10.675,-7.487,1.726,-8.055,6.277,-2.156,-6.003
4.116,7.012,-10.757,-2.555,-12.707,2.795,-4.664,-8.962
3.417,5.328,-11.824,-2.97,-15.369,2.999,-5.543,-6.639
4.363,5.977,-9.815,-0.608,-13.772,4.107,-3.165,-1.606
7.096,7.932,-5.201,3.161,-8.326,5.439,0.408,4.125
8.961,8.731,-1.048,6.104,-3.31,6.705,1.396,7.659
9.042,8.444,1.706,7.085,0.271,7.478,1.476,8.069
9.936,9.471,5.352,6.895,5.172,7.773,4.551,6.625
11.766,11.095,8.719,5.414,9.835,6.547,8.187,3.541
12.464,11.533,8.926,3.409,11.204,4.261,8.455,1.451
10.696,10.699,6.244,1.693,9.49,1.728,5.24,1.057
6.958,9.288,2.727,-0.548,6.291,-1.962,0.22,-2.189
5.777,9.646,0.92,-1.209,4.696,-4.534,-2.787,-5.903
9.582,12.818,1.627,2.075,6.451,-2.728,-0.609,-2.479
12.897,15.688,2.006,5.419,8.069,0.472,3.843,4.762
11.108,15.423,-0.572,4.172,5.87,0.066,5.08,5.849
7.291,12.891,-4.232,0.6,1.825,-2.953,2.801,1.179
5.797,10.422,-4.968,0.181,0.349,-3.637,0.999,-0.294
6.042,8.961,-2.697,3.484,1.648,-0.706,0.984,3.663
5.243,7.911,-1.407,5.715,1.866,1.986,0.407,6.182
3.312,6.612,-3.138,3.449,-0.813,0.889,-2.494,2.295
3.143,6.132,-5.039,-0.331,-3.307,-2.052,-5.978,-3.428
6.915,8.729,-3.257,0.44,-1.814,-0.639,-5.586,-2.292
10.515,12.018,-0.332,4.294,0.769,4.884,-2.033,3.207
7.833,10.495,-2.046,3.244,-1.375,6.112,-1.962,1.716
3.183,6.969,-4.852,-1.348,-4.43,2.773,-4.713,-4.413
4.384,8.094,-1.683,-1.286,-1.347,2.753,-3.475,-3.481
7.512,10.618,3.333,1.258,3.838,4.557,1.176,1.758
5.819,8.435,3.183,-0.608,4.257,1.677,4.113,2.322
3.502,5.108,1.06,-3.691,2.407,-2.248,4.789,1.465
6.824,6.13,2.488,-1.77,3.165,-0.406,5.056,4.964
11.221,7.786,4.398,1.963,4.134,4.084,3.716,7.993
8.913,4.313,1.234,0.706,0.675,4.126,-1.455,2.875
2.618,-1.578,-4.686,-4.49,-5.033,0.442,-7.179,-7.415
0.32,-3.706,-7.011,-6.914,-7.357,-0.621,-7.525,-11.066
2.301,-1.257,-5.395,-3.799,-6.327,3.619,-3.648,-3.963
2.592,1.463,-5.429,0.23,-6.978,8.446,-1.805,2.986
-1.067,0.248,-9.961,-1.323,-11.182,6.83,-3.824,-0.616
-3.586,-2.836,-13.483,-6.337,-13.739,0.972,-5.797,-7.926
0.276,-1.409,-9.35,-5.665,-9.218,1.137,-3.814,-6.056
6.878,3.793,-1.288,0.58,-1.221,7.731,0.941,1.385
8.345,5.077,1.771,2.588,2.206,10.545,3.721,2.011
4.308,0.94,-0.395,-1.742,0.355,7.45,2.647,-3.469
1.891,-1.374,-0.344,-4.193,-0.334,6.54,0.812,-5.138
5.378,2.863,5.032,0.088,3.763,11.636,1.618,0.086
10.28,9.03,10.348,5.95,8.726,16.991,4.013,5.836
9.941,10.445,10.134,6.286,9.265,16.268,4.772,5.398
5.215,7.684,6.322,1.854,5.922,11.309,3.652,0.263
1.904,5.38,3.453,-1.559,2.576,8.2,2.108,-3.384
2.561,5.249,2.939,-1.136,1.612,9.312,1.312,-2.865
5.914,6.498,4.964,2.253,3.828,13.149,3.305,0.863
9.182,7.93,8.427,5.948,7.275,16.761,7.258,5.093
9.852,8.959,10.212,7.495,8.021,18.111,8.295,7.405
8.599,10.053,9.046,7.136,5.197,18.174,4.841,8.398
8.056,10.928,6.483,6.025,1.512,18.115,0.542,8.274
8.446,10.44,4.266,4.008,-0.501,17.079,-1.374,5.102
8.617,8.925,3.458,1.357,-0.205,15.054,-0.444,-0.034
9.457,8.024,4.089,-0.706,1.374,13.55,2.674,-3.313
11.059,7.448,4.165,-2.079,1.964,12.526,6.433,-3.886
9.776,4.593,1.216,-3.99,-0.423,10.372,7.773,-3.811
4.012,-0.734,-3.647,-6.772,-4.734,7.361,4.8,-3.63
-0.534,-4.033,-5.358,-8.214,-6.497,6.605,1.032,-1.327
2.006,-1.398,-0.891,-5.589,-2.391,10.173,2.5,4.222
7.886,4.196,5.79,-0.488,4.381,15.065,7.903,9.18
8.613,5.771,8.326,1.444,6.908,15.811,9.337,7.13
3.899,2.173,6.856,-1.463,4.383,12.181,5.893,-0.414
1.434,-0.361,7.128,-3.311,3.217,10.645,5.275,-2.657
3.914,1.218,10.202,-0.365,5.729,14.264,9.186,3.016
4.861,1.765,10.278,1.764,6.096,16.784,9.969,4.966
-0.187,-2.438,5.211,-1.512,1.377,13.627,4.747,-2.057
-6.227,-7.296,0.39,-5.299,-3.375,9.882,0.409,-7.982
-7.646,-8.77,-0.708,-4.966,-4.278,10.276,1.477,-5.734
-6.98,-8.73,-0.462,-3.786,-3.232,11.845,3.945,-0.84
-7.498,-8.827,0.012,-4.87,-1.808,11.723,4.102,1.058
-6.122,-6.959,2.593,-5.36,1.226,12.187,3.912,1.972
-1.271,-2.898,6.368,-2.7,5.253,14.883,5.169,4.542
3.216,0.524,8.445,1.396,7.629,18.134,6.582,7.687
5.773,2.681,8.995,4.347,8.211,20.34,7.42,9.517
7.505,4.572,8.811,4.466,7.889,20.4,7.753,8.38
6.932,5.042,6.02,1.262,5.293,17.278,6.526,2.984
4.101,3.68,0.909,-3.132,0.93,12.611,4.157,-4.467
2.945,2.662,-2.355,-5.744,-1.433,10.037,2.807,-8.722
4.347,2.687,-2.512,-6.125,-1.31,10.571,1.907,-8.62
6.696,3.986,-0.952,-4.493,-0.358,13.371,1.555,-5.963
10.114,7.91,2.683,-0.284,1.989,18.417,5.005,0.543
12.473,12.002,5.807,3.691,3.524,23.057,9.746,8.631
10.577,11.932,3.339,2.831,0.202,22.526,8.687,9.928
6.283,8.591,-3.148,-2.165,-5.728,17.181,1.97,2.63
3.492,5.967,-6.95,-6.159,-8.494,13.059,-3.416,-4.209
2.749,5.118,-6.043,-6.823,-7.003,13.89,-2.991,-3.471
2.306,4.008,-4.542,-7.366,-4.91,15.912,0.413,-0.2
1.158,1.572,-5.678,-10.6,-4.865,14.265,0.911,-2.258
-0.569,-0.625,-7.842,-13.836,-5.599,11.306,-1.68,-6.54
-2.545,-2.081,-8.508,-14.705,-5.455,10.853,-3.071,-6.877
-4.589,-5.126,-8.497,-16.521,-5.762,10.005,-3.4,-6.851
-5.725,-9.406,-8.915,-20.928,-7.213,6.296,-4.8,-10.133
-3.753,-9.877,-7.903,-22.84,-7.138,4.288,-4.997,-11.659
0.403,-5.695,-5.658,-19.056,-5.124,7.014,-3.088,-9.08
0.916,-3.797,-6.36,-13.459,-5.213,10.714,-3.106,-6.757
-3.994,-7.531,-9.92,-9.412,-8.049,12.87,-5.646,-5.246
-8.036,-11.034,-10.577,-6.006,-8.905,15.165,-5.982,-2.83
-6.93,-9.796,-6.811,-3.272,-6.268,17.191,-2.608,-2.273
-3.861,-6.804,-3.317,-2.184,-3.846,17.485,1.165,-3.429
-3.199,-6.287,-3.892,-2.219,-4.692,17.007,2.175,-2.485
-5.187,-8.169,-8.288,-3.536,-8.567,15.757,-0.353,-1.816
-7.298,-9.325,-13.035,-5.935,-12.499,13.62,-3.84,-4.668
-9.317,-9.573,-15.449,-8.226,-14.267,12.3,-5.292,-8.139
-13.042,-12.293,-16.955,-10.718,-15.045,11.941,-5.346,-9.477
-15.258,-15.747,-17.93,-12.179,-14.704,12.777,-4.39,-7.623
-11.169,-14.357,-15.651,-10.159,-10.897,16.258,-0.975,-2.169
-5.573,-10.421,-11.462,-7.329,-5.664,20.08,2.701,3.367
-6.701,-10.626,-9.761,-7.696,-3.298,20.663,2.839,4.623
-11.736,-13.876,-10.04,-9.448,-3.115,19.27,0.107,1.063
-12.358,-14.575,-8.558,-9.587,-1.848,18.368,-1.851,-4.996
-8.884,-12.447,-4.735,-9.34,1.012,16.95,-0.797,-9.829
-7.058,-10.855,-1.296,-9.613,3.462,14.67,1.824,-9.857
-7.649,-10.433,-0.517,-8.564,3.521,14.124,2.388,-5.3
-7.142,-8.924,-1.477,-6.071,1.8,16.135,0.423,-0.26
-3.569,-4.56,-1.319,-3.73,1.19,19.089,-0.272,3.144
0.863,0.814,-0.62,-2.876,1.493,21.075,1.01,4.775
2.178,2.86,-3.37,-5.683,-1.272,19.506,-0.205,2.164
-0.082,0.544,-9.285,-12.645,-7.405,13.665,-4.278,-4.594
-3.67,-3.547,-13.92,-20.703,-12.895,6.418,-6.785,-11.051
-8.796,-8.468,-17.284,-27.328,-17.081,0.259,-8.806,-16.392
-15.515,-13.959,-21.761,-31.112,-21.518,-3.433,-13.708,-21.219
-18.095,-15.819,-22.695,-28.438,-21.911,-1.127,-15.731,-20.239
-12.764,-11.179,-14.976,-18.581,-13.872,8,-8.803,-11.5
-7.328,-6.138,-5.457,-9.504,-4.306,16.255,-0.627,-4.295
-8.979,-6.711,-2.184,-7.047,-0.987,17.909,0.626,-3.908
-11.582,-8.434,-0.494,-5.855,0.77,18.032,0.284,-3.058
-8.765,-6.559,4.709,-1.543,5.588,20.839,2.521,1.511
-5.12,-4.82,8.761,2.079,8.313,22.688,2.315,4.258
-5.073,-5.913,8.672,3.255,6.461,21.656,-1.117,4.243
-5.218,-6.485,7.857,3.651,4.754,19.364,-2.179,2.852
-2.679,-4.775,7.486,1.875,5.019,15.326,0.12,-2.832
-0.588,-3.281,5.245,-2.212,4.027,10.51,0.705,-10.722
-1.95,-3.947,0.824,-5.139,0.033,8.525,-2.833,-13.452
-4.73,-5.996,-3.432,-6.765,-4.729,8.564,-6.439,-11.126
-6.231,-8,-5.819,-9.732,-7.59,7.181,-6.596,-9.52
-8.345,-10.669,-7.549,-13.316,-9.118,5.373,-5.556,-9.232
-13.837,-15.757,-10.533,-15.088,-11.301,5.605,-6.123,-7.545
-20.441,-22.261,-13.594,-15.664,-13.845,5.918,-7.447,-5.975
-23.332,-26.485,-13.313,-16.295,-14.048,3.928,-7.341,-6.727
-21.173,-25.914,-8.507,-15.084,-10.17,2.33,-4.862,-7.052
-17.815,-22.558,-3.277,-11.685,-5.607,3.201,-2.56,-6.238
-16.596,-19.949,-1.641,-9.017,-4.421,4.258,-3.166,-7.344
-15.074,-17.346,-0.704,-6.237,-3.871,5.909,-4.023,-7.454
-10.493,-12.778,3.653,0.045,-0.08,11.204,-2.211,-2.501
-5.64,-8.496,9.251,7.618,4.532,17.776,0.011,1.681
-4.421,-7.225,11.754,11.169,6.042,20.172,0.22,-0.793
-5.276,-6.927,11.348,11.25,5.449,19.109,0.295,-3.89
-3.218,-4.15,11.759,12.988,6.581,20.191,3.326,0.301
0.659,-0.572,14.182,16.696,9.783,24.189,8.486,9.344
-0.838,-1.247,14.956,16.83,10.726,25.41,11.264,15.251
-7.899,-6.575,10.867,10.379,6.502,19.781,8.886,13.312
-12.326,-11.712,3.893,0.485,-0.264,9.652,3.031,3.954
-10.303,-13.085,-1.478,-7.444,-5.138,0.999,-2.679,-7.149
-5.579,-11.285,-3.863,-10.542,-7.588,-2.632,-6.559,-12.79
-2.739,-9.604,-6.161,-11.083,-10.763,-3.953,-10.303,-12.984
-3.172,-10.278,-9.777,-12.404,-15.059,-6.898,-15.055,-13.02
-4.218,-10.798,-10.134,-12.18,-15.207,-8.851,-16.928,-12.769
-2.638,-8.008,-4.225,-7.402,-8.479,-5.944,-11.694,-10.101
-0.088,-4.747,1.34,-2.771,-1.646,-2.303,-3.426,-8.675
0.559,-4.386,0.999,-2.009,-0.7,-1.815,0.387,-8.762
0.685,-4.52,0.44,0.179,-1.032,0.051,-0.043,-4.053
1.233,-3.544,4.266,6.095,2.067,5.133,-0.317,3.606
0.204,-3.86,7.283,9.078,4.669,7.111,-0.23,4.465
-2.684,-5.905,5.138,5.34,2.552,2.465,-2.225,-3.177
-4.585,-6.88,1.095,-0.355,-1.639,-4.04,-6.081,-11.346
-2.345,-4.484,0.257,-1.876,-2.546,-5.843,-7.597,-12.648
4.228,0.853,3.132,1.268,0.417,-2.521,-4.324,-6.5
11.319,6.363,5.601,4.194,2.349,-0.077,-0.522,0.657
14.224,9.449,4.289,2.583,-0.034,-3.095,-0.889,1.715
13.23,10.671,1.651,-1.66,-3.432,-8.632,-3.419,-2.383
14.41,13.172,3.283,-2.614,-2.47,-10.732,-3.962,-5.424
20.045,17.067,9.239,0.937,2.588,-9.305,-3.121,-5.94
23.507,17.416,13.653,4.448,6.856,-8.546,-3.753,-5.484
19.407,10.823,13.544,5.081,7.999,-9.472,-5.311,-3.189
11.339,0.679,11.362,3.545,7.753,-10.67,-4.861,0.511
6.014,-6.169,10.255,1.429,8.289,-11.256,-1.17,2.894
5.558,-6.36,11.123,0.421,10.036,-10.346,4.457,2.775
6.803,-2.913,12.206,0.329,11.151,-8.86,8.163,0.228
6.752,-0.685,11.16,-0.006,9.425,-8.493,6.275,-2.757
7.066,-0.122,9.033,1.562,6.271,-6.708,1.823,-1.413
8.939,0.201,8.267,5.811,4.474,-1.754,0.776,3.576
7.868,-2.176,7.034,6.601,2.431,0.084,1.586,3.585
1.723,-8.262,3.253,1.095,-1.491,-5.364,-0.28,-2.938
-2.918,-11.93,1.11,-2.615,-2.874,-10.56,-2.37,-6.289
-0.864,-8.653,4.364,1.3,1.629,-8.649,-0.391,-2.766
2.785,-3.515,8.029,6.086,6.537,-4.77,2.667,0.29
0.898,-3.585,5.648,3.841,5.131,-6.37,1.548,-1.139
-4.302,-7.566,0.194,-2.428,0.359,-11.947,-1.288,-2.716
-5.385,-9.607,-1.075,-5.694,-0.163,-16.043,-0.13,-1.47
-2.259,-9.563,1.742,-6.131,3.617,-18.554,3.526,-0.404
-2.808,-11.807,2.93,-8.443,5.294,-22.867,4.213,-2.115
-10.414,-16.632,0.477,-12.978,2.216,-28.65,1.282,-3.884
-17.873,-19.492,-2.099,-15.649,-1.919,-32.13,-1.814,-2.221
-17.249,-17.021,-1.108,-14.184,-2.886,-31.359,-2.129,1.786
-9.844,-10.377,2.847,-9.503,-0.79,-26.586,0.795,6.068
-2.516,-3.988,5.814,-3.753,0.623,-19.264,3.869,9.711
0.559,-1.957,4.433,-0.759,-1.844,-14.387,2.996,7.87
0.534,-3.604,-0.297,-2.133,-6.877,-14.857,-1.061,-1.505
2.508,-2.467,-1.773,-1.275,-8.222,-13.093,-2.621,-6.923
8.432,4.49,3.524,6.748,-2.985,-3.577,0.197,-0.52
12.091,10.171,8.821,14.225,2.216,4.285,2.116,5.826
9.552,9.753,9.269,15.255,2.78,4.197,0.99,3.751
4.969,7.817,9.018,15.723,2.951,4.337,0.947,2.265
-0.2,5.78,9.323,17.739,4.298,7.755,2.216,4.268
-7.488,0.574,8.102,16.251,4.479,7.337,2.178,2.168
-13.25,-5.615,7.802,12.613,5.225,3.047,2.367,-1.334
-13.984,-9.014,9.915,12.29,8.004,1.753,3.607,2.675
-11.656,-9.813,11.791,13.823,10.406,3.603,4.276,10.78
-9.007,-9.338,11.976,11.499,10.706,2.457,4.997,12.337
-6.519,-8.171,10.645,4.905,8.906,-3.372,6.075,6.271
-3.434,-5.85,8.505,-0.063,6.265,-8.548,5.784,1.654
-0.233,-1.764,7.248,0.739,5.29,-8.711,4.854,4.412
1.087,2.835,7.388,4.86,6.374,-5.45,5.375,10.296
0.138,5.451,6.758,7.265,6.189,-3.128,5.411,11.528
-2.187,4.377,3.034,5.625,2.086,-4.798,1.914,6.393
-4.473,1.287,-1.511,2.649,-2.783,-8.861,-1.806,1.483
-4.459,0.199,-2.242,2.506,-3.577,-10.646,-0.949,2.683
-2.944,1.205,-0.629,4.296,-2.021,-9.396,1.157,6.921
-2.824,1.469,-0.961,5.601,-2.172,-7.008,-0.003,9.948
-3.972,0.693,-2.064,7.056,-3.244,-4.11,-1.725,12.059
-5.755,-1.365,-1.914,6.574,-4.019,-4.196,-1.769,10.859
-8.412,-5.2,-1.602,1.261,-5.253,-10.289,-2.492,3.469
-9.348,-7.37,-0.556,-3.956,-5.528,-16.46,-3.854,-4.776
-7.127,-5.598,2.197,-3.343,-3.471,-16.21,-3.572,-6.932
-5.79,-3.524,4.066,0.108,-1.313,-12.97,-2.555,-3.875
-7.143,-3.037,3.341,2.004,-0.803,-11.565,-2.106,0.463
-7.025,-1.073,2.213,3.09,-0.663,-10.584,-1.003,4.243
-3.889,2.896,2.823,4.517,0.391,-8.67,0.74,6.346
-1.585,5.52,4.615,5.615,1.911,-7.539,1.36,6.902
-1.805,5.488,5.615,6.058,2.686,-7.835,0.828,7.146
-1.765,4.502,4.82,5.612,2.018,-8.723,0.102,7.06
-0.183,3.915,3.467,4.368,0.736,-9.609,-0.565,6.809
1.231,4.276,4.041,4.289,1.299,-9.349,0.19,8.029
1.242,5.007,5.899,5.202,3.654,-8.654,2.354,8.724
-0.632,3.664,4.443,3.034,3.278,-10.932,1.964,4.153
-4.003,0.132,-0.538,-1.344,-0.905,-14.753,-1.826,-2.227
-6.196,-1.43,-2.248,-0.786,-2.958,-13.539,-3.736,-0.698
-4.716,1.433,2.871,6.381,1.008,-6.174,-0.35,9.865
-1.871,4.932,9.068,12.8,6.355,0.223,4.253,19.595
-2.411,4.348,9.303,12.138,6.389,-0.408,3.588,19.7
-5.645,1.388,4.751,6.158,1.957,-6.22,-1.697,10.861
-6.785,0.2,1.064,-0.19,-1.542,-12.134,-5.888,-0.49
-5.109,0.336,-0.21,-4.586,-3.033,-16.138,-7.643,-8.501
-2.856,0.618,0.145,-5.736,-3.435,-17.462,-7.721,-9.255
-0.096,2.88,2.695,-3.151,-1.507,-15.367,-4.783,-3.746
2.808,6.69,5.349,-0.293,0.891,-12.805,-1.767,0.444
3.541,8.563,4.226,-0.561,-0.555,-13.302,-4.054,-1.098
2.397,8.252,0.92,-1.443,-4.017,-14.515,-8.202,-3.309
1.926,8.006,-0.487,-0.086,-4.83,-13.36,-7.524,-2.153
2.364,7.906,-0.42,1.729,-3.688,-11.341,-4.481,0.245
4.268,8.881,0.84,4.448,-1.668,-8.137,-2.977,4.269
8.834,12.486,4.406,9.437,1.869,-2.86,-1.09,9.914
10.771,13.947,4.954,9.869,1.946,-2.363,-0.242,9.444
4.501,8.696,-2.14,0.765,-5.269,-11.13,-3.783,-0.204
-3.855,2.819,-9.364,-8.818,-12.393,-20.026,-7.355,-8.967
-6.182,2.739,-9.085,-9.489,-12.42,-19.981,-6.268,-8.275
-5.037,4.535,-5.697,-4.81,-9.326,-14.623,-4.003,-1.437
-4.88,3.95,-4.799,-1.566,-8.274,-10.814,-4.323,3.995
-4.181,3.913,-4.683,-0.404,-8.239,-9.65,-5.707,4.055
-1.825,6.982,-2.87,0.58,-6.903,-9.473,-6.055,0.089
0.478,11.426,0.498,3.027,-3.5,-8.14,-4.46,-1.87
2.532,15.39,4.434,7.213,1.125,-4.733,-0.743,0.983
5.139,17.95,6.525,9.892,3.803,-2.545,2.437,3.094
6.722,17.962,4.738,8.352,2.013,-4.65,1.513,0.702
5.744,16.191,0.827,5.092,-2.564,-8.22,-2.579,-1.512
3.953,14.678,-2.508,2.79,-6.794,-9.923,-6.185,-0.657
2.347,12.196,-6.195,-0.526,-10.726,-12.024,-9.341,-2.126
0.079,7.667,-10.803,-5.084,-14.679,-15.58,-13.09,-7.907
-1.565,4.645,-12.939,-6.652,-16.088,-16.421,-14.932,-10.371
-0.816,5.495,-10.98,-5.252,-13.997,-14.463,-13.13,-6.515
2.877,9.268,-6.261,-4.458,-9.269,-13.796,-8.017,-2.253
8.233,14.096,-0.589,-4.055,-2.898,-13.944,-1.208,-0.21
9.965,15.17,0.994,-4.715,-0.14,-14.325,1.235,-0.325
6.115,10.179,-3.821,-9.205,-4.289,-17.691,-3.298,-3.78
4.135,6.218,-7.083,-13.675,-7.467,-21.332,-5.642,-6.108
7.87,8.707,-3.575,-12.051,-3.533,-19.403,-0.591,-2.113
9.566,11.434,-0.598,-6.551,0.29,-13.905,2.535,3.995
4.731,8.629,-3.364,-2.798,-2.16,-10.909,-1.609,5.543
-0.261,4.764,-6.905,-2.184,-6.192,-11.823,-5.974,1.026
-0.637,5.118,-7.369,-2.762,-7.166,-13.892,-6.327,-5.729
0.379,7.799,-7.02,-1.678,-6.915,-13.965,-6.585,-8.221
0.233,9.968,-7.011,1.687,-7.11,-11.679,-8.708,-5.758
2.301,13.746,-4.101,5.266,-4.611,-8.987,-8.026,-2.897
8.309,19.754,2.462,7.822,2.084,-6.737,-2.191,-0.679
13.258,22.397,6.839,8.947,7.357,-5.312,2.481,0.546
12.792,18.504,4.564,7.136,5.985,-6.502,0.557,-2.301
8.992,12.706,-1.213,1.945,0.315,-10.73,-4.571,-7.96
6.622,10.515,-4.731,-2.973,-3.838,-14.218,-7.283,-9.415
7.682,11.945,-3.829,-2.979,-3.623,-12.758,-6.795,-3.4
9.565,12.917,-1.086,0.58,-1.524,-8.193,-5.665,3.958
8.754,10.905,-0.465,1.41,-1.883,-6.829,-5.164,4.811
5.673,7.184,-2.325,-2.932,-4.504,-11.006,-4.32,-0.307
3.147,3.752,-3.533,-8.062,-5.214,-16.291,-2.591,-4.632
2.528,1.653,-2.066,-8.837,-2.431,-17.618,-0.828,-3.732
3.859,1.391,0.816,-5.889,0.828,-15.613,-0.152,0.965
6.507,2.658,2.798,-3.977,1.965,-14.443,-0.23,4.915
7.656,4.141,2.991,-5.1,1.566,-15.78,0.046,5.192
4.627,4.102,1.39,-7.335,-0.111,-18.295,-0.778,2.725
-0.989,2.081,-1.703,-8.93,-3.364,-20.246,-4.017,1.024
-5.901,-0.821,-4.963,-10.705,-6.029,-21.673,-6.373,0.492
-9.029,-4.023,-7.103,-14.932,-6.404,-25.169,-5.703,-4
-9.778,-6.75,-7.806,-20.59,-5.716,-30.776,-5.02,-12.808
-6.889,-6.335,-7.021,-22.385,-4.585,-33.167,-5.39,-16.778
-1.647,-2.15,-5.794,-18.799,-2.788,-29.814,-4.371,-11.356
1.987,1.728,-5.983,-14.81,-1.46,-24.848,-1.987,-3.059
2.127,1.762,-7.669,-13.492,-1.495,-21.571,-0.117,1.82
0.764,-0.47,-9.334,-12.963,-2.41,-19.658,0.96,2.769
0.042,-1.698,-10.674,-11.862,-3.946,-19.287,1.032,0.142
-0.631,-1.957,-12.648,-10.699,-6.283,-20.691,-0.689,-5.344
-1.762,-2.255,-13.94,-8.566,-7.882,-21.02,-2.821,-8.869
-1.941,-1.629,-11.979,-4.506,-6.723,-17.863,-3.268,-6.107
-0.093,0.599,-7.088,-0.131,-3.092,-13.454,-1.629,0.462
4.585,4.462,-0.666,3.323,2.57,-10.368,3.139,6.188
11.002,8.823,5.688,5.763,9.268,-8.493,10.225,8.963
14.535,10.514,8.853,6.504,13.14,-7.814,13.524,8.751
13.737,9.41,8.742,6.909,12.969,-7.501,10.488,8.915
12.347,8.723,8.396,8.96,12.243,-5.723,7.368,12.586
11.171,7.822,6.799,9.138,11.455,-5.007,7.326,14.572
7.936,4.213,1.394,3.106,7.72,-9.881,5.393,7.519
3.898,0.536,-3.762,-3.867,3.137,-16.584,1.492,-2.576
1.408,0.22,-3.583,-3.633,2.417,-17.322,1.949,-4.623
0.21,1.708,-0.608,1.29,4.36,-13.629,5.955,-2.048
0.744,3.151,1.62,4.536,5.736,-10.968,7.766,-2.189
3.127,4.868,3.388,6.016,6.047,-9.031,6.373,-2.301
4.703,6.077,3.438,6.822,4.502,-7.315,2.99,-0.691
5.746,6.809,2.162,7.693,2.741,-6.206,0.261,0.706
10.11,9.193,4.714,11.194,5.588,-3.262,2.023,3.429
17.136,12.838,11.288,16.32,12.04,1.093,6.329,7.088
23.071,16.039,16.551,19.615,16.658,3.621,8.527,8.985
28.494,20.452,20.184,22.494,19.492,5.806,9.753,10.931
34.306,26.413,24.057,26.591,22.581,9.443,12.126,13.691
37.397,29.984,25.59,28.267,23.915,11.11,13.643,13.477
37.508,30.894,24.183,26.28,23.068,9.721,13.159,10.242
38.832,33.617,23.603,24.618,22.837,8.783,11.674,7.347
42.763,38.431,24.79,24.729,23.39,9.153,9.827,5.932
47.173,41.337,25.652,24.294,23.057,8.704,8.429,6.231
49.827,41.341,25.789,22.298,22.227,6.671,7.715,7.33
48.916,40.589,26.069,20.371,21.901,4.658,7.119,7.685
45.585,40.416,26.702,20.655,21.931,4.953,7.061,8.964
43.424,40.821,27.261,23.129,21.87,7.384,7.497,12.598
42.071,40.742,26.566,24.819,20.871,8.885,6.566,14.972
38.837,38.522,23.517,22.802,18.005,7.213,3.814,11.785
35.372,34.396,19.302,17.775,14.374,3.236,2.089,4.201
33.568,30.443,16.398,12.851,12.015,-0.898,3.303,-1.748
30.617,26.991,14.861,9.412,10.374,-4.404,5.069,-2.371
25.809,23.249,13.329,7.199,8.115,-6.973,4.945,-0.442
22.875,20.198,12.159,6.616,6.25,-7.346,3.783,1.057
21.465,18.044,11.456,7.203,5.138,-6.11,2.43,3.158
17.471,14.643,9.686,7.18,3.315,-5.902,1.369,5.885
10.766,8.663,5.855,5.42,0.454,-8.031,1.661,5.512
4.4,1.701,0.811,1.982,-2.564,-11.854,2.108,0.63
0.506,-2.232,-2.906,-0.802,-4.323,-14.427,1.473,-3.003
-1.529,-2.142,-4.376,-0.874,-4.625,-13.7,0.993,-1.242
-5.521,-3.842,-6.315,-1.439,-6.382,-13.727,-0.244,0.219
-12.62,-10.832,-9.541,-5.841,-10.357,-18.02,-4.048,-3.68
-16.846,-16.398,-10.043,-9.934,-11.52,-21.416,-6.471,-7.506
-15.019,-15.057,-6.863,-9.416,-8.175,-19.474,-3.896,-5.581
-13.76,-12.942,-5.386,-8.231,-6.562,-16.987,-1.216,-1.751
-17.49,-15.609,-7.151,-9.69,-8.926,-17.531,-2.329,-0.886
-21.491,-17.99,-7.088,-9.799,-9.583,-17.313,-2.765,-1.574
-22.347,-16,-4.382,-6.306,-7.116,-14.625,0.053,-1.094
-23.876,-15.169,-4.218,-2.968,-6.726,-12.586,1.764,1.792
-29.292,-19.983,-8.125,-2.448,-9.883,-12.285,0.371,6.491
-34.55,-25.628,-12.426,-4.172,-12.818,-13.23,-0.568,7.025
-35.431,-27.415,-15.431,-8.117,-14.347,-16.989,-0.248,-1.74
-35.017,-28.171,-18.693,-13.663,-17.017,-23.166,-2.579,-13.01
-35.92,-30.081,-21.67,-17.745,-20.632,-27.501,-7.653,-16.652
-34.516,-29.817,-21.44,-19.036,-21.243,-28.165,-10.02,-13.897
-29.4,-25.866,-17.932,-19.85,-17.679,-27.681,-7.875,-10.962
-24.98,-21.713,-14.616,-21.738,-13.62,-27.783,-5.806,-8.473
-24.161,-20.616,-14.351,-24.28,-12.684,-28.666,-7.139,-7.179
-25.445,-22.23,-16.757,-26.955,-14.794,-30.715,-10.027,-11.026
-26.456,-23.552,-18.275,-26.949,-16.53,-31.273,-10.522,-16.121
-25.819,-22.229,-16.007,-21.089,-14.908,-26.439,-6.741,-12.725
-24.746,-20.316,-13.168,-14.701,-12.4,-20.507,-2.489,-5.038
-26.869,-22.07,-15.63,-16.943,-14.225,-22.091,-4.191,-7.239
-32.249,-26.713,-22.003,-24.319,-19.258,-28.256,-10.63,-16.697
-35.934,-29.39,-25.499,-24.96,-21.593,-27.912,-13.998,-17.801
-34.863,-28.755,-24.407,-17.52,-20.28,-19.642,-12.031,-8.675
-31.476,-27.086,-22.161,-9.935,-18.337,-11.242,-8.29,0.258
-30.852,-26.461,-21.551,-7.254,-17.117,-8.27,-4.67,3.169
-34.624,-27.772,-23.523,-10.039,-17.444,-11.727,-1.787,0.164
-39.108,-30.391,-27.035,-15.768,-20.067,-18.915,-1.345,-6.186
-41.484,-32.624,-29.858,-20.197,-23.678,-25.022,-3.908,-11.476
-41.37,-31.923,-30.052,-20.982,-25.129,-27.107,-6.196,-12.328
-38.016,-27.315,-27.219,-18.859,-22.875,-25.735,-5.065,-9.369
-33.408,-22.778,-23.876,-16.212,-19.729,-23.6,-2.808,-5.97
-32.457,-22.679,-22.899,-15.024,-18.996,-22.903,-3.088,-4.487
-36.479,-26.262,-24.181,-15.228,-20.346,-23.275,-5.841,-4.962
-41.294,-30.253,-25.474,-14.532,-21.496,-22.004,-8.31,-4.875
-42.173,-32.323,-24.738,-10.953,-20.676,-17.419,-7.328,-1.343
-39.293,-32.372,-22.563,-6.31,-18.233,-12.264,-2.868,3.507
-37.929,-33.096,-21.952,-4.767,-16.737,-10.954,0.849,4.351
-41.274,-36.262,-23.879,-7.235,-17.349,-13.699,0.977,0.783
-45.604,-39.815,-25.595,-10.316,-18.023,-16.687,-0.726,-2.443
-46.207,-41.417,-24.016,-10.474,-16.543,-16.865,-1.359,-1.917
-43.138,-40.27,-18.212,-6.529,-12.105,-13.597,0.808,2.575
-38.49,-35.6,-10.121,-0.031,-5.587,-8.46,5.319,8.534
-34.034,-29.034,-4.54,4.294,-0.777,-5.928,8.301,10.316
-31.092,-24.73,-4.823,2.352,-0.939,-9.387,6.801,4.965
-28.017,-22.944,-7.603,-2.922,-3.493,-15.315,3.371,-2.582
-20.728,-18.658,-5.339,-3.543,-1.931,-16.339,3.205,-4.919
-8.743,-9.316,4.347,3.296,6.475,-10.314,8.806,0.679
1.782,-0.207,13.977,10.89,15.892,-3.312,16.2,9.779
4.699,2.387,15.75,12.713,18.651,-0.989,18.622,15.53
1.096,0.03,11.928,10.565,15.136,-1.392,15.562,16.177
-4.039,-2.469,8.074,7.587,10.342,-1.75,11.311,13.002
-7.819,-4.3,4.516,3.123,6.072,-3.511,7.477,6.442
-9.65,-6.173,0.705,-1.59,2.363,-6.333,4.225,-0.757
-9.712,-7.46,-1.291,-2.297,0.621,-6.164,4.067,-2.469
-9.058,-7.913,-1.001,1.762,1.156,-1.711,7.896,3.677
-9.068,-8.407,-1.074,5.785,1.523,2.328,10.852,10.288
-9.202,-9.48,-2.337,6.193,0.569,2.086,8.578,9.381
-7.518,-10.388,-1.925,5.435,0.682,0.636,4.149,4.116
-4.561,-10.538,1.39,6.659,3.584,1.836,3.065,2.339
-3.717,-11.016,4.745,8.505,7.308,3.818,5.004,5.152
-5.42,-11.931,6.811,8.948,10.261,4.244,6.751,8.493
-5.555,-11.367,10.069,8.697,14.107,4.444,9.034,9.534
-3.383,-10.078,13.939,7.687,18.246,4.474,12.327,7.443
-2.228,-9.799,15.387,5.376,19.83,3.214,13.96,4.035
-1.263,-7.562,17.188,4.795,21.257,3.384,15.258,4.448
1.419,-2.116,21.583,7.585,24.553,6.652,18.448,9.552
2.959,0.959,22.834,9.424,24.256,8.972,19.001,12.723
2.144,-0.578,18.722,8.277,18.302,8.62,14.477,11.189
1.729,-1.835,14.744,8.054,12.741,9.079,10.071,9.217
1.836,-0.962,11.977,9.71,9.645,10.744,7.931,7.864
0.708,-0.995,6.761,9.859,5.344,10.925,4.979,5.702
-0.548,-2.212,0.092,8.147,0.047,10.165,1.621,5.383
0.453,-1.298,-2.906,7.526,-1.731,10.715,1.602,9.036
4.758,3.494,0.69,9.689,2.235,12.912,5.787,14.105
11.155,9.737,7.602,12.601,8.351,14.691,10.096,15.937
15.683,13.336,10.404,11.773,10.061,12.917,9.019,11.352
15.5,13.218,7.081,7.129,6.326,8.387,2.88,3.804
13.043,11.869,4.168,4.759,3.317,6.413,-2.05,0.558
11.646,10.627,5.827,6.688,4.285,8.254,-3.148,0.658
10.318,7.833,8.59,7.923,6.054,9.601,-3.346,-2.658
7.866,3.54,10.346,7.316,7.591,9.849,-2.791,-6.857
6.232,0.787,13.073,8.765,10.952,12.076,1.091,-3.641
6.188,0.423,15.843,11.694,14.392,14.995,5.897,4.417
6.288,1.073,16.307,13.097,15.272,16.242,7.586,8.269
6.682,3.158,16.171,14.738,15.498,18.433,8.103,8.112
7.869,5.831,16.477,17.794,16.054,22.512,9.541,8.781
7.768,5.239,14.367,18.398,13.836,23.909,8.799,9.127
5.255,1.692,9.721,15.609,8.784,21.39,5.031,7.446
2.722,-0.114,6.349,13.49,5.211,19.164,2.013,5.958
2.382,0.772,5.718,13.28,5.032,18.828,1.902,6.029
4.129,1.938,6.321,12.63,6.635,18.078,3.784,7.125
6.823,2.747,6.851,10.617,8.299,15.61,5.564,7.946
9.403,3.826,6.823,8.409,9.367,12.612,5.505,6.894
