EEG 1,EEG 2,EEG 3,EEG 4,EEG 5,EEG 6,EEG 7,EEG 8
12.706,14.137,7.471,6.04,4.331,4.318,5.321,-2.373
13.285,13.684,7.079,6.577,9.674,6.793,10.426,1.682
8.387,8.293,2.321,2.408,6.023,4.563,4.986,3.16
6.975,6.348,0.412,0.233,1.737,2.934,-1.459,3.871
11.32,8.911,2.094,1.395,0.681,2.823,-2.02,1.637
14.4,10.272,0.75,0.915,-3.125,0.792,-2.98,-5.052
14.812,10.64,-2.166,-0.972,-7.656,-1.486,-6.59,-10.239
15.701,12.269,-0.515,-1.139,-5.557,-1.215,-6.474,-8.297
14.656,11.502,0.964,-2.261,-2.522,-1.744,-3.763,-3.751
10.095,6.459,-4.332,-6.726,-6.83,-5.618,-4.755,-2.952
6.808,2.171,-11.215,-10.405,-12.98,-9.078,-8.221,-4.115
8.232,3.111,-12.586,-9.922,-12.918,-8.751,-8.795,-3.578
11.405,7.12,-10.539,-8.085,-8.924,-6.504,-5.302,-1.262
12.248,9.32,-9.541,-7.632,-6.927,-4.359,-0.926,4.365
11.439,9.039,-9.034,-7.078,-7.186,-1.648,0.859,13.89
10.025,7.734,-9.241,-8.141,-8.379,-2.303,-1.721,16.321
6.815,5.887,-12.888,-14.882,-11.731,-11.452,-7.21,1.325
4.954,6.06,-16.943,-21.938,-14.958,-21.742,-10.115,-18.438
8.276,9.877,-15.602,-20.634,-13.699,-22.126,-7.118,-23.314
12.176,13.431,-11.263,-14.14,-10.831,-15.788,-3.886,-15.816
11.3,13.479,-10.295,-10.584,-11.547,-11.776,-7.136,-10.368
9.603,12.76,-11.702,-9.18,-12.798,-9.648,-11.734,-9.17
12.048,13.78,-10.594,-6.053,-10.201,-6.22,-9.067,-6.83
15.472,14.316,-7.273,-3.102,-7.129,-4.055,-2.655,-3.677
15.098,12.774,-5.828,-3.059,-7.586,-4.916,-1.317,-2.65
12.035,10.826,-8.018,-4.94,-9.883,-6.507,-4.944,-3.257
10.898,10.542,-10.514,-4.957,-10.803,-5.576,-6.388,-1.289
13.675,13.218,-9.029,-0.088,-9.051,-0.382,-2.312,5.364
16.156,16.593,-5.854,5.304,-6.148,4.761,2.441,9.809
13.611,15.7,-5.566,4.65,-4.345,4.113,3.115,6.116
9.548,11.707,-5.24,0.904,-2.419,0.277,2.397,-0.268
9.627,10.845,-1.262,0.384,-0.108,-1.323,2.402,-2.972
10.949,12.967,1.703,2.577,-1.388,-0.084,0.102,-1.554
7.923,12.088,-0.997,3.352,-5.614,1.186,-4.071,0.02
3.038,7.977,-5.973,0.966,-6.946,-0.897,-5.986,-4.396
2.517,6.649,-7.358,-1.868,-4.495,-5.219,-5.572,-12.082
5.8,9.387,-5.176,-2.344,-1.89,-7.361,-5.621,-13.635
9.401,13.307,-2.276,-0.572,0.501,-5.031,-4.921,-7.444
15.997,19.962,3.904,5.021,5.657,3.476,0.648,3.508
26.809,29.426,13.843,13.207,12.411,14.012,8.5,13.518
33.892,34.291,18.82,14.812,14.976,14.349,10.677,11.385
32.654,31.69,15.805,8.063,13.017,4.257,8.081,-0.08
28.325,27.492,12.094,3.572,11.362,-1.515,7.796,-2.803
24.77,24.441,10.205,4.449,10.287,0.387,8.371,3.147
22.01,21.395,8.217,4.634,8.272,1.269,4.906,3.436
20.916,19.45,7.963,4.702,7.541,1.754,-0.249,1.513
20.804,18.609,9.733,7.774,8.415,6.406,-3.107,6.004
20.921,17.9,11.845,11.558,9.515,11.67,-2.529,10.073
23.162,19.151,15.441,14.516,12.901,14.122,0.437,8.667
26.166,21.979,18.097,15.163,16.381,13.144,-0.855,5.266
27.389,23.266,16.213,11.307,14.788,8.588,-9.072,1.587
30.051,24.188,15.262,7.595,12.949,5.216,-11.952,-0.907
34.365,26.708,18.787,7.923,15.255,4.867,-1.92,-4.851
32.535,27.165,18.527,6.49,13.309,1.129,8.112,-15.058
23.592,23.444,10.768,1.332,2.883,-5.098,8.794,-22.707
18.377,21.186,6.212,1.264,-4.743,-3.292,10.075,-15.498
22.549,24.51,12.275,9.577,-0.345,7.355,17.272,0.249
28.558,28.577,20.202,16.905,9.148,15.048,20.251,9.339
28.6,27.449,19.78,15.723,12.163,12.955,14.782,8.004
24.92,22.98,15.281,10.743,9.137,7.236,10.01,3.804
23.055,20.342,15.458,9.956,8.578,6.204,12.059,3.696
21.35,18.723,16.287,11.518,10.269,8.099,13.727,5.617
14.962,13.815,9.923,8.299,7.018,5.803,6.62,3.601
8.061,8.456,3.812,3.301,2.784,1.595,-0.896,0.996
10.92,11.416,10.816,7.85,8.697,6.315,5.557,8.22
22.511,22.285,25.763,22.222,20.691,20.61,19.982,24.873
28.838,28.491,31.31,31.213,24.11,29.222,24.867,36.009
23.165,23.063,23.606,24.805,17.686,21.872,19.408,29.895
15.412,14.495,15.527,12.295,12.223,8.533,15.111,12.832
15.157,12.525,15.372,7.312,11.81,3.323,14.941,0.727
16.891,14.018,17.609,9.602,12.451,5.783,15.044,-0.188
13.39,12.359,16.768,12.497,12.517,9.319,14.888,5.231
9.085,9.109,14.189,14.077,11.011,11.894,12.116,10.609
7.275,6.482,10.491,12.683,4.724,10.806,3.068,9.882
2.247,1.619,4.28,5.574,-4.384,2.393,-7.608,-1.278
-8.641,-6.715,-4.486,-4.99,-11.262,-9.98,-15.351,-18.565
-18.457,-13.437,-10.79,-10.616,-13.561,-15.724,-19.544,-26.555
-18.557,-11.368,-6.214,-4.27,-8.732,-8.265,-14.303,-14.855
-10.163,-2.083,6.62,8.9,1.326,4.732,-0.102,3.06
-3.564,3.766,14.464,15.737,8.043,9.94,9.922,7.139
-2.999,2.346,14.357,13.737,8.409,7.058,10.599,1.295
-3.56,-0.527,14.459,11.463,6.95,5.954,8.648,0.626
-3.678,-3.283,16.732,11.651,6.43,8.677,7.083,5.05
-5.516,-7.866,16.756,11.355,7.296,10.615,5.547,9.335
-7.041,-10.546,14.481,11.474,9.628,11.51,6.96,14.176
-6.155,-8.47,13.09,12.429,11.789,12.03,11.894,16.347
-5.984,-6.616,12.81,10.769,12.424,9.832,15.764,12.017
-10.206,-10.186,10.779,5.366,10.645,4.635,14.708,6.523
-17.718,-16.974,4.922,-1.371,5.065,-1.306,9.107,4.184
-22.477,-19.828,-0.847,-5.715,-0.733,-5.027,4.127,2.733
-20.525,-16.231,-1.15,-4.775,-1.485,-3.914,3.666,2.828
-15.85,-11.744,0.612,-1.562,-0.721,-0.977,3.701,4.21
-12.358,-9.423,-0.107,0.274,-2.125,0.384,1.88,5.432
-8.598,-6.224,0.402,4.348,-1.01,4.776,2.581,14.079
-6.799,-3.683,2.401,10.194,2,11.689,4.436,28.847
-12.201,-7.191,-1.943,6.488,-1.663,8.125,1.34,26.131
-21.13,-14.427,-13.549,-10.659,-12.139,-10.468,-6.338,-4.735
-25.631,-18.76,-23.043,-27.102,-20.073,-28.656,-13.827,-36.19
-26.764,-20.565,-24.831,-29.873,-20.756,-32.338,-16.918,-39.873
-29.386,-23.525,-21.968,-23.763,-17.422,-26.309,-14.122,-24.001
-31.618,-26.18,-17.388,-18.796,-13.126,-19.925,-8.256,-9.474
-29.77,-25.519,-10.942,-16.45,-8.645,-14.336,-2.761,-1.617
-25.659,-22.352,-4.544,-14.845,-6.069,-10.325,1.605,0.613
-23.324,-19.535,-1.926,-13.832,-5.831,-9.942,4.738,-2.315
-22.934,-18.537,-2.239,-12.194,-4.872,-10.101,6.445,-4.301
-21.461,-18.179,0.126,-6.469,-2.842,-4.815,8.274,4.309
-18.501,-17.227,5.323,2.978,-1.459,5.031,11.217,21.584
-17.333,-17.262,6.075,7.481,0.466,8.719,13.903,29.976
-19.696,-20.186,1.249,0.752,2.399,-0.134,15.449,18.71
-23.867,-25.307,-2.926,-10.863,-0.242,-13.035,13.083,-1.685
-26.641,-29.161,-3.979,-14.95,-6.026,-16.526,6.305,-9.398
-23.609,-26.257,1.438,-3.086,-2.513,-3.767,11.232,10.857
-14.751,-16.896,14.884,17.343,13.464,16.628,33.759,41.715
-10.294,-12.41,18.44,19.671,18.512,18.947,34.316,37.31
-16.878,-18.963,-2.917,-6.915,-4.007,-7.172,-9.859,-9.628
-24.901,-25.512,-27.643,-32.221,-30.034,-32.971,-48.136,-46.001
-25.213,-22.855,-30.305,-30.295,-32.973,-33.114,-41.251,-40.744
-22.805,-17.324,-20.759,-15.93,-24.158,-20.894,-21.464,-22.068
-21.817,-14.19,-15.285,-7.511,-20.278,-13.342,-16.637,-12.616
-17.286,-9.018,-8.459,-0.085,-13.554,-5.814,-10.146,-2.145
-9.227,-1.537,3.542,9.163,-1.288,3.191,5.163,10.958
-5.603,1.098,8.461,10.874,-0.991,3.437,9.551,12.259
-8.596,-3.438,0.389,4.661,-15.405,-3.392,-2.846,4.921
-10.556,-7.703,-7.588,4.074,-20.871,-0.373,-10.093,11.549
-5.862,-4.71,-3.044,15.526,-5.489,16.534,3.755,36.112
-3.263,-2.031,4.422,22.158,10.422,24.175,19.65,43.817
-14.57,-12.18,-3.257,4.235,4.377,2.828,8.644,6.137
-30.724,-27.423,-19.275,-24.276,-14.785,-28.022,-18.561,-42.352
-33.482,-30.055,-19.824,-29.459,-21.634,-32.582,-25.017,-44.291
-26.272,-23.095,-4.405,-7.848,-12.359,-9.911,-6.636,-4.273
-25.477,-22.222,6.033,12.516,-2.24,10.312,8.895,27.784
-31.468,-28.191,3.473,13.836,0.914,11.168,8.482,28.128
-32.451,-30.606,-4.141,1.629,-2.439,-1.282,-1.704,4.828
-26.173,-27.086,-9.391,-9.922,-9.578,-14.051,-12.906,-24.249
-19.29,-22.255,-7.964,-10.112,-14.708,-16.228,-14.365,-35.432
-14.682,-17.951,-0.7,-0.635,-15.278,-7.194,-4.054,-19.781
-11.443,-13.818,4.695,9.156,-11.537,3.906,5.711,5.178
-10.656,-11.279,4.521,14.952,-4.251,10.066,7.897,18.709
-14.06,-12.468,3.069,15.079,0.684,8.442,7.024,14.051
-19.505,-16.29,1.692,7.58,-0.339,-0.427,5.505,-1.59
-22.318,-18.17,-1.745,-2.471,-2.11,-9.001,1.609,-13.091
-21.059,-15.501,-3.629,-5.696,-0.121,-8.843,-1.813,-10.237
-18.565,-10.777,0.522,-0.105,3.792,-0.29,1.31,4.659
-17.421,-7.572,6.909,7.383,5.993,8.739,9.373,20.037
-18.247,-7.417,7.957,8.277,4.643,9.78,11.8,21.568
-21.606,-10.732,1.858,0.128,0.344,1.098,3.193,5.23
-26.496,-15.993,-5.3,-9.686,-4.366,-8.493,-7.978,-12.353
-28.852,-19.042,-6.82,-11.527,-6.439,-8.817,-10.534,-11.771
-26.65,-17.244,-3.363,-5.387,-4.358,-0.711,-4.033,4.756
-23.016,-13.391,-1.28,-0.571,-0.987,5.735,2.229,17.847
-20.655,-11.721,-4.373,-4.437,-2.12,2.141,-0.144,11.169
-18.935,-12.162,-9.918,-13.535,-8.79,-8.745,-8.89,-10.194
-18.461,-13.368,-13.103,-19.081,-15.524,-16.481,-14.053,-23.817
-20.451,-16.093,-13.137,-19.747,-18.342,-17.569,-11.793,-21.861
-21.37,-18.554,-12.437,-19.72,-17.601,-16.447,-7.654,-17.054
-17.209,-16.664,-11.781,-18.773,-13.847,-14.615,-5.569,-14.091
-10.803,-11.558,-9.923,-14.809,-8.675,-10.857,-3.631,-5.849
-8.331,-8.863,-7.682,-10.141,-6.324,-6.468,-1.384,4.852
-12.4,-11.137,-8.689,-8.805,-8.379,-4.276,-0.444,6.059
-20.847,-16.603,-14.142,-11.11,-11.776,-5.318,-0.025,-1.327
-29.215,-22.24,-19.794,-12.789,-14.247,-6.197,-0.669,-2.945
-34.108,-25.051,-20.88,-10.867,-15.566,-3.615,-3.805,5.075
-35.501,-24.404,-18.707,-9.818,-15.689,-2.378,-7.102,8.648
-35.238,-22.993,-17.724,-13.864,-15.525,-7.185,-9.165,-0.107
-34.572,-23.028,-18.164,-18.373,-15.985,-12.656,-11.076,-10.074
-34.311,-24.274,-18.374,-20.186,-17.101,-15.436,-11.929,-15.893
-33.303,-24.914,-17.735,-21.586,-17.391,-18.106,-9.591,-23.05
-29.091,-23.23,-14.514,-20.393,-14.503,-17.42,-3.866,-23.912
-23.887,-20.873,-9.978,-15.764,-10.414,-12.343,1.21,-13.09
-22.141,-21.025,-9.23,-14.232,-9.239,-11.047,1.218,-6.525
-21.75,-22.11,-11.435,-15.992,-9.102,-13.379,-0.3,-9.544
-17.876,-20.225,-9.723,-13.245,-5.643,-9.828,3.404,-6.382
-12.262,-16.844,-3.099,-6.832,-0.683,-2.549,10.285,4.342
-8.74,-15.484,3.244,-4.922,-0.359,-1.969,13.82,7.821
-5.364,-14.07,7.246,-6.848,-5.732,-6.042,14.13,4.076
-0.669,-10.23,9.079,-5.88,-8.989,-5.027,14.684,5.503
-0.063,-8.648,6.678,-3.572,-3.856,-0.432,14.783,12.044
-6.668,-13.614,0.045,-6.675,3.755,-1.786,12.437,12.738
-14.143,-20.795,-6.051,-14.599,5.643,-10.044,9.39,5.645
-14.981,-22.902,-7.144,-20.033,4.667,-16.278,9.283,1.35
-8.209,-17.802,-2.119,-18.218,6.998,-13.746,13.201,8.133
1.194,-9.848,5.663,-11.897,10.143,-5.615,18.344,20.84
4.555,-6.694,7.098,-9.432,7.512,-2.002,19.67,25.709
-2.527,-11.328,-2.661,-15.27,-0.272,-8.146,14.216,16.49
-11.946,-17.007,-13.808,-22.64,-5.556,-16.774,6.235,3.24
-13.436,-17.002,-15.206,-23.988,-5.406,-19.818,3.21,-3.155
-9.674,-14.723,-10.522,-22.397,-5.455,-20.151,5.193,-6.527
-8.191,-14.239,-8.373,-21.672,-8.579,-20.688,6.011,-11.391
-7.598,-11.326,-8.182,-18.005,-9.022,-16.751,4.362,-11.006
-4.964,-5.275,-6.702,-11.348,-4.211,-9.146,3.855,-3.456
-3.874,-3.187,-6.476,-8.484,-1.647,-6.236,4.427,1.303
-5.103,-4.46,-8.566,-9.295,-5.754,-7.755,4.426,-0.397
-3.68,-1.76,-8.57,-7.432,-10.171,-5.88,6.324,-0.62
0.961,2.664,-5.261,-4.093,-8.887,-1.693,10.658,3.104
4.14,2.063,-2.525,-4.65,-3.753,-1.829,13.196,5.512
4.615,-0.75,-1.269,-6.665,0.955,-3.798,13.743,8.196
4.537,-0.906,0.544,-5.997,3.026,-2.264,14.864,14.002
3.081,-1.881,1.421,-6.095,1.766,-1.121,14.137,15.248
-0.16,-5.798,-0.113,-8.936,-1.2,-3.798,10.467,8.996
-2.459,-8.39,-2.221,-11.344,-3.425,-6.832,7.214,3.256
-4.655,-9.761,-5.009,-14.782,-5.459,-10.403,4.256,-0.725
-7.939,-12.416,-7.911,-19.935,-7.2,-15.015,1.098,-4.662
-7.436,-12.017,-5.542,-19.022,-4.103,-13.647,3.325,-2.37
-0.59,-4.998,3.805,-8.84,5.514,-3.934,14.038,7.199
5.112,1.755,11.421,0.07,12.879,3.535,23.541,12.754
0.651,-0.5,8.087,-2.747,7.683,-0.67,19.586,5.506
-9.546,-7.634,-0.961,-11.194,-4.267,-9.735,7.799,-6.339
-11.745,-8.112,-2.634,-11.516,-7.461,-10.114,4.364,-7.174
-4.687,-1.41,3.414,-4.072,-1.277,-2.084,10.315,2.643
-0.85,2.784,6.422,-0.325,2.297,3.13,14.173,8.702
-5.151,0.191,3.236,-3.216,0.25,1.75,13.334,6.171
-9.929,-4.987,0.574,-6.62,-1.452,-1.288,13.934,2.857
-10.781,-8.933,1.142,-8.498,-2.295,-3.647,15.804,2.568
-11.789,-11.579,0.001,-10.297,-5.493,-4.997,13.844,4.636
-14.348,-12.998,-4.066,-9.367,-7.349,-1.788,10.446,11.888
-14.561,-12.956,-5.021,-4.575,-3.275,5.314,11.239,21.42
-12.856,-13.047,-2.3,-1.922,1.698,7.897,12.632,21.581
-13.502,-14.476,-3.898,-5.031,1.025,2.671,7.193,10.102
-14.884,-15.281,-10.755,-9.458,-3.559,-3.657,-2.827,-2.071
-13.483,-14.178,-15.46,-12.597,-9.079,-7.557,-9.22,-9.848
-11.621,-12.523,-15.678,-15.073,-14.436,-10.167,-9.84,-15.055
-9.787,-9.065,-13.066,-12.175,-13.489,-7.074,-6.969,-12.884
-4.923,-2.546,-8.98,-3.723,-3.949,1.041,-2.401,-5.654
0.448,2.347,-6.263,0.059,4.146,3.068,1.914,-6.988
1.947,1.753,-5.642,-2.264,3.85,-0.868,5.053,-12.569
-0.252,-2.322,-5.822,-2.804,-1.447,-1.258,5.51,-9.109
-3.773,-6.307,-7.294,-2.055,-6.976,0.027,1.72,-4.335
-3.934,-5.991,-8.019,-2.598,-7.364,-1.047,-1.429,-6.334
1.844,0.488,-3.887,0.215,-1.142,1.077,1.616,-4.016
7.498,7.201,2.475,7.355,4.137,8.655,6.336,8.322
7.995,8.509,5.266,12.297,5.487,14.613,6.66,17.981
8.082,8.293,5.642,12.238,8.401,14.634,6.256,15.951
11.422,10.61,7.456,10.581,12.087,12.411,9.342,10.88
14.014,11.89,10.519,9.084,10.373,11.141,10.957,12.416
14.866,11.581,13.05,8.884,4.46,11.164,6.101,17.611
17.126,14.447,10.135,10.109,-0.164,10.374,-2.489,15.272
17.148,16.588,-3.138,4.35,-4.57,0.953,-10.131,-4.157
9.25,9.186,-20.402,-11.808,-12.432,-16.79,-14.819,-31.085
-2.321,-3.364,-30.836,-24.026,-19.724,-26.92,-17.521,-42.935
-8.589,-8.406,-32.632,-22.031,-20.158,-21.947,-20.707,-36.99
-7.439,-4.139,-28.74,-13.279,-15.96,-11.807,-23.107,-26.882
-2.789,1.903,-20.86,-5.42,-12.136,-4.012,-19.913,-17.187
2.803,7.074,-11.906,2.682,-7.203,2.781,-11.111,-7.877
9.373,13.565,-5.179,11.355,1.141,8.912,-2.328,-3.327
16.476,20.215,-0.091,16.946,9.889,11.89,3.871,-4.284
22.8,24.459,6.248,18.991,16.313,12.818,9.598,-3.303
26.704,27.07,12.898,20.892,20.243,15.666,13.905,5.449
25.548,27.87,14.278,22.218,19.586,18.905,11.263,15.037
18.73,24.217,8.33,19.85,13.843,17.62,1.768,14.769
12.369,18.835,2.64,17.217,10.281,14.869,-3.765,9.113
13.14,18.126,4.712,19.494,14.565,16.817,1.545,9.347
16.426,19.231,8.783,21.463,18.8,18.668,7.369,11.641
13.205,14.721,5.913,17.576,14.79,15.108,2.814,9.803
7.117,9.56,1.242,15.545,10.23,14.503,-3.503,13.266
7.451,12.571,3.753,20.789,12.758,21.37,0.008,24.332
11.027,17.559,9.125,24.027,13.208,24.601,5.363,25.786
8.308,13.694,7.506,16.984,1.834,16.11,-1.286,7.014
0.016,4.198,-2.296,3.185,-13.792,0.588,-16.994,-22.728
-5.686,-1.286,-13.732,-8.601,-19.395,-12.507,-26.84,-44.893
-6.016,-1.438,-19.41,-11.893,-13.571,-15.811,-23.584,-46.912
-4.328,0.214,-16.753,-6.791,-5.94,-9.316,-13.725,-32.083
-4.437,1.447,-11.992,0.019,-2.217,-0.317,-7.6,-12.828
-7.916,-0.214,-13.05,1.549,-2.656,3.816,-10.218,-1.298
-9.842,-2.491,-15.892,-0.991,-4.274,2.443,-16.23,-3.305
-3.178,1.708,-10.689,-0.01,-0.304,1.387,-14.521,-10.986
8.182,10.748,-0.393,6.679,9.821,5.647,-4.355,-10.487
15.582,17.928,6.325,15.955,19.024,16.04,5.775,3.383
18.895,23.528,10.465,25.271,23.356,28.342,12.492,22.909
18.612,25.205,12.295,27.548,20.551,31.399,13.072,30.624
11.798,16.81,5.991,16.353,10.073,18.604,3.025,15.695
3.975,5.884,-4.363,2.152,1.48,2.687,-9.681,-6.638
5.555,6.82,-6.151,2.734,4.126,2.66,-10.441,-8.36
14.419,16.347,0.456,14.849,9.721,14.728,-1.797,9.53
18.12,19.071,2.817,18.683,5.524,17.815,0.89,16.248
12.232,12.275,-3.49,10.086,-3.542,7.856,-5.285,2.215
3.836,5.677,-11.553,1.976,-6.723,-1.377,-10.62,-12.475
1.178,5.55,-14.402,1.74,-4.524,-2.438,-10.425,-15.62
5.606,10.334,-10.771,7.101,-1.31,2.675,-7.473,-10.034
8.527,12.862,-7.457,11.084,-1.005,7.532,-6.692,-4.117
2.524,8.447,-11.789,7.019,-7.35,4.681,-11.307,-7.836
-4.078,4.083,-18.82,-0.953,-13.472,-3.487,-15.841,-18.991
-0.097,7.879,-18.159,-0.836,-7.102,-5.115,-11.471,-22.453
7.835,14.288,-11.242,8.191,6.811,2.469,-2.368,-13.453
7.114,14.246,-8.252,13.677,11.204,7.784,-1.087,-5.345
0.563,9.808,-11.32,10.447,4.256,5.091,-8.334,-6.713
-1.716,7.496,-14.252,6.613,-1.864,2.008,-14.362,-9.627
-0.458,7.249,-15.737,6.586,-3.09,2.741,-15.544,-7.585
-1.552,6.281,-18.562,5.885,-3.784,2.456,-14.732,-5.765
-3.044,6.107,-20.685,3.313,-4.656,-0.555,-13.237,-7.94
-1.074,8.518,-19.009,3.091,-4.159,-2.007,-11.12,-9.099
1.435,10.284,-15.185,6.088,-2.831,0.223,-8.867,-5.173
0.217,7.607,-12.554,8.282,-1.752,3.012,-7.772,0.327
-3.625,2.641,-12.691,7.12,-1.771,2.718,-9.144,1.911
-6.38,0.237,-15.538,3.863,-3.512,-0.663,-12.317,-2.139
-7.204,0.527,-19.997,0.836,-7.263,-4.087,-16.128,-7.81
-6.418,1.701,-22.463,1.407,-10.971,-3.015,-17.949,-6.115
-3.413,3.965,-19.736,6.537,-10.281,2.796,-14.216,4.175
-1.104,4.799,-16.495,9.402,-6.961,4.66,-9.737,9.017
-3.443,1.076,-19.354,5.294,-8.47,-2.331,-12.666,0.07
-10.372,-6.428,-26.668,-2.171,-15.531,-12.817,-20.634,-15.041
-21.453,-17.266,-35.263,-12.542,-23.986,-25.377,-29.303,-32.435
-30.843,-26.299,-41.584,-22.804,-29.869,-37.253,-35.648,-47.921
-23.79,-19.979,-34.227,-16.959,-23.499,-32.078,-26.925,-42.792
1.247,3.369,-10.011,9.684,-1.269,-4.662,0.745,-12.28
21.75,23.293,12.225,34.67,18.888,21.72,24.392,16.782
21.072,23.884,15.835,39.233,19.522,27.039,24.766,22.943
8.919,13.495,6.074,30.702,8.589,18.302,11.728,13.87
0.279,6.264,-4.671,22.216,2.608,9.255,1.754,3.284
-2.561,4.295,-10.323,17.026,3.597,4.038,-2.593,-3.981
-2.288,4.244,-10.155,16.154,5.641,3.861,-3.607,-4.164
0.157,5.249,-7.687,19.76,6.548,8.341,-1.922,2.854
3.627,7.558,-6.846,23.689,5.994,13.272,-0.701,8.882
6.23,8.955,-7.771,24.297,3.748,15.174,-3.146,7.803
6.497,5.831,-9.262,21.352,1.398,13.256,-7.442,2.038
4.877,-0.006,-10.677,16.796,0.894,9.056,-9.291,-3.055
3.708,-1.842,-10.131,14.236,1.888,6.579,-7.161,-4.375
2.742,0.568,-7.595,14.105,1.118,6.595,-4.943,-4.282
-1.258,0.395,-7.583,11.839,-3.35,4.34,-7.734,-7.634
-6.248,-2.546,-11.326,7.41,-7.431,-0.145,-12.874,-11.51
-5.216,-0.782,-13.194,7.329,-6.179,0.156,-13.246,-8.511
1.286,6.193,-10.625,12.652,-1.198,6.252,-9.076,-0.413
3.846,8.928,-8.146,16.151,1.921,10.507,-6.459,4.588
-2.949,1.164,-10.302,11.194,-0.701,6.131,-9.517,0.74
-13.298,-10.541,-16.212,-0.118,-6.955,-4.856,-16.529,-10.974
-15.454,-12.602,-18.849,-4.891,-7.753,-9.207,-18.154,-16.625
-6.171,-2.569,-14.112,3.383,0.147,-0.309,-9.922,-6.911
2.875,5.705,-9.803,10.045,5.345,5.974,-3.644,-0.037
2.522,3.854,-13.182,3.509,-0.175,-2.284,-8.724,-11.197
-0.034,1.268,-17.886,-3.802,-7.137,-10.509,-16.193,-21.531
3.531,5.758,-16.426,-0.636,-5.876,-6.001,-16.785,-14.315
8.224,10.262,-13.177,3.591,-1.869,0.189,-15.409,-5.3
6.974,7.451,-14.919,-0.128,-4.085,-2.829,-17.815,-9.844
2.807,1.946,-19.482,-5.417,-10.468,-8.354,-20.499,-17.7
2.352,1.276,-20.372,-4.323,-12.674,-7.49,-18.85,-15.72
6.011,4.915,-16.891,1.282,-8.448,-1.678,-14.437,-7.056
9.295,7.514,-14.276,4.449,-4.135,2.553,-12.498,-1.946
11.075,8.548,-13.596,3.342,-3.629,2.832,-14.009,-2.888
14.24,11.972,-10.399,3.2,-2.32,2.691,-13.704,-4.16
17.211,16.334,-6.034,5.85,1.044,3.584,-10.493,-3.948
14.946,15.643,-6.567,6.567,0.03,2.679,-10.507,-5.437
8.463,10.436,-10.867,3.669,-6.118,-0.445,-15.5,-8.852
3.663,7.14,-12.746,1.059,-9.925,-3.037,-19.45,-12.577
3.486,8.487,-10.871,2.399,-7.576,-1.844,-18.221,-13.298
5.705,11.194,-8.819,6.826,-2.934,4.316,-15.026,-7.054
6.558,11.433,-8.564,10.08,-0.359,11.206,-14.27,2.41
5.584,9.479,-8.517,9.693,0.455,12.648,-14.634,5.314
4.342,7.109,-7.55,5.832,1.472,7.046,-13.433,-2.529
2.881,4.512,-6.141,0.278,2.621,-0.769,-12.362,-13.739
1.906,3.031,-4.007,-2.705,3.36,-3.806,-13.011,-17.23
2.155,3.737,-2.618,-2.228,3.296,-2.746,-14.873,-14.436
1.807,4.266,-5.355,-2.864,1.365,-3.877,-18.609,-15.068
2.272,5.072,-8.891,-3.291,-0.084,-4.197,-21.855,-14.692
7.469,9.483,-6.158,2.044,3.144,2.916,-19.303,-3.538
13.083,13.425,-0.478,7.36,7.777,9.466,-13.561,6.292
11.749,10.33,0.033,3.268,7.787,4.295,-12.589,-1.825
5.795,3.326,-2.956,-5.094,5.519,-5.964,-15.953,-17.03
1.067,-1.543,-4.374,-7.915,4.9,-9.2,-18.086,-20.146
-2.228,-4.728,-5.108,-6.55,3.66,-6.915,-18.922,-14.297
-4.496,-7.136,-5.26,-6.05,1.397,-5.684,-19.284,-11.138
-3.121,-6.135,-1.497,-5.537,2.315,-4.751,-16.13,-9.438
2.44,-1.424,4.901,-3.167,6.749,-1.639,-10.063,-4.356
7.118,2.431,7.582,-1.869,9.517,0.487,-7.75,-0.397
6.069,1.932,4.6,-4.01,7.459,-1.269,-11.237,-2.088
3.044,0.129,2.192,-5.164,4.549,-2.323,-12.869,-3.564
3.63,0.576,4.33,-2.492,4.755,0.566,-9.01,-0.513
5.323,1.516,6.377,-0.885,5.672,2.021,-6.98,1.201
4.836,1.471,4.909,-2.399,5.465,-0.351,-9.921,-0.981
3.64,0.567,1.979,-3.731,4.894,-1.976,-12.452,-2.618
2.57,-1.647,-1.067,-4.542,2.954,-1.787,-13.309,-3.161
1.435,-2.969,-3.761,-5.565,0.243,-1.545,-15.282,-3.573
1.069,-0.948,-4.391,-4.899,-0.253,-0.039,-17.115,-0.787
1.782,2.237,-2.549,-2.951,1.175,2.111,-16.356,3.88
3.109,3.418,0.287,-3.32,2.295,0.822,-13.774,3.434
4.193,2.228,2.704,-6.252,3.787,-3.592,-11.002,-1.861
4.764,0.401,4.48,-7.441,6.908,-5.151,-8.899,-3.473
6.945,0.697,7.387,-5.015,10.79,-1.747,-7.477,0.849
11.979,4.002,12.058,-2.918,14.173,0.555,-6.47,2.069
16.838,8.348,15.688,-3.5,16.643,-1.55,-5.902,-3.662
17.562,11.297,16.143,-3.828,17.64,-2.896,-5.024,-6.454
13.009,9.982,13.163,-3.813,15.235,-2.035,-4.216,-2.561
6.098,3.549,8.01,-5.855,10.188,-2.97,-4.904,0.125
2.463,-2.412,5.532,-6.346,8.163,-2.894,-4.696,2.557
3.741,-2.692,7.705,-2.616,10.235,1.688,-1.807,8.925
3.855,-2.199,7.051,-2.055,8.844,2.951,-2.045,9.452
-2.281,-7.662,-1.476,-9.875,-0.141,-5.362,-9.782,-1.796
-11.121,-15.679,-10.83,-19.822,-10.776,-16.544,-19.221,-14.944
-16.576,-19.338,-13.979,-25.341,-15.654,-22.951,-23.677,-22.694
-17.483,-18.675,-12.844,-26.089,-14.142,-23.66,-24.673,-25.143
-16.841,-18.58,-11.969,-24.565,-11.582,-21.074,-26.955,-23.932
-17.101,-20.732,-12.637,-23.717,-12.341,-18.764,-30.794,-23.795
-17.994,-22.002,-13.391,-23.461,-14.942,-17.474,-32.495,-26.133
-18.618,-20.899,-13.228,-21.359,-15.743,-14.592,-30.004,-24.714
-17.443,-18.629,-11.503,-17.032,-12.781,-9.48,-24.468,-15.733
-11.099,-13.412,-5.482,-10.953,-4.367,-3.525,-16.245,-2.902
1.596,-2.066,6.779,-2.502,9.35,3.513,-3.974,9.204
15.073,11.239,20.334,6.211,22.369,10.836,9.089,18.07
20.354,15.54,25.686,9.222,26.748,13.792,14.199,21.224
15.953,8.669,22.005,5.578,23.175,11.393,9.193,19.906
10.11,1.838,19.863,3.169,20.96,10.344,3.082,20.619
6.81,0.459,23.327,5.334,23.239,12.805,2.296,24.536
1.904,-1.801,23.892,4.862,23.165,11.775,4.082,23.524
-3.361,-5.472,18.899,0.102,18.755,6.746,5.471,16.394
-3.119,-4.675,15.726,-0.777,15.146,5.916,4.375,13.137
-0.881,-2.928,14.117,0.675,11.392,6.57,-3.211,11.584
-4.468,-7.839,6.573,-7.322,3.464,-3.107,-15.407,-3.321
-10.158,-14.457,-3.205,-21.567,-3.495,-18.457,-23.345,-25.541
-9.065,-12.918,-4.506,-25.132,-2.695,-22.115,-22.741,-29.791
-4.596,-6.679,0.142,-17.148,0.962,-14,-18.279,-15.814
-5.826,-5.583,0.44,-12.871,-0.746,-9.067,-15.897,-9.014
-10.675,-8.837,-2.899,-15.662,-5.257,-10.314,-16.382,-15.775
-12.23,-9.646,-2.889,-15.554,-5.672,-9.284,-16.952,-18.519
-11.879,-7.938,0.308,-10.734,-2.962,-5.092,-15.913,-11.193
-14.886,-8.839,1.562,-9.383,-2.825,-4.666,-15.187,-6.946
-20.89,-13.262,-0.271,-13.227,-5.967,-8.89,-16.888,-11.401
-23.827,-15.402,-0.396,-13.937,-6.907,-10.191,-18.304,-13.129
-20.087,-11.534,4.056,-7.439,-2.938,-4.716,-16.219,-5.637
-13.712,-5.366,9.212,-0.237,1.678,2.247,-12.141,2.163
-10.106,-0.897,11.732,2.342,3.901,5.735,-7.579,3.631
-10.178,0.768,11.918,1.886,4.501,5.951,-3.259,2.895
-13.852,-2.585,7.999,-1.439,1.491,2.452,-4.541,1.708
-20.924,-11.16,-1.116,-9.234,-7.319,-5.403,-14.978,-4.276
-26.532,-18.593,-8.767,-16.514,-16.388,-12.339,-25.85,-13.156
-24.185,-18.236,-6.544,-15.264,-16.681,-11.022,-24.847,-14.145
-14.888,-11.54,4.389,-5.958,-7.169,-1.943,-12.929,-2.323
-6.782,-5.507,14.616,2.253,3.439,6.018,-2.058,11.443
-3.914,-3.368,18.47,4.007,7.81,6.968,1.53,15.134
-3.13,-3.022,17.852,3.037,7.104,4.572,1.23,10.888
-3.39,-3.579,14.028,1.626,3.783,2.114,-0.708,3.645
-6.056,-5.188,7.417,-1.818,-1.76,-1.604,-4.572,-4.783
-8.047,-5.461,3.132,-3.945,-6.464,-3.651,-7.3,-7.101
-6.697,-4.038,4.533,-1.062,-7.243,-0.291,-6.694,-0.414
-5.387,-4.764,7.071,2.264,-5.383,4.242,-5.918,5.216
-6.768,-8.485,6.151,0.693,-3.962,4.062,-7.852,3.296
-7.988,-10.651,4.624,-2.547,-3.381,1.316,-9.719,1.385
-6.818,-8.928,6.711,-1.84,-1.65,1.567,-7.06,6.428
-5.274,-6.462,10.33,1.415,1.272,4.362,-0.917,13.257
-5.712,-6.489,10.58,1.517,2.725,4.497,2.62,13.345
-7.689,-8.074,6.941,-3.145,1.23,-0.083,0.636,5.48
-8.255,-7.727,3.843,-7.812,-1.056,-5.19,-2.665,-3.453
-5.421,-4.374,4.921,-7.513,-0.801,-5.393,-2.819,-6.122
-0.856,-0.265,9.268,-2.712,2.565,-0.145,-0.461,-2.555
2.085,2.009,12.8,1.695,5.593,5.251,0.964,0.934
1.395,0.973,12.024,1.324,4.188,4.944,-1.296,-0.749
-1.757,-1.975,8.88,-2.412,0.001,0.125,-5.399,-4.981
-4.019,-3.665,8.442,-4.421,-1.409,-2.781,-6.522,-5.174
-4.407,-4.207,9.885,-4.368,-0.186,-2.219,-4.855,-1.186
-4.751,-5.57,8.531,-6.188,-0.932,-2.269,-4.573,1.481
-4.887,-6.289,5.745,-9.661,-2.926,-3.764,-5.313,1.87
-2.799,-4.143,6.136,-10.242,-1.958,-2.946,-3.392,4.056
0.515,-1.263,8.467,-6.671,0.838,1.144,0.034,7.944
1.17,-2.165,7.874,-3.799,0.364,3.503,-0.366,7.685
-2.172,-7.985,3.886,-6.116,-4.383,0.137,-5.583,1.722
-5.019,-12.938,1.444,-9.725,-7.717,-3.652,-9.899,-1.737
-1.761,-9.561,3.991,-7.335,-4.595,-0.452,-8.101,3.53
5.682,-0.056,7.823,-1.563,0.446,5.164,-2.325,9.346
9.857,5.723,7.983,-1.336,0.198,3.786,1.11,5.359
9.157,5.123,7.123,-6.259,-1.923,-2.274,1.143,-3.463
8.418,3.963,9.781,-9.087,0.794,-5.105,1.81,-7.231
9.366,4.495,12.586,-9.326,4.662,-5.32,3.022,-6.574
10.043,4.791,11.321,-10.513,3.94,-6.584,1.983,-5.109
10.094,5.448,9.79,-11.217,2.311,-6.762,0.826,-1.833
8.174,5.667,9.901,-10.604,2.816,-5.304,1.156,1.343
1.113,0.99,5.572,-13.506,-0.43,-7.632,-1.907,-1.819
-8.297,-7.539,-3.884,-20.786,-9.456,-14.143,-9.728,-10.589
-11.23,-11.223,-8.753,-24.424,-14.937,-16.479,-14.009,-14.972
-5.257,-6.141,-4.634,-19.873,-11.361,-11.174,-10.398,-10.117
0.976,-0.078,-0.021,-14.213,-6.67,-5.769,-6.069,-3.551
1.622,0.248,-0.641,-13.823,-7.027,-5.11,-5.045,-1.651
0.92,-1.83,-1.672,-15.925,-7.913,-5.737,-3.392,-2.044
0.583,-3.695,-1.307,-18.139,-6.92,-6.665,-2.353,-2.829
-2.682,-6.637,-3.154,-21.336,-7.22,-9.576,-5.865,-4.623
-5.894,-7.604,-5.696,-23.867,-8.614,-12.609,-10.001,-6.754
-3.232,-3.798,-4.739,-23.955,-8.24,-14.256,-9.477,-8.312
4.194,1.267,0.419,-21.257,-4.339,-13.885,-3.772,-5.933
12.571,5.572,9.359,-14.117,4.465,-8.058,6.834,4.816
19.644,10.725,19.01,-4.403,15.209,2.272,18.876,19.463
21.586,14.115,22.468,0.193,19.533,7.662,24.62,25.918
17.329,12.469,18.526,-2.89,14.86,3.212,21.885,19.066
11.729,8.818,12.876,-7.752,7.375,-4.789,14.359,4.981
6.379,5.229,7.188,-11.246,0.211,-10.091,3.683,-7.997
-0.03,0.244,1.105,-14.28,-6.949,-12.031,-6.553,-14.733
-2.491,-2.91,-0.856,-14.509,-10.176,-10.225,-9.374,-13.18
2.786,-0.556,3.135,-10.362,-7.269,-5.13,-4.648,-5.52
9.764,3.495,7.735,-6.29,-3.252,-1.397,0.517,1.064
10.633,2.795,6.238,-8.661,-4.904,-4.948,-0.794,-2.273
2.901,-5.727,-4.738,-20.185,-15.327,-16.956,-12.036,-18.236
-10.195,-19.229,-20.359,-35.169,-30.257,-30.083,-28.298,-37.043
-22.44,-30.686,-30.805,-43.311,-40.771,-35.348,-38.316,-44.933
-28.111,-34.228,-30.693,-40.159,-40.047,-30.939,-34.741,-37.837
-21.001,-25.854,-17.628,-26.369,-24.684,-17.879,-16.856,-18.9
1.186,-5.596,8.62,-3.053,3.022,3.701,11.181,9.273
28.594,17.888,39.364,24.19,32.687,28.86,40.398,40.952
44.969,32.095,59.595,44.047,50.583,47.121,58.63,62.801
41.628,29.925,59.623,47.091,48.123,50.124,56.913,62.806
23.533,13.932,42.683,33.628,29.656,38.141,38.295,43.563
5.637,-3.511,23.694,15.736,11.636,21.524,18.31,22.442
0.859,-8.308,17.746,8.594,8.372,14.226,12.696,16.735
7.165,-0.559,24.896,14.127,17.672,19.167,21.657,26.404
10.732,4.377,30.384,18.199,24.09,23.255,29.364,33.22
4.212,-2.25,24.701,10.822,18.257,15.787,25.147,23.79
-5.276,-11.372,14.993,0.213,7.361,4.376,16.41,7.489
-7.945,-12.353,11.52,-1.59,2.545,1.981,13.414,0.79
-2.866,-6.716,14.583,4.195,4.974,8.287,15.397,5.047
3.69,-1.993,18.293,8.323,8.539,13.615,16.81,10.329
6.011,-1.714,18.503,6.818,8.966,13.186,15.892,10.766
3.976,-3.893,16.12,2.909,7.463,9.825,14.709,8.617
1.756,-5.325,14.751,0.26,7.236,6.81,14.946,7.645
2.485,-5.134,15.773,-0.459,8.82,5.095,15.878,8.339
5.777,-3.935,18.003,0.442,10.667,5.444,16.592,9.671
9.343,-2.153,20.084,2.687,11.52,7.677,17.208,10.997
10.358,-1.281,20.222,4.506,10.371,9.208,17.204,11.158
8.179,-2.244,17.604,4.029,7.539,8.239,15.779,9.296
7.367,-1.601,15.589,3.3,6.311,7.437,14.72,7.764
11.523,2.75,17.747,5.472,9.086,9.755,16.86,9.755
15.676,5.08,21.168,7.928,12.583,11.924,20.284,12.853
13.926,1.167,20.72,5.953,12.599,9.446,20.233,11.764
9.644,-2.721,17.895,2.026,10.937,5.379,17.67,7.9
8.642,-0.436,17.412,2.332,11.019,5.509,17.422,7.335
10.725,5.08,20.016,7.6,12.625,10.072,20.309,11.459
14.747,10.655,24.688,14.71,15.691,16.463,24.616,17.272
20.01,15.984,29.096,19.826,19.619,21.46,27.84,20.73
22.142,16.926,28.613,18.184,19.753,19.991,26.097,18.321
18.667,10.63,23.053,10.151,14.412,11.755,19.99,11.641
13.684,2.959,17.637,3.389,8.95,4.665,15.199,6.297
12.17,1.371,15.946,2.967,7.56,4.428,14.622,5.401
14.978,5.78,18.144,6.131,9.06,7.955,16.97,8.149
18.865,9.909,22.029,8.002,11.059,9.903,19.927,11.325
19.11,8.791,23.919,6.541,12.229,8.846,20.764,11.543
14.777,4.19,22.497,3.121,12.191,6.606,18.844,9.276
10.509,1.438,20.066,0.403,11.65,5.082,17.372,8.218
9.846,1.417,18.198,-1.403,10.821,3.804,18.291,9.188
10.689,0.699,16.235,-3.813,8.99,1.142,18.993,9.279
11.231,-0.836,15.32,-5.305,7.743,-1.17,17.86,8.282
13.836,0.496,18.138,-3.025,10.128,0.917,17.439,9.514
18.298,4.359,22.985,1.003,14.254,5.648,18.991,12.368
19.382,5.517,25.295,2.822,15.355,7.102,20.505,12.944
15.371,2.271,24.936,3.295,14.412,5.521,21.218,12.108
10.588,-1.013,24.113,3.921,14.546,4.301,21.509,11.69
7.408,-1.415,22.05,2.047,13.591,1.894,20.637,8.539
4.718,-1.02,19.051,-1.799,10.485,-1.854,19.871,4.112
3.623,-0.772,19.171,-0.801,10.096,-0.952,22.706,7.632
5.282,1.292,22.46,5.68,13.533,5.037,27.821,17.908
6.296,3.803,22.187,7.704,14.12,6.519,28.618,19.541
4.242,3.238,15.846,1.03,9.079,-0.13,23.624,9.131
2.369,0.839,9.953,-5.733,4.287,-6.243,18.956,1.926
3.602,0.428,8.948,-6.027,3.382,-5.868,17.896,4.62
5.747,2.02,9.523,-3.61,3.076,-3.152,17.669,7.845
5.863,2.531,8.919,-3.597,1.488,-3.049,16.854,6.545
4.926,0.485,9.401,-5.111,1.784,-4.162,17.912,6.612
5.294,-2.255,12.253,-4.814,5.447,-2.906,22.415,11.798
6.566,-3.427,14.417,-3.062,8.854,-0.349,27.654,16.549
7.113,-3.497,14.106,-2.277,9.548,0.374,29.911,15.802
6.947,-3.885,14.002,-1.453,9.985,0.566,29.856,14.019
6.148,-4.512,15.266,1.079,11.545,2.139,29.834,16.178
3.127,-5.449,14.25,2.083,10.885,1.772,27.961,17.495
-2.78,-7.994,8.935,-1.726,5.608,-3.11,21.805,12.033
-8.453,-11.615,3.584,-6.419,-0.884,-7.911,14.868,4.111
-9.607,-12.673,3.318,-5.564,-2.908,-6.695,13.129,2.59
-6.596,-9.553,6.786,0.111,-0.006,-0.95,16.468,8.171
-3.353,-4.948,9.251,4.561,2.959,3.222,19.28,13.365
-1.48,-1.501,9.781,5.221,2.906,4.129,19.221,13.623
-1.252,-1.062,8.204,3.009,-0.225,3.614,17.992,11.371
-3.319,-4.211,2.542,-1.324,-5.676,1.597,16.147,9.634
-5.284,-6.798,-4.132,-5.863,-10.382,-2.08,14.139,7.681
-3.885,-4.887,-4.698,-7.681,-10.009,-5.065,13.97,4.522
-0.495,-1.462,1.159,-6.157,-4.307,-4.943,15.956,3.057
0.795,-1.031,6.258,-3.515,1.269,-2.219,17.861,6.081
-1.615,-3.251,5.984,-2.218,1.562,-0.192,18.08,10.204
-5.726,-6.24,2.359,-3.153,-2.57,-1.644,16.623,9.046
-8.978,-9.587,-0.839,-5.083,-6.549,-5.353,14.391,2.78
-11.164,-12.444,-2.28,-5.394,-7.821,-7.466,13.31,-1.155
-12.887,-14.059,-2.27,-3.45,-7.128,-6.648,14.353,0.604
-13.179,-15.23,-1.06,-1.303,-5.711,-4.585,15.692,3.508
-12.1,-16.498,0.16,0.034,-4.447,-2.497,14.726,3.412
-13.086,-18.127,-1.558,0.527,-5.666,-1.676,9.955,-0.636
-17.923,-20.99,-7.36,-0.905,-10.862,-3.928,2.329,-7.805
-22.769,-24.146,-13.173,-3.663,-16.482,-8.113,-3.982,-14.2
-23.837,-24.804,-13.799,-4.219,-17.568,-9.769,-5.292,-15.482
-20.92,-21.202,-8.082,0.712,-12.886,-4.792,-0.134,-9.164
-13.738,-13.051,1.824,10.85,-4.036,6.376,11.642,4.577
-3.335,-2.161,11.512,20.78,4.99,17.198,24.705,18.608
5.487,7.17,16.258,24.873,9.815,21.44,31.001,24.688
9.112,11.358,15.726,23.854,10.468,19.946,30.718,24.828
7.844,9.795,12.848,20.942,9.139,16.493,29.199,24.804
4.72,5.295,10.384,17.106,7.314,13.078,28.173,24.937
3.806,2.276,11.222,13.982,8.051,11.671,28.565,24.866
4.449,0.409,14.759,12.391,11.704,12.046,30.508,24.563
2.673,-3.295,16.886,10.719,13.98,11.126,31.01,22.41
0.127,-6.189,17.692,9.745,14.176,9.256,29.768,19.951
-0.225,-6.282,18.942,10.199,14.365,8.529,28.937,19.505
-1.273,-7.807,18.103,8.63,13.224,6.902,27.622,18.193
-4.388,-10.963,13.724,4.085,9.674,2.787,24.316,13.407
-5.445,-10.057,9.149,1.241,6.192,0.156,20.263,8.586
-2.763,-4.682,7.574,2.819,5.36,2.502,17.744,8.035
0.257,-0.382,8.385,6.181,6.807,7.039,17.462,10.724
1.933,1.103,9.817,8.617,8.716,9.667,18.71,12.708
4.203,2.441,11.479,9.617,10.022,9.738,20.553,12.134
6.79,3.766,11.965,8.357,9.354,7.684,21.048,9.502
7.516,3.765,9.89,5.541,6.399,4.962,19.028,6.755
7.923,4.493,8.068,5.272,4.388,5.03,16.879,6.191
10.13,7.946,8.99,8.63,5.082,8.117,15.919,7.047
11.499,11.277,9.566,10.691,5.112,9.577,13.453,6.13
9.49,10.876,7.167,8.957,2.411,7.69,9.721,3.541
6.332,7.805,4.229,7.053,-0.25,6.289,8.589,2.797
4.761,5.244,2.685,7.04,-0.848,7.115,9.732,4.713
4.438,4.267,0.931,6.397,-1.013,7.046,10.053,6.288
4.408,4.801,-1.574,4.43,-2.182,4.91,9.89,6.459
4.919,6.676,-2.918,3.941,-3.577,4.095,11.008,7.61
5.513,8.119,-3.464,4.557,-5.149,5.15,11.867,8.703
4.864,7.197,-5.895,2.288,-7.833,3.421,9.618,4.719
3.227,5.12,-9.553,-1.974,-10.119,-1.283,5.913,-2.445
2.364,4.789,-10.139,-1.9,-8.948,-1.93,5.782,-2.914
3.257,6.621,-5.387,5.078,-3.695,5.348,10.759,8.202
3.649,6.983,0.258,12.239,1.274,13.527,15.218,20.983
-0.072,2.064,-1.026,9.985,-1.101,11.534,11.364,18.5
-5.036,-4.295,-7.925,2.454,-9.467,3.63,2.876,5.692
-4.764,-4.364,-10.623,3.491,-12.816,4.881,2.681,5.296
-2.176,-0.735,-9.26,9.107,-9.802,9.817,8.75,10.328
-4.56,-1.504,-12.432,5.082,-10.903,2.64,6.23,-2.26
-9.507,-4.849,-18.571,-2.924,-17.034,-8.036,-4.156,-18.933
-10.487,-4.911,-20.542,-2.892,-20.297,-7.586,-9.474,-18.595
-7.373,-2.945,-18.97,0.213,-19.982,-3.569,-7.63,-14.504
-3.462,-2.203,-17.247,-0.861,-19.825,-5.88,-5.087,-19.337
-0.104,-1.634,-15.271,-1.98,-19.594,-8.851,-3.882,-20.448
2.536,0.463,-12.688,0.537,-17.058,-6.782,-1.699,-10.676
2.3,1.303,-12.096,1.259,-14.181,-5.407,0.46,-3.369
-3.26,-3.179,-16.539,-5.198,-16.423,-10.577,-2.701,-9.307
-11.666,-11.051,-24.27,-14.966,-23.66,-18.504,-11.628,-21.711
-17.987,-16.834,-30.396,-21.241,-29.51,-23.425,-19.108,-28.937
-19.987,-18.168,-31.69,-22.214,-29.653,-24.184,-18.916,-27.02
-14.741,-12.89,-24.671,-16.386,-21.874,-18.683,-9.537,-15.917
0.251,0.957,-8.045,-2.152,-5.64,-5.17,6.906,2.317
17.647,16.337,9.045,13.066,10.914,8.622,22.24,18.666
26.428,23.161,15.775,19.265,17.41,13.249,28.273,24.571
26.497,22.349,14.398,18.012,15.596,11.074,26.835,22.591
23.329,19.517,11.96,15.332,12.678,8.23,22.965,18.186
17.803,14.662,8.356,11.125,8.919,4.606,16.144,11.09
11.915,9.253,3.592,6.524,4.199,1.323,8.122,3.566
11.772,9.725,3.001,7.742,3.94,3.791,6.387,3.107
17.359,15.782,7.223,14.311,8.675,10.308,11.44,9.298
20.174,18.261,8.719,16.33,10.202,10.59,13.519,10.896
16.361,14.029,4.781,10.679,5.487,2.544,8.315,3.597
12.563,10.316,2.719,6.437,1.927,-2.859,3.435,-2.662
14.831,11.813,6.714,8.763,4.803,0.333,5.268,-0.828
20.15,15.109,11.278,12.132,10.479,4.955,10.197,3.704
21.975,16.013,10.988,11.697,12.717,4.623,11.172,4.575
18.383,14.107,6.911,8.96,9.792,1.698,6.759,2.518
12.589,11.058,2.477,6.265,5.096,-0.809,1.529,-0.167
8.66,8.617,-0.279,4.036,2.195,-3.346,-0.317,-3.676
7.763,7.421,-0.547,3.543,1.516,-4.176,1.122,-6.512
7.886,6.992,0.878,5.994,1.679,-0.754,2.926,-5.916
7.79,7.379,1.972,8.876,1.914,3.107,2.708,-3.965
8.579,8.937,1.843,8.807,2.731,1.99,1.186,-4.321
10.198,10.556,1.416,6.804,4.385,-1.79,1.006,-5.354
10.994,11.035,2.256,6.367,6.074,-2.29,3.089,-3.82
10.048,10.354,4.358,7.549,6.687,0.172,5.316,-1.24
7.082,7.857,4.976,6.758,5.165,0.272,4.672,-1.621
2.99,3.133,2.303,3.068,1.764,-3.125,1.148,-4.904
0.022,-1.224,-1.232,0.6,-1.086,-5.217,-1.622,-6.872
-1.254,-2.412,-3.203,1.761,-2,-3.849,-1.952,-6.347
-2.103,-1.39,-4.925,3.384,-2.512,-2.799,-2.424,-6.612
-1.332,0.921,-6.424,3.809,-3.027,-2.651,-3.365,-7.451
3.155,6.081,-4.713,5.636,-2.015,0.626,-1.619,-4.94
7.936,11.432,-0.928,7.807,-0.423,4.46,1.469,-1.012
7.719,10.989,0.007,5.78,-0.614,2.023,1.114,-1.932
3.885,5.983,-2.515,0.604,-2.301,-4.434,-1.851,-7.067
1.409,3.358,-5.247,-2.235,-3.648,-7.141,-3.04,-9.753
1.515,5.047,-7.007,-0.932,-4.008,-4.979,-2.358,-7.23
1.425,6.655,-8.989,1.312,-4.607,-2.667,-3.002,-2.965
-1.172,4.634,-11.722,1.169,-6.959,-2.813,-5.939,-0.522
-4.328,0.743,-14.62,-1.143,-10.466,-4.093,-8.896,0.304
-5.125,-1.497,-17.315,-4.623,-13.043,-6.673,-10.349,-2.332
-4.145,-1.245,-17.986,-8.45,-12.565,-11.33,-10.118,-10.82
-2.226,0.84,-13.738,-8.538,-8.228,-12.749,-6.895,-16.538
0.586,3.146,-7.105,-3.657,-4.019,-7.617,-1.727,-10.812
2.251,2.989,-4.612,-0.088,-4.746,-2.912,0.982,-1.279
1.702,0.308,-6.212,-1.05,-6.42,-3.98,0.868,1.779
0.519,-2.14,-6.504,-3.063,-2.718,-7.756,1.831,-1.304
0.261,-2.926,-4.796,-4.164,2.679,-10.589,4.297,-5.674
2.71,-2.261,-3.648,-4.792,4.401,-11.483,5.984,-7.596
8.379,-0.631,-2.244,-4.443,5.418,-10.692,7.165,-6.341
14.295,1.215,1.496,-2.024,8.912,-8.382,9.054,-2.401
19.338,4.122,7.756,3.571,13.666,-3.055,12.435,5.78
26.022,10.036,15.1,11.331,18.975,4.827,17.808,16.386
31.933,15.911,18.849,15.661,22.467,8.836,21.244,20.439
31.272,15.444,15.2,12.872,20.282,4.989,17.791,14.306
26.6,9.895,8.449,7.389,14.704,-1.364,10.906,5.939
25.39,6.711,4.682,3.861,10.809,-5.432,7.543,0.749
29.175,8.613,4.062,2.092,9.841,-7.661,8.42,-1.836
35.393,12.824,5.69,2.903,12.567,-6.696,11.175,0.299
41.506,16.348,9.334,6.981,18.388,-2.058,14.524,6.006
43.955,16.53,11.461,9.739,21.388,0.471,15.866,6.211
40.642,11.619,9.272,7.791,17.869,-2.206,12.923,-0.305
34.572,4.743,5.754,5.314,12.496,-4.45,8.056,-2.833
30.634,2.116,5.333,6.379,11.081,-2.605,6.418,0.685
29.561,3.809,8.37,8.333,14.026,-0.64,10.325,2.037
28.751,4.154,12.114,7.959,18.383,-1.04,16.456,1.437
27.385,2.385,14.411,6.645,21.526,-1.228,19.829,5.215
25.033,1.3,14.085,5.089,21.691,-1.329,18.463,10.008
19.573,-0.513,10.41,0.801,17.947,-5.369,12.952,5.905
12.331,-4.035,5.359,-5.408,12.098,-12.812,6.397,-6.789
9.624,-4.709,3.44,-7.364,8.33,-16.436,3.811,-14.536
14.982,1.053,7.13,-1.186,9.449,-11.301,7.403,-7.927
22.77,8.992,13.074,7.608,13.675,-3.073,13.18,3.588
25.081,12.548,15.957,11.209,16.518,-0.12,15.591,5.975
23.336,12.8,15.809,11.702,17.017,0.005,14.638,2.924
23.082,13.579,14.907,14.398,16.791,3.167,12.905,5.215
22.621,12.709,11.739,16.094,14.198,5.571,9.933,9.501
18.992,9.132,5.613,12.161,8.375,1.65,5.434,6.276
15.531,7.292,0.264,5.457,3.621,-5.317,1.635,-2.592
15.087,8.031,-1.492,1.378,2.977,-8.752,-0.235,-7.196
15.933,7.735,-0.896,1.431,4.204,-7.338,-1.27,-4.287
16.872,5.896,0.062,3.277,4.76,-4.879,-2.075,-0.21
18.786,4.847,1.221,4.469,5.453,-4.229,-1.221,-0.05
21.252,5.479,2.736,5.398,7.409,-3.8,1.654,-0.5
22.14,6.86,4.084,7.667,9.595,-1.154,4.39,3.856
19.71,6.933,4.587,10.178,10.485,2.344,5.545,10.363
14.072,3.79,3.445,10.009,9.751,3.238,5.653,11.147
7.717,-1.265,0.952,7.409,8.104,1.138,4.989,5.369
3.534,-4.314,-0.838,5.541,6.095,-1.363,3.215,-1.37
2.812,-2.918,0.481,6.7,5.22,-1.638,2.581,-4.815
3.987,1.277,4.384,10.296,7.085,0.89,5.298,-3.905
2.372,2.927,5.833,11.969,8.474,2.599,7.231,-2.547
-3.326,-0.74,2.504,9.055,5.7,0.406,4.601,-4.539
-7.306,-5.092,-0.148,5.916,2.417,-2.109,2.431,-5.349
-6.466,-5.294,1.742,6.793,2.616,-0.85,5.302,0.957
-5.791,-3.629,3.136,7.995,2.486,0.933,7.654,9.166
-9.531,-4.649,-2.226,2.872,-2.719,-2.843,2.215,6.483
-15.773,-8.716,-12.645,-8.104,-11.404,-11.53,-8.828,-7.881
-20.004,-12.629,-20.63,-17.234,-18.383,-18.662,-17.394,-19.88
-18.089,-12.072,-20.736,-18.65,-18.703,-20.252,-18.332,-21.699
-9.065,-4.664,-12.989,-11.676,-10.519,-15.054,-10.966,-15.027
1.07,4.939,-2.981,-0.005,0.407,-4.21,0.403,-2.322
4.062,7.861,1.882,8.87,5.083,5.155,7.244,8.942
-0.452,2.622,0.028,10.294,2.802,6.946,5.202,11.761
-6.809,-4.038,-4.748,6.574,-1.009,3.612,-2.364,9.437
-12.028,-8.115,-9.595,1.52,-4.415,-0.683,-9.715,5.809
-15.152,-10.551,-12.632,-3.282,-6.945,-5.861,-12.228,-2.226
-15.422,-11.683,-12.795,-6.885,-7.255,-11.39,-10.003,-14.053
-15.288,-11.638,-12.714,-9.068,-7.781,-14.803,-7.97,-22.008
-17.402,-11.683,-15.118,-10.535,-11.492,-15.416,-7.822,-22.598
-20.169,-11.992,-17.73,-10.643,-15.163,-13.789,-6.886,-18.602
-21.828,-12.498,-18.058,-8.884,-15.354,-10.783,-6.125,-13.478
-23.649,-13.861,-18.494,-7.444,-15.094,-8.627,-8.949,-10.657
-26.019,-15.219,-21.124,-7.992,-17.18,-8.867,-13.146,-12.042
-27.891,-15.975,-24.665,-10.434,-20.427,-11.651,-15.057,-17.083
-30.344,-18.22,-28.268,-14.924,-24.64,-16.733,-17.317,-23.614
-33.705,-21.639,-31.248,-19.763,-29.134,-21.515,-22.146,-27.073
-34.235,-21.31,-31.714,-20.996,-29.76,-21.993,-24.947,-23.965
-29.872,-15.855,-29.36,-17.929,-25.008,-18.329,-22.244,-17.641
-24.579,-11.279,-26.738,-15.171,-19.993,-15.595,-18.391,-15.653
-22.019,-11.217,-25.849,-15.424,-18.871,-16.092,-18.215,-18.673
-20.254,-10.789,-24.903,-14.319,-18.791,-14.999,-19.237,-17.629
-18.744,-7.75,-23.211,-9.439,-17.872,-9.57,-18.862,-9.373
-21.68,-7.967,-24.597,-6.697,-19.878,-5.79,-19.947,-4.854
-26.26,-10.46,-27.294,-7.215,-22.841,-5.747,-20.409,-8.147
-23.24,-5.54,-23.465,-2.576,-18.929,-1.363,-13.775,-5.968
-14.968,5.748,-15.527,6.923,-10.953,7.877,-4.605,5.606
-12.935,11.237,-14.121,9.635,-9.829,10.338,-3.407,10.332
-18.264,6.715,-20.187,2.171,-17.018,2.218,-10.002,-0.007
-21.972,-0.113,-26.078,-7.19,-24.465,-7.618,-16.627,-14.462
-20.14,-2.484,-28.832,-11.958,-26.759,-12.208,-19.569,-22.529
-17.75,-2.427,-30.666,-12.288,-25.206,-12.079,-20.47,-23.244
-19.338,-3.894,-32.011,-10.667,-23.388,-10.212,-21.258,-19.542
-22.695,-4.885,-31.583,-8.564,-22.795,-8.008,-21.963,-14.881
-24.436,-3.089,-30.559,-6.964,-23.396,-5.7,-22.633,-12.151
-26.11,-2.079,-31.905,-7.923,-26.255,-5.19,-24.169,-13.524
-28.961,-3.898,-35.258,-11.408,-31.343,-7.636,-26.177,-18.215
-28.945,-3.917,-36.212,-12.785,-34.302,-9.199,-26.018,-20.255
-23.913,0.474,-32.932,-9.182,-31.51,-6.193,-22.445,-15.587
-18.9,4.863,-29.189,-4.583,-26.155,-1.646,-18.85,-9.384
-18.805,4.47,-28.731,-4.515,-24.57,-1.41,-19.522,-9.175
-21.788,-0.367,-30.855,-9.216,-28.562,-6.531,-23.607,-14.666
-22.563,-4.35,-31.786,-13.009,-32.198,-11.52,-25.597,-18.92
-18.985,-2.37,-28.855,-10.471,-28.515,-10.285,-22.243,-16.914
-14.81,2.826,-24.577,-4.469,-20.947,-4.352,-17.516,-11.386
-15.34,3.3,-24.351,-3.337,-19.207,-1.717,-17.603,-9.485
-19.819,-1.828,-28.48,-8.668,-23.836,-5.692,-21.961,-13.374
-21.852,-5.136,-31.102,-13.17,-26.798,-10.191,-24.579,-17.493
-18.962,-3.162,-28.826,-11.663,-24.879,-9.283,-22.945,-16.683
-16.292,-1.035,-25.274,-7.123,-22.105,-5.3,-20.164,-12.593
-18.426,-3.629,-25.208,-5.188,-22.144,-3.716,-19.774,-10.596
-22.916,-8.504,-28.32,-7.148,-24.306,-5.105,-21.779,-13.022
-23.924,-9.112,-29.894,-8.167,-24.752,-4.554,-22.251,-14.433
-19.956,-3.824,-27.014,-3.66,-21.689,1.168,-18.814,-7.619
-15.855,1.538,-23.12,2.463,-18.933,7.244,-15.999,2.655
-15.803,2.723,-23.193,2.675,-20.367,6.593,-18.705,3.336
-17.643,2.63,-25.963,-2.726,-23.664,0.086,-23.74,-7.708
-16.719,4.899,-25.229,-6.449,-23.67,-4.644,-24.043,-17.856
-12.971,7.9,-19.301,-4.592,-20.113,-3.297,-18.799,-16.492
-10.446,8.848,-13.921,-0.907,-16.966,0.382,-14.513,-8.693
-10.479,8.962,-12.976,0.106,-15.055,1.572,-14.963,-6.036
-11.116,9.423,-13.924,-0.649,-13.192,1.102,-16.772,-9.023
-12.254,7.83,-14.417,-1.013,-13.198,1.266,-17.183,-10.133
-15.988,2.509,-15.625,-2.954,-16.384,0.117,-18.078,-9.43
-22.579,-4.792,-18.604,-8.75,-20.896,-4.866,-21.064,-13.063
-28.071,-10.142,-21.35,-14.146,-24.151,-9.675,-23.986,-18.151
-28.193,-9.992,-20.847,-13.117,-23.968,-8.243,-23.984,-16.537
-25.667,-6.983,-18.624,-9.273,-21.358,-4.265,-22.515,-12.415
-26.63,-8.068,-19.473,-10.526,-20.343,-5.873,-23.142,-15.131
-29.452,-12.4,-22.455,-14.273,-20.811,-10.016,-24.483,-20.18
-28.517,-12.707,-22.151,-13.005,-19.348,-8.509,-22.626,-18.16
-25.509,-8.856,-18.871,-8.223,-16.631,-3.112,-18.906,-11.739
-24.647,-6.347,-16.543,-5.057,-14.847,0.523,-17.059,-7.892
-24.39,-5.554,-14.745,-3.026,-13.01,2.827,-17.096,-6.611
-22.688,-3.889,-11.901,-0.846,-10.651,4.452,-17.77,-6.618
-21.426,-2.536,-9.473,-0.32,-9.469,3.226,-18.923,-8.85
-21.169,-2.738,-7.733,-1.063,-8.865,1.428,-18.851,-10.426
-19.179,-1.447,-4.422,0.494,-5.92,4.298,-15.451,-6.878
-15.012,3.017,-0.617,4.272,-1.706,10.126,-11.249,-0.979
-12.638,6.273,-1.21,5.45,-1.596,11.834,-11.386,0.603
-13.909,4.727,-5.907,3.01,-6.16,8.497,-14.763,-1.464
-14.827,2.161,-7.494,2.424,-8.744,6.364,-15.324,-0.847
-11.917,4.049,-2.768,7.318,-4.936,9.393,-12.674,4.104
-7.113,9.594,3.341,14.441,1.764,15.142,-11.143,8.541
-5.255,12.635,5.104,17.461,3.652,17.904,-11.816,6.888
-8.947,9.346,1.006,13.39,-3.045,14.171,-14.074,-1.766
-15.345,2.869,-6.666,4.721,-12.648,5.485,-18.877,-14.058
-19.652,-1.602,-13.942,-3.596,-17.291,-3.079,-24.931,-24.299
-20.04,-2.242,-17.36,-7.147,-17.022,-5.943,-27.386,-26.089
-16.851,1.031,-15.345,-4.192,-14.672,-1.639,-23.697,-19.094
-12.614,6.268,-10.333,2.193,-10.186,4.987,-17.654,-10.642
-13.186,7.399,-9.367,4.808,-7.783,6.549,-16.554,-8.116
-20.277,2.215,-15.958,-0.471,-13.518,0.363,-22.778,-12.664
-27.076,-2.666,-23.661,-8.835,-22.972,-7.907,-30.109,-18.97
-27.87,-1.959,-24.684,-12.507,-26.063,-10.408,-31.73,-20.796
-23.697,2.943,-19.469,-9.061,-20.902,-5.204,-26.996,-15.978
-18.307,8.865,-14.14,-1.861,-14.067,3.352,-20.058,-7.638
-14.988,12.579,-12.452,3.905,-11.433,9.483,-16.122,-2.076
-15.593,11.053,-13.798,4.592,-13.472,9.655,-17.519,-3.042
-19.693,5.121,-17.05,0.296,-17.03,4.416,-21.643,-8.282
-22.499,1.405,-19.205,-3.494,-17.449,-0.075,-22.765,-11.295
-18.921,4.75,-15.783,-1.254,-12.616,2.114,-18.146,-7.548
-13.596,9.14,-9.8,3.016,-8.009,6.738,-12.866,-1.294
-15.46,5.93,-9.128,1.406,-9.86,5.348,-13.012,-0.205
-21.883,-1.3,-13.018,-4.128,-14.374,-0.365,-16.336,-3.701
-22.931,-2.577,-13.947,-5.426,-14.377,-1.89,-16.854,-4.537
-18.546,1.531,-10.933,-1.747,-12.063,2.082,-14.274,-0.009
-16.73,1.896,-9.896,-0.103,-13.767,4.006,-12.924,2.965
-18.082,-2.518,-11.387,-2.807,-16.328,0.336,-13.676,-1.271
-16.973,-4.164,-9.416,-3.876,-12.215,-2.465,-12.923,-5.803
-14.096,-1.402,-3.702,-0.722,-4.355,-0.138,-10.181,-3.234
-13.982,0.787,-0.384,2.021,-0.918,2.87,-8.866,1.926
-15.313,1.162,-1.094,2.07,-2.029,3.126,-9.656,3.034
-14.332,2.011,-2.558,1.522,-3.793,2.152,-10.878,-0.325
-12.775,2.518,-3.675,1.146,-5.93,1.63,-12.599,-4.994
-14.351,0.522,-4.829,0.78,-8.066,2.462,-14.857,-6.8
-16.932,-1.585,-4.432,2.013,-7.675,5.238,-15.376,-4.343
-15.88,0.117,-1.761,5.36,-5.105,8.795,-12.667,-1.369
-12.475,4.278,0.688,8.721,-3.301,11.47,-8.68,0.289
-11.545,6.493,1.122,10.744,-2.77,13.06,-6.036,4.297
-13.315,5.092,0.896,10.459,-2.185,12.111,-5.789,8.432
-14.512,1.755,1.557,6.667,-0.963,7.079,-7.079,4.891
-14.899,-0.988,2.555,1.951,0.983,1.994,-7.429,-2.867
-15.964,-2.33,2.45,0.23,2.558,1.433,-6.852,-5.26
-16.005,-2.866,1.504,1.15,2.467,3.415,-7.469,-3.27
-13.09,-2.717,1.687,2.347,1.932,4.379,-8.147,-2.243
-9.265,-2.172,3.508,2.796,2.813,4.189,-6.918,-1.772
-6.486,-1.349,5.76,2.803,4.605,4.435,-4.975,0.147
-3.237,0.734,7.597,3.248,5.387,5.828,-3.736,2.611
1.058,3.427,7.993,4.044,4.36,6.992,-2.885,3.924
3.978,4.262,6.592,4.326,2.937,6.533,-2.331,4.295
4.022,2.887,5.006,3.748,2.576,5.064,-2.781,4.618
2.824,1.956,4.33,3.061,3.164,4.483,-3.535,5.66
3.484,3.99,4.377,3.778,4.436,6.224,-2.734,8.31
6.135,7.147,4.341,4.825,5.13,8.027,-1.613,10.366
6.831,6.72,2.764,2.952,2.969,5.93,-3.533,7.674
3.723,2.569,-0.174,-0.835,-1.133,1.317,-7.598,0.999
-0.192,-0.737,-2.142,-2.223,-3.362,-0.735,-9.195,-3.828
-2.051,-0.86,-1.125,-0.559,-2.035,1.348,-6.762,-2.787
-2.444,0.637,2.448,1.017,0.443,4.525,-3.963,1.486
-3.289,1.319,5.495,-0.043,0.367,4.51,-4.369,2.151
-4.318,0.324,6.717,-2.911,-1.829,0.889,-6.256,-2.173
-3.514,-0.867,8.362,-4.119,-1.382,-1.584,-6.103,-4.191
-0.785,-0.491,10.213,-2.638,2.729,-0.474,-4.393,-0.489
1.683,1.046,9.477,-1.065,5.962,1.278,-3.267,2.786
2.472,1.81,7.295,-0.409,6.427,2.147,-2.423,2.681
1.912,0.552,6.984,0.164,6.588,3.026,-0.954,3.492
0.591,-2.519,8.499,0.008,6.899,3.099,0.362,6.778
-0.947,-5.956,9.584,-1.208,5.676,1.817,0.427,9.151
-1.804,-7.586,8.858,-2.531,4.218,0.15,-0.681,7.69
-1.17,-6.161,7.142,-3.404,5.349,-1.297,-1.704,3.984
1.106,-2.746,6.591,-3.103,8.187,-1.319,-1.456,3.057
2.748,-0.558,6.437,-2.422,8.856,-0.278,-0.901,4.937
0.75,-1.874,3.93,-4.067,5.506,-1.576,-1.552,4.434
-2.158,-3.912,1.446,-6.721,1.337,-4.501,-1.78,2.677
0.442,-1.461,4.365,-5.077,1.85,-2.78,1.1,6.085
8.001,5.119,10.917,0.992,7.366,4.638,5.566,13.172
12.073,8.489,12.702,4.085,10.758,9.255,6.141,14.928
8.344,4.275,7.338,0.339,7.328,5.43,1.065,9.073
2.43,-2.075,1.865,-4.862,2.053,-1.127,-4.074,2.097
0.176,-4.136,0.659,-7.211,0.351,-4.311,-5.089,-2.408
0.514,-2.995,0.684,-8.5,0.536,-5.563,-4.305,-5.146
1.083,-2.035,0.304,-9.513,0.656,-6.639,-3.511,-5.454
2.28,-1.605,2.038,-8.899,2.384,-6.313,-1.649,-3.322
4.001,-1.347,6.046,-7.257,5.387,-4.408,0.316,-0.961
4.823,-1.839,8.586,-5.772,6.12,-2.054,0.434,0.661
4.844,-2.75,7.718,-4.32,4.042,-0.144,-0.151,2.399
5.732,-2.22,6.163,-2.68,3.412,0.879,1.458,4.918
7.902,0.774,7.346,-0.764,6.64,1.611,5.843,8.129
9.311,3.98,10.517,0.861,9.484,2.339,9.853,10.771
8.449,4.344,12.241,0.936,7.869,2.08,10.348,11.23
7.082,2.607,11.719,0.004,6.222,1.083,8.51,10.01
7.012,1.215,10.55,-0.485,9.13,0.647,6.771,9.038
7.367,0.511,9.388,-0.789,12.109,0.734,4.719,9.124
7.126,0.287,7.872,-1.625,11.02,0.533,2.35,9.332
6.35,0.594,5.259,-3.428,8.17,-0.933,1.244,7.035
5.28,0.999,1.898,-6.231,5.445,-3.913,0.672,1.646
4.449,1.454,0.7,-8.162,3.33,-6.073,-0.52,-2.281
4.77,2.132,3.742,-7.034,4.06,-4.702,-0.289,-1.538
6.725,2.656,9.209,-3.231,8.381,-0.457,2.688,1.871
9.139,2.648,13.554,0.494,12.534,3.328,5.339,5.579
9.628,1.76,13.856,1.219,12.296,4.13,4.424,7.49
7.571,-0.429,10.002,-1.005,8.566,2.489,1.321,5.569
5.242,-3.15,5.842,-3.161,6.213,0.488,-0.397,1.302
4.381,-4.83,4.385,-3.45,7.449,-0.936,0.368,-1.424
3.869,-5.52,4.414,-2.227,9.759,-1.08,2.489,-0.061
2.949,-6.172,5.232,0.429,11.261,1.395,5.073,4.903
3.46,-6.36,8.64,4.329,13.108,5.885,7.264,9.909
6.052,-5.827,13.493,7.85,15.473,9.402,7.737,11.32
8.419,-5.643,15.554,9.634,16.578,10.5,6.495,9.82
9.419,-5.931,13.872,10.004,15.672,10.435,5.11,8.847
10.89,-5.079,12.136,10.126,14.159,10.201,4.601,8.879
14.034,-1.912,13.868,11.429,14.409,10.284,5.238,8.859
16.549,1.921,17.472,13.539,16.41,10.611,6.603,8.401
15.92,3.767,18.39,13.815,17.665,9.804,7.516,6.175
13.375,3.926,16.672,12.24,17.683,8.631,8.084,3.907
11.169,3.65,15.834,11.156,17.049,9.167,9.013,5.508
9.753,2.686,15.929,10.103,15.075,9.772,9.412,9.242
8.67,1.356,14.472,7.615,12.727,7.907,8.382,10.379
6.992,-0.133,11.241,4.637,11.576,4.721,6.49,8.135
4.273,-2.717,8.545,2.983,10.953,3.445,5.136,5.586
0.931,-6.609,7.337,2.546,9.909,4.616,4.592,4.554
-1.938,-10.172,6.572,1.896,8.793,5.298,3.672,3.143
-1.105,-9.603,7.86,2.971,9.714,6.337,3.969,3.04
5.222,-3.489,12.822,8.29,13.843,11.52,7.575,8.896
11.762,2.194,16.462,12.56,17.066,16.343,10.092,15.2
12.217,1.709,14.157,9.654,15.21,13.495,7.17,12.199
8.418,-1.806,9.797,4.097,10.822,6.978,2.922,3.472
6.217,-2.724,8.122,2.946,8.297,5.068,2.313,-0.556
7.193,-0.608,8.027,5.221,8.384,7.791,3.915,1.916
9.06,2.487,7.852,7.737,10.222,11.435,5.506,7.612
9.167,4.043,7.448,9.461,11.695,13.437,7.073,12.651
6.319,1.165,5.24,7.783,9.382,10.492,6.885,9.764
2.592,-4.374,1.525,2.538,4.428,3.795,3.972,-0.611
0.832,-6.971,-0.029,-1.02,2.403,0.039,1.531,-6.125
0.554,-5.429,1.975,-0.22,4.947,1.013,1.797,-2.544
0.949,-2.524,6.027,2.49,9.569,3.113,3.735,2.524
3.604,0.575,11.198,5.195,14.896,5.678,7.022,7.365
7.384,2.72,15.551,7.006,19.165,8.989,10.956,15.011
7.843,1.266,15.479,5.309,19.022,8.355,11.888,18.683
5.547,-2.732,11.521,-0.388,15.313,0.806,8.704,9.749
5.942,-3.844,9.219,-4.22,13.351,-5.881,5.424,-3.473
9.6,-0.014,10.367,-1.276,13.995,-3.12,4.493,-6.184
11.44,4.129,10.623,4.556,12.945,4.473,4.663,-0.012
8.971,3.565,7.874,6.983,9.689,7.506,5.101,4.064
5.425,-0.361,5.532,6.215,8.335,6.157,6.102,4.132
4.461,-2.368,6.006,6.103,9.921,6.024,7.47,4.698
4.713,-1.562,6.442,6.747,10.631,7.431,7.983,6.08
2.916,-1.838,3.699,5.082,8.197,6.699,6.511,5.314
0.912,-3.498,0.576,1.839,5.768,4.603,4.709,3.782
3.015,-2.421,2.084,1.91,7.113,5.808,6.085,6.258
7.227,1.051,6.781,5.759,10.99,9.546,10.029,11.382
8.253,2.327,9.27,8.378,13.77,10.449,11.859,12.541
7.254,1.732,9.68,8.709,14.662,9.053,10.567,9.557
7.677,2.397,11.28,9.908,14.636,10.02,9.268,8.065
7.125,2.619,12.438,11.312,13.413,12.351,8.639,9.008
4.25,0.697,10.245,10.263,11.041,11.993,7.515,9.511
4.027,0.371,6.892,8.02,9.318,9.351,6.751,8.977
7.843,3.508,5.744,6.799,9.032,7.104,6.767,7.589
9.811,5.485,5.945,5.751,8.722,5.512,6.002,5.301
7.617,3.25,5.362,3.988,7.593,4,4.441,3.932
5.941,0.15,4.926,3.101,7.025,3.529,3.908,4.986
6.893,-1.257,5.973,3.613,8.137,4.319,4.541,6.726
6.947,-3.3,7.16,3.149,10.028,4.115,4.758,6.119
5.024,-6.683,7.926,1.246,11.759,1.993,4.596,3.384
5.352,-7.458,10.194,1.516,13.935,1.007,5.885,2.929
9.999,-3.323,13.848,5.588,16.475,3.602,8.727,7.082
14.877,2.75,15.9,10.026,17.606,8.114,11.043,12.734
16.078,6.664,15.244,11.974,16.81,11.653,11.599,16.47
14.947,7.708,13.412,12.024,15.16,12.534,10.316,16.094
14.153,8.052,11.363,11.187,12.572,10.943,7.21,10.687
13.428,8.738,9.138,10.085,8.328,8.976,3.535,4.48
11.522,8.25,7.124,9.332,3.346,7.773,1.134,1.804
9.106,6.067,5.474,8.791,-0.032,6.682,0.099,0.786
7.857,4.134,3.585,7.977,-0.778,5.881,-0.412,-0.478
8.465,3.583,1.66,6.574,-0.717,5.671,-0.674,-0.747
10.176,3.421,0.651,4.202,-1.008,4.449,-0.907,-0.763
11.514,2.693,0.065,1.073,-0.241,1.273,-0.969,-1.882
11.845,1.709,-0.767,-0.93,1.686,-1.341,-0.099,-2.189
12.174,1.495,-0.333,0.369,3.301,-0.47,1.389,-0.439
14.557,3.939,3.384,5.616,5.783,4.063,3.175,2.55
19.955,10.388,9.763,13.481,11.364,10.834,6.857,7.08
24.506,16.547,14.191,18.759,16.699,15.794,10.922,10.887
22.099,14.908,11.983,15.469,15.138,13.298,9.459,8.718
14.24,6.581,5.44,6.293,7.881,4.671,2.734,2.018
9.482,0.962,1.549,0.427,3.457,-1.568,-1.306,-1.347
11.153,1.816,2.192,0.599,4.561,-1.85,0.1,0.726
15.186,4.754,4.18,2.098,6.228,-0.48,2.373,3.116
19.105,7.051,6.594,2.447,6.092,-0.299,3.452,3.506
23.198,9.281,9.96,2.699,6.244,-0.003,4.941,4.59
24.994,9.782,11.859,2.41,7.513,0.606,6.49,7.5
21.381,6.009,9.794,-0.143,8.458,-0.568,6.063,9.004
14.326,-0.242,5.579,-4.453,8.264,-4.308,3.816,5.78
9.504,-3.551,3.56,-6.409,8.606,-6.934,3.032,1.146
10.068,-1.295,5.113,-2.823,10.584,-4.334,5.706,1.744
12.792,2.188,6.613,2.199,10.673,-0.291,8.32,5.094
11.412,0.748,4.56,2.283,6.194,-1.5,6.673,2.674
4.896,-5.147,0.686,-1.014,1.428,-5.385,2.609,-4.273
-0.267,-9.25,-0.834,-1.212,1.233,-4.727,0.905,-6.226
1.585,-7.423,1.154,2.74,4.336,0.097,2.674,-1.059
8.118,-1.266,4.69,6.343,7.247,3.688,5.558,3.814
12.4,3.769,7.118,6.652,8.191,3.864,6.84,3.523
10.822,3.5,6.347,4.019,6.161,1.24,5.077,0.973
6.523,0.321,3.195,0.51,2.673,-2.2,2.29,0.539
3.868,-1.326,0.35,-2.17,1.219,-4.135,1.203,1.123
1.951,-2.824,-2.074,-5.239,0.917,-5.614,0.022,-1.657
-0.576,-5.951,-4.065,-8.981,-0.957,-7.918,-2.461,-6.048
0.068,-6.683,-2.302,-9.22,-1.442,-8.05,-2.297,-5.189
5.573,-3.078,3.869,-4.45,2.406,-4.668,1.794,0.55
10.096,-0.375,8.859,-0.029,6.617,-1.875,4.996,3.527
8.316,-2.88,8.168,-0.487,7,-2.736,4.441,1.322
3.216,-7.452,4.613,-3.556,5.534,-4.924,3.33,-0.475
2.405,-7.752,4.101,-4.115,6.438,-4.389,5.462,3.054
8.099,-2.719,7.392,-1.311,9.847,-0.907,9.325,10.574
13.648,1.84,9.781,0.35,11.586,0.957,10.185,15.684
12.591,0.994,7.935,-3.307,9.017,-3.364,6.653,10.887
7.288,-3.44,3.464,-10.589,4.892,-12.115,2.216,-2.93
4.176,-6.621,0.447,-15.142,3.817,-17.41,0.818,-12.628
4.744,-7.129,0.558,-14.261,6.323,-15.773,2.607,-10.553
6.17,-6.966,1.711,-12.221,8.892,-12.973,4.821,-5.003
7.087,-7.046,2.504,-12.117,9.624,-13.026,5.941,-2.439
7.934,-6.141,4.093,-11.339,10.19,-12.463,6.822,0.984
8.523,-3.781,6.704,-7.383,11.666,-8.618,8.485,6.02
8.115,-1.823,8.441,-2.026,12.58,-3.887,10.515,7.654
5.299,-2.83,6.704,0.629,10.729,-1.727,10.85,4.946
-0.223,-6.488,0.69,-1.278,5.47,-2.952,8.015,1.917
-4.086,-8.762,-5.405,-4.547,-0.043,-5.192,4.063,1.305
-2.026,-6.929,-6.297,-5.497,-1.7,-6.267,2.312,2.06
2.91,-3.416,-2.898,-5.538,-0.239,-7.181,2.873,1.255
4.986,-1.901,0.138,-7.48,0.327,-9.306,3.659,-1.869
4.27,-2.036,1.54,-9.587,-0.784,-10.623,4.232,-3.573
4.255,-1.492,2.488,-8.884,-0.699,-8.902,5.165,-0.77
4.123,-1.103,2.093,-7.738,1.11,-7.302,4.872,2.128
1.647,-2.156,0.5,-9.549,2.255,-9.632,2.661,-0.442
0.666,-1.504,2.138,-10.549,3.637,-11.666,2.839,-3.832
4.918,2.446,7.986,-6.133,7.298,-7.786,7.701,-0.603
10.06,5.021,11.644,-0.392,9.62,-2.001,11.662,5.569
11.066,3.545,9.086,0.527,6.547,-1.292,9.925,6.782
9.61,1.545,3.739,-2.329,1.151,-4.663,5.399,3.741
9.012,1.95,0.191,-4.461,-1,-6.884,2.767,1.607
8.86,3.55,-0.874,-5.205,0.079,-7.301,1.984,0.788
8.168,5.011,-1.266,-6.517,0.457,-8.687,0.823,-1.517
8.406,6.813,-2.113,-7.955,-0.872,-10.983,-0.279,-5.124
9.03,7.754,-4.193,-8.025,-2.902,-12.026,-0.678,-7.169
6.916,5.788,-8.017,-7.005,-6.063,-10.949,-1.73,-6.05
3.795,3.159,-10.587,-4.914,-8.566,-7.786,-2.198,-1.905
4.553,3.63,-7.955,-1.554,-6.572,-3.666,0.779,3.727
7.786,5.847,-3.046,0.804,-2.064,-1.178,4.852,7.332
8.721,6.148,-2.311,-0.377,-1.106,-2.133,5.322,5.296
7.857,5.196,-4.966,-3.516,-3.351,-5.297,3.35,-1.208
7.768,5.725,-5.559,-4.441,-3.471,-6.863,3.366,-4.451
7.366,6.512,-3.92,-2.431,-1.155,-5.153,5.023,-0.087
4.823,4.304,-3.401,-1.159,-0.336,-3.438,4.732,4.559
1.544,0.062,-3.817,-2.571,-1.569,-4.526,2.796,2.098
0.446,-2.128,-3.241,-4.344,-2.599,-6.436,2.362,-3.629
1.535,-1.733,-2.614,-4.347,-3.311,-6.627,3.239,-6.036
2.064,-1.403,-3.239,-2.811,-4.54,-5.196,3.225,-4.744
1.26,-1.268,-3.986,-0.364,-5.151,-2.732,2.804,-2.192
0.4,-0.246,-4.18,1.999,-4.473,-0.108,2.906,-0.163
-0.804,-0.124,-4.546,2.695,-4.042,0.869,2.311,0.189
-2.936,-2.452,-5.078,1.404,-4.737,-0.311,0.42,-0.974
-3.669,-4.275,-4.811,-0.12,-5.079,-1.691,-0.868,-2.236
-0.146,-1.686,-2.621,1.072,-3.013,-0.331,1.219,-1.058
5.52,3.243,0.723,5.4,0.81,3.869,6.117,3.518
7.316,4.036,2.169,8.548,2.972,6.412,9.12,7.446
3.568,-0.841,1.373,8.002,2.955,5.014,8.736,7.571
-0.589,-5.979,2.262,7.385,4.513,3.855,9.474,7.377
-1.003,-7.21,6.359,9.219,8.552,5.772,13.432,10.025
0.873,-6.045,9.785,10.788,11.249,8.164,16.502,13.109
3.04,-4.791,9.452,10.362,10.694,9.265,15.589,14.501
6.431,-2.516,6.849,9.731,8.587,10.101,12.703,15.199
10.963,1.414,4.341,9.321,6.001,10.279,10.251,14.568
13.555,4.63,2.491,7.447,2.67,8.104,7.82,10.225
12.987,5.686,1.588,4.991,-0.66,4.923,5.265,4.748
12.806,6.978,2.782,5.963,-1.086,5.409,4.842,5.373
15.918,10.947,6.4,11.584,3.767,11.045,8.144,12.758
18.873,14.825,9.355,16.417,10.091,15.932,12.236,17.327
15.846,13.128,6.928,14.146,10.072,13.529,11.229,11.372
7.856,6.699,0.203,6.48,3.444,5.67,4.155,-1.429
2.16,2.566,-3.852,0.67,-1.794,-0.763,-2.734,-11.902
1.893,3.243,-3.642,-0.755,-2.241,-3.284,-4.965,-15.751
3.792,5.244,-3.984,-0.571,-1.541,-3.361,-4.002,-14.184
5.345,6.72,-5.16,0.249,-1.381,-1.067,-1.702,-8.441
6.966,8.516,-3.325,2.729,-0.341,3.28,1.463,-0.168
8.168,10.266,0.642,5.048,1.473,5.968,3.85,5.008
6.797,10.058,2.321,3.83,2.76,3.999,3.735,2.243
3.078,7.891,0.872,0.118,2.617,0.303,1.76,-5.176
0.187,6.238,-0.909,-1.164,0.966,0.134,0.17,-9.003
-1.083,5.372,-1.835,1.019,-0.703,2.957,0.191,-6.111
-2.483,3.343,-3.007,1.804,-1.221,2.96,0.588,-2.353
-2.987,1.232,-3.903,-1.417,-1.468,-1.433,-0.32,-3.658
-0.956,1.333,-3.027,-5.244,-2.505,-5.261,-2.109,-7.444
0.94,2.234,-1.81,-7.017,-3.991,-5.602,-3.287,-8.498
0.246,2.055,-2.432,-8.024,-4.513,-4.917,-2.801,-6.612
-0.766,2.137,-3.686,-8.865,-3.17,-5.125,-0.497,-4.178
-0.768,2.668,-3.738,-8.413,-1.37,-5.084,1.82,-2.732
-2.633,0.499,-3.628,-7.279,-1.334,-4.338,1.82,-2.788
-6.43,-4.378,-4.338,-6.964,-2.443,-3.773,0.278,-2.952
-7.638,-7.204,-4.293,-6.87,-1.845,-3.025,0.335,-0.763
-5.517,-6.057,-2.786,-5.793,0.501,-1.237,2.731,3.826
-4.278,-3.656,-2.193,-4.398,0.885,0.738,4.917,7.782
-5.287,-1.924,-4.161,-4.516,-2.467,0.548,4.827,7.421
-6.531,-1.353,-7.125,-6.953,-6.776,-2.79,2.61,1.854
-8.119,-3.213,-9.516,-10.351,-9.425,-6.775,-0.438,-4.869
-11.826,-7.748,-12.17,-13.221,-11.346,-8.968,-3.114,-8.353
-16.696,-12.042,-15.602,-15.588,-13.737,-10.195,-4.904,-9.199
-18.289,-12.217,-17.086,-16.541,-14.445,-10.778,-4.953,-9.225
-13.798,-8.169,-13.821,-14.159,-10.932,-8.875,-2.174,-7.248
-6.413,-4.063,-7.404,-9.164,-4.429,-4.479,2.59,-2.067
-1.147,-2.482,-1.58,-4.555,1.584,-0.025,6.69,4.336
0.102,-2.419,1.532,-2.639,4.302,2.05,7.669,7.045
-2.714,-3.814,1.081,-4.409,2.861,0.327,5.056,2.827
-8.657,-7.742,-2.929,-9.488,-1.397,-4.712,1.089,-5.145
-14.352,-11.768,-8.223,-15.205,-5.955,-10.096,-1.318,-10.895
-15.567,-11.346,-11.01,-17.597,-8.455,-12.14,-1.465,-12.144
-12.111,-6.994,-10.537,-15.991,-8.811,-10.41,-1.197,-10.683
-8.451,-4.159,-9.945,-13.726,-9.175,-8.097,-1.833,-8.228
-7.579,-4.558,-10.552,-12.471,-10.077,-7.12,-2.242,-4.966
-8.08,-4.629,-10.653,-11.184,-10.161,-6.681,-1.636,-2.432
-8.1,-3.1,-10.224,-10.29,-9.39,-6.358,-0.866,-2.434
-7.398,-2.155,-10.478,-10.749,-8.519,-6.169,-0.11,-3.013
-6.373,-2.12,-10.618,-10.939,-7.56,-5.123,0.905,-1.125
-6.378,-1.931,-9.562,-9.35,-6.817,-3.045,1.68,2.041
-8.415,-2.083,-8.218,-7.878,-6.861,-1.816,1.772,2.695
-10.911,-3.569,-7.693,-8.515,-6.919,-2.408,1.27,0.418
-11.871,-6.544,-7.344,-10.021,-6.102,-3.583,0.684,-2.139
-11.477,-9.915,-6.465,-10.97,-5.505,-4.861,0.591,-4.39
-10.653,-11.446,-6.171,-11.341,-6.329,-6.106,0.927,-5.252
-10.143,-10.519,-7.515,-10.747,-7.842,-5.918,1.039,-2.059
-10.937,-9.793,-9.64,-9.75,-8.848,-5.171,0.395,1.074
-13.38,-11.769,-11.302,-10.028,-9.746,-6.938,-1.093,-2.632
-16.618,-15.413,-11.771,-11.382,-11.05,-10.506,-3.08,-9.715
-18.563,-16.999,-9.97,-11.609,-10.58,-11.417,-4.346,-11.549
-17.743,-14.88,-6.209,-9.759,-7.284,-8.777,-3.919,-7.453
-15.908,-12.791,-3.712,-8.185,-5.083,-7.298,-3.235,-4.012
-14.67,-13.64,-4.278,-8.76,-6.327,-9.263,-3.552,-4.537
-12.459,-14.167,-5.081,-9.074,-7.148,-10.483,-2.817,-4.975
-9.076,-11.885,-3.525,-7.23,-4.487,-8.307,0.042,-2.468
-7.335,-9.405,-1.661,-5.64,-1.637,-6.091,2.042,-0.774
-8.566,-8.72,-2.229,-5.921,-2.615,-6.082,1.474,-1.973
-11.516,-9.102,-3.948,-6.453,-5.739,-6.224,0.46,-2.622
-14.38,-10.137,-4.011,-6.351,-6.583,-5.565,0.326,-1.599
-15.388,-11.342,-2.341,-6.228,-4.229,-5.124,0.008,-1.603
-14.246,-11.605,-1.356,-6.041,-2.132,-4.529,-1.254,-3.389
-13.594,-11.506,-2.85,-5.574,-3.64,-3.023,-3.21,-5.322
-15.757,-12.276,-6.142,-5.519,-7.763,-1.593,-5.3,-6.324
-18.236,-12.578,-8.648,-5.42,-10.092,-0.506,-6.02,-5.278
-16.212,-10.328,-7.63,-2.361,-7.495,2.644,-3.302,-0.5
-10.803,-7.685,-3.902,3.115,-2.558,7.268,1.299,4.945
-8.524,-8.855,-1.692,5.731,-1.005,8.963,2.96,5.563
-10.969,-12.845,-2.32,5.233,-2.836,8.729,1.443,4.383
-14.304,-16.218,-4.332,5.473,-3.553,9.999,0.081,5.9
-16.389,-18.761,-6.913,5.881,-3.114,10.403,-1.348,5.818
-16.509,-19.989,-7.853,4.965,-3.713,8.175,-3.477,1.575
-13.352,-17.372,-5.294,4.178,-3.246,6.071,-3.449,-2.646
-7.021,-10.556,-0.817,4.684,1.219,5.841,0.473,-3.498
-1.035,-3.886,2.836,5.231,6.827,5.662,5.061,-1.862
0.315,-2.783,3.217,3.165,7.467,2.491,5.377,-1.958
-2.081,-6.583,-0.309,-1.338,2.408,-2.853,1.156,-5.233
-2.51,-8.506,-3.998,-3.791,-2.512,-5.166,-2.479,-6.691
1.701,-4.556,-3.488,-0.89,-2.756,-1.37,-1.894,-2.542
5.8,0.957,-1.028,4.263,-0.861,4.641,0.009,3.067
4.281,1.819,-2.599,5.451,-2.034,5.683,-1.166,3.525
-0.535,-0.78,-7.332,2.191,-5.35,0.87,-3.811,-1.407
-2.457,-1.089,-8.594,0.204,-5.618,-2.965,-3.49,-5.914
-0.792,1.691,-5.645,2.037,-3.355,-1.86,-0.963,-5.874
0.624,3.726,-4.129,3.792,-3.85,-0.065,-0.537,-4.307
0.122,3.668,-5.638,2.501,-7.031,-1.631,-2.494,-5.711
-0.76,3.483,-6.441,0.332,-7.83,-3.89,-3.398,-7.613
0.256,4.592,-4.819,0.033,-5.209,-3.34,-2.237,-5.881
4.391,6.899,-1.821,1.596,-2.269,-0.834,-0.621,-2.057
9.837,9.373,1.827,3.574,-0.325,1.295,0.528,0.526
12.316,9.97,4.356,4.077,0.147,1.668,0.474,0.461
10.254,7.855,4.059,2.558,-1.926,0.677,-0.683,-1.349
7.203,5.045,3.097,1.244,-3.619,0.478,-0.718,-1.89
5.572,2.798,3.245,1.305,-1.202,1.244,0.447,-0.493
3.588,0.758,2.37,1.246,2.091,1.151,0.469,0.508
1.455,0.476,0.184,1.298,2.367,1.17,0.212,0.985
1.153,2.615,-1.516,2.527,1.217,2.677,0.916,1.546
0.839,3.814,-3.834,2.92,-0.806,3.045,-0.148,0.651
-1.979,1.599,-7.607,0.486,-5.034,0.139,-3.783,-1.62
-5.403,-2.147,-10.194,-3.055,-9.195,-3.549,-6.193,-3.271
-6.506,-4.483,-10.059,-4.848,-10.213,-4.859,-5.622,-4.107
-6.161,-5.192,-9.202,-4.736,-9.21,-4.299,-4.728,-5.001
-6.91,-5.611,-9.105,-4.238,-8.822,-4.048,-5.464,-5.545
-8.861,-6.068,-8.905,-3.544,-9.571,-3.785,-6.659,-4.945
-10.604,-6.975,-8.615,-3.022,-11.101,-2.504,-7.322,-4.278
-11.443,-8.689,-9.697,-4.258,-12.832,-2.107,-8.13,-5.609
-10.554,-8.64,-11.174,-5.623,-12.924,-3.048,-8.662,-7.888
-7.049,-3.99,-9.897,-3.36,-10.196,-1.97,-7.56,-7.705
-3.085,2.152,-6.047,0.51,-6.653,0.622,-5.725,-5.633
-2.245,4.091,-2.508,0.877,-4.968,0.341,-4.893,-4.941
-3.835,2.348,0.174,-0.977,-4.419,-1.71,-4.124,-4.354
-4.885,0.96,1.643,-0.9,-2.751,-1.521,-2.011,-1.581
-5.002,-0.231,0.42,-0.14,-0.421,-0.745,-0.095,-0.167
-3.996,-2.421,-1.153,-0.962,0.456,-2.03,-0.114,-2.543
-0.572,-2.878,0.612,-0.806,-0.262,-2.344,-0.728,-3.785
4.374,0.25,4.139,2.198,-0.53,0.802,-0.148,-0.426
7.725,3.098,5.75,4.36,0.528,3.311,0.77,3.26
7.462,1.064,5.025,2.196,0.866,0.961,0.258,2.733
4.724,-3.975,3.305,-1.732,-0.557,-3.613,-1.308,-0.119
2.2,-6.35,1.679,-3.232,-1.287,-5.747,-2.042,-1.696
1.093,-4.565,1.077,-2.55,-0.189,-5.281,-1.514,-2.147
1.615,-1.185,2.203,-1.536,0.896,-3.815,-0.608,-2.37
3.767,2.419,5.397,0.035,1.96,-1.528,0.642,-1.517
4.734,5.314,8.317,0.989,3.499,-0.25,1.59,-0.462
0.828,4.793,6.284,-2.242,2.39,-3.575,-0.214,-2.325
-4.672,1.598,0.886,-8.208,-1.529,-9.727,-4.001,-6.167
-3.987,1.448,0.478,-9.541,-2.135,-11.051,-4.822,-6.363
1.671,4.792,5.557,-4.735,1.222,-5.939,-2.233,-2.531
3.448,5.425,7.417,-0.505,2.082,-1.685,-0.778,-0.53
0.315,2.413,4.153,-0.127,-0.126,-2.222,-0.913,-1.589
-1.175,0.55,1.895,-1.09,-0.823,-4.349,-0.101,-1.789
0.119,0.691,2.286,-2.282,-0.423,-5.655,0.573,-0.475
-0.514,-0.102,1.7,-4.543,-2.246,-6.886,-1.263,-0.534
-3.396,-1.664,-0.24,-6.653,-5.229,-8.145,-4.249,-2.836
-2.929,-0.323,0.629,-5.392,-4.839,-7.436,-4.556,-4.499
3.07,5.003,5.933,0.376,0.449,-3.049,-0.872,-2.288
9.512,10.069,11.112,6.756,6.301,2.595,3.435,2.685
12.028,11.18,12.171,9.008,8.067,4.773,4.693,5.763
12.709,10.753,11.489,8.102,6.937,3.526,3.838,5.242
14.484,12.476,11.9,7.892,6.006,2.816,3.253,3.693
15.72,14.858,11.613,8.607,5.004,3.884,2.523,3.788
13.84,14.091,9.143,8.23,3.115,5.222,0.979,6.856
9.261,9.601,5.699,5.846,0.344,4.843,-0.776,10.136
4.649,4.461,2.478,2.191,-3.307,1.752,-2.272,7.771
3.062,1.84,1.18,0.355,-5.221,-0.887,-2.582,1.611
4.178,1.127,2.264,1.612,-3.395,-0.483,-1.858,-2.039
3.689,-0.41,2.49,1.845,-1.791,-0.923,-2.54,-5.344
0.176,-2.569,0.278,-0.789,-3.826,-4.076,-5.058,-10.501
-2.7,-3.156,-1.937,-1.659,-6.294,-4.797,-6.781,-11.656
-2.284,-1.415,-1.928,2.393,-5.326,-0.381,-6.029,-6.758
-0.278,1.892,0.776,8.457,-1.946,5.261,-3.767,-1.606
-0.239,4.588,4.41,11.61,-0.175,7.509,-2.52,-0.393
-3.224,4.147,5.626,9.695,-2.108,5.262,-3.437,-1.916
-6.035,1.452,4.089,5.373,-4.31,1.715,-4.079,-2.428
-4.827,0.658,4.001,3.621,-1.564,1.899,-1.621,0.487
-0.894,2.222,7.235,4.649,4.084,5.206,1.739,3.818
0.872,2.18,9.641,4.123,5.692,5.808,1.873,3.167
0.439,1.064,9.093,2.446,3.854,4.009,0.775,1.56
1.792,2.606,8.453,2.776,4.447,4.26,2.389,3.424
5.078,5.295,8.517,2.576,6.82,4.421,4.479,4.938
8.121,6.684,7.962,-0.4,6.842,1.662,4.114,3.007
10.106,8.06,6.886,-3.034,4.678,-1.27,2.996,1.314
10.598,9.579,5.551,-3.846,2.401,-2.958,2.742,0.755
10.497,9.887,4.79,-4.056,1.458,-4.175,2.984,-0.655
11.234,9.377,6.404,-3.218,3.328,-3.768,3.964,-0.749
12.037,9.374,10.167,-0.709,7.455,-1.32,6.332,2.291
11.032,9.735,13.243,1.866,10.798,0.912,9.111,5.74
7.917,9.241,14.048,3.042,11.959,1.779,10.42,8.065
4.569,8.221,13.982,3.454,12.091,2.52,10.221,9.919
1.74,7.003,13.427,3.003,10.974,2.638,9.505,8.992
-2.263,4.069,10.391,0.519,6.974,0.352,7.567,3.696
-6.15,0.539,5.83,-2.206,1.923,-2.44,3.959,-1.586
-5.207,0.98,4.486,-1.634,0.638,-2.039,1.241,-2.544
0.741,6.743,7.848,2.214,3.655,1.267,1.441,-0.413
6.019,13.179,11.604,5.647,6.31,3.655,2.3,1.61
7.319,14.872,12.085,6.34,6.429,3.454,1.25,2.042
7.774,12.482,11.487,6.411,7.205,3.69,0.267,1.631
11.214,12.057,14.234,9.111,11.741,7.168,2.866,2.773
16.387,16.47,20.024,13.83,18.332,11.986,8.558,7.065
18.657,20.516,23.394,16.249,21.491,14.088,12.577,12.546
14.82,17.041,20.501,12.519,17.697,10.646,10.597,13.433
6.923,7.572,14.412,3.968,10.796,2.368,4.315,6.081
1.373,1.342,10.792,-3.13,7.586,-5.128,-0.204,-3.883
1.241,1.559,9.854,-5.246,7.873,-7.255,-0.804,-7.844
3.243,2.684,8.486,-4.738,6.978,-5.892,-0.032,-5.609
4.973,2.63,7.493,-3.288,5.402,-4.001,1.212,-2.209
7.295,4.157,8.981,-0.162,6.112,-1.426,3.622,0.405
9.052,6.064,10.778,3.176,7.28,1.512,5.551,2.647
8.208,5.576,10.322,4.476,5.99,2.955,4.94,4.091
6.212,4.677,9.112,4.428,4.022,2.384,2.839,3.956
5.604,6.533,9.205,4.778,4.511,1.229,1.616,2.697
6.973,10.739,10.656,5.887,7.171,1.082,2.149,1.861
9.194,14.229,13.327,7.29,10.397,2.234,3.977,2.321
8.975,13.402,15.527,7.274,12.682,2.844,4.981,2.354
4.353,7.789,14.158,3.986,11.719,0.752,3.126,-0.146
-0.13,2.823,10.532,0.115,8.331,-2.023,1.032,-2.236
0.272,3.05,8.789,0.108,6.811,-1.309,2.723,0.609
3.425,5.758,9.411,2.761,9.057,2.3,7.214,6.118
5.363,6.439,10.204,3.975,12.149,4.459,10.255,8.458
4.346,4.023,9.243,2.695,10.991,3.008,8.649,5.942
1.05,0.36,6.865,0.724,6.023,-0.155,3.811,1.493
-1.178,-1.758,5.844,0.247,4.403,-1.637,1.139,-0.519
-0.718,-2.364,7.114,1.136,8.121,-0.99,2.342,1.04
0.499,-3.651,9.548,1.767,11.626,-0.336,4.132,3.163
1.461,-5.307,12.537,2.601,12.579,0.497,5.113,4.561
2.731,-5.702,14.23,4.567,13.063,2.655,6.364,6.201
4.143,-4.977,13.219,6.291,13.403,4.41,7.645,7.065
5.693,-3.178,11.82,6.844,12.814,4.589,7.777,6.323
7.523,0.578,11.158,7.497,11.711,5.221,6.542,6.045
8.649,5.452,9.254,9.046,10.667,7.405,5.3,8.069
8.497,9.142,6.757,10.106,9.934,8.895,5.277,10.001
7.606,10.772,5.935,9.207,9.085,7.833,5.217,8.29
5.905,10.925,5.862,7.65,7.269,6.326,3.88,5.551
3.177,9.981,5.098,7.44,5.382,6.569,2.76,5.592
1.228,8.834,5.695,8.532,6.404,7.42,4.106,6.348
2.363,8.99,9.706,10.695,11.225,8.732,8.3,7.059
4.622,8.986,13.235,12.504,14.6,10.61,11.523,8.522
3.498,5.418,10.559,10.358,11.155,9.254,8.788,6.841
-0.229,-0.156,3.514,4.251,4.397,3.259,1.996,0.512
-1.47,-2.18,-0.897,-0.984,1.47,-2.115,-2.406,-5.495
1.775,1.431,1.066,-1.283,3.958,-1.73,-2.051,-6.125
7.151,7.097,7.593,2.892,9.037,3.353,1.287,-0.536
10.479,9.374,13.031,6.954,13.076,7.549,4.816,6.47
10.418,7.792,14.235,8.407,14.673,8.462,6.83,9.372
10.713,7.627,14.442,10.151,15.912,9.429,8.09,8.811
13.319,11.262,15.863,13.722,17.002,12.333,9.016,8.678
14.534,14.521,15.027,15.736,14.361,14.177,8.141,9.635
11.807,13.318,9.619,13.802,8.01,12.415,5.301,9.11
8.037,9.449,3.375,10.176,3.598,8.812,2.47,5.95
5.765,7.157,0.1,7.415,2.979,6.045,0.242,1.508
2.929,6.762,-1.946,5.286,1.411,4.313,-2.735,-2.583
-1.437,6.513,-4.956,4.099,-2.647,3.66,-5.797,-4.649
-4.161,7.055,-7.453,5.113,-5.458,4.746,-6.861,-4.501
-3.57,9.507,-8.444,7.066,-6.109,6.394,-6.76,-3.969
-1.578,12.796,-8.839,7.666,-6.896,6.82,-7.345,-3.469
-0.706,14.116,-9.05,6.42,-8.284,5.669,-8.12,-2.717
-2.02,11.386,-9.195,4.042,-9.294,3.059,-8.26,-2.939
-4.265,6.488,-9.36,1.909,-9.435,-0.091,-8.08,-4.055
-6.805,2.166,-9.767,0.532,-9.309,-1.932,-8.367,-4.497
-10.579,-2.042,-10.768,-0.927,-9.702,-1.964,-9.299,-4.077
-12.846,-5.21,-10.892,-1.299,-8.818,-0.722,-8.679,-2.952
-10.312,-4.947,-9.318,1.017,-5.551,1.558,-5.441,-1.075
-6.323,-2.969,-8.807,3.861,-3.99,3.873,-3.487,0.247
-4.517,-1.343,-10.133,5.193,-6.626,4.91,-5.293,-0.314
-2.853,1.215,-10.055,6.377,-9.113,4.796,-7.288,-1.897
0.306,5.014,-7.782,8.464,-7.656,4.895,-6.253,-1.981
3.309,8.492,-5.577,10.215,-4.028,5.83,-3.644,0.486
4.879,10.705,-4.17,9.958,-1.535,6.3,-2.125,3.063
4.767,10.83,-3.28,7.682,-1.557,5.346,-2.197,3.479
2.76,8.178,-3.934,5.033,-3.701,3.89,-2.974,2.787
-0.268,3.99,-6.644,2.729,-6.73,2.212,-4.167,2.066
-2.423,0.736,-9.188,0.341,-8.85,-0.084,-5.297,1.058
-3.748,-1.094,-10.013,-2.053,-8.85,-2.442,-5.411,-0.704
-5.955,-2.95,-10.666,-4.189,-7.906,-4.378,-4.981,-3.995
-7.043,-3.827,-10.328,-4.438,-6.435,-3.961,-3.769,-5.61
-3.716,-1.32,-6.074,-1.172,-2.472,0.719,-0.511,-1.113
-0.838,1.06,-1.686,1.45,1.317,4.598,1.268,3.599
-4.957,-2.225,-2.963,-1.206,-0.261,1.827,-2.515,0.376
-10.833,-7.817,-6.359,-4.614,-4.167,-2.814,-7.193,-5.388
-11.319,-9.875,-6.583,-3.845,-5.103,-2.983,-7.411,-5.762
-10.328,-10.369,-6.007,-3.203,-5.281,-1.947,-6.647,-4.322
-12.117,-11.829,-6.681,-6.323,-6.863,-3.581,-8.562,-6.013
-12.622,-11.655,-5.785,-8.772,-6.052,-4.542,-9.66,-7.441
-8.642,-9,-2.471,-6.901,-0.735,-2.044,-6.592,-4.389
-3.903,-7.363,-0.366,-4.108,4.217,0.345,-2.934,0.185
-3.371,-8.773,-2.065,-3.905,3.771,-0.744,-3.606,0.589
-6.91,-10.827,-4.314,-3.658,0.695,-2.2,-6.77,-2.694
-9.162,-9.548,-1.729,0.61,1.039,1.108,-6.527,-3.392
-6.104,-4.386,4.973,7.421,4.843,8.289,-1.695,1.342
-1.554,-0.366,9.336,11.778,7.739,13.413,3.043,7.271
-1.537,-1.727,8.179,12.059,8.369,13.978,4.505,9.826
-4.543,-5.637,4.942,10.494,7.99,12.227,3.683,8.726
-4.872,-6.67,4.089,9.072,7.145,10.34,2.004,6.304
-2.78,-4.852,5.26,7.916,5.998,8.94,0.162,4.356
-4.162,-5.205,3.949,5.499,4.042,7.085,-1.68,2.236
-9.355,-8.025,-0.543,2.374,1.293,4.986,-3.392,0.331
-11.169,-7.269,-2.865,2.516,-0.485,5.627,-3.792,1.28
-7.772,-2.952,-1.072,6.17,-1.231,9.004,-2.459,4.153
-6.515,-3.295,-0.686,7.294,-3.18,9.737,-1.648,3.775
-11.017,-10.375,-5.187,2.614,-6.386,4.979,-3.283,-1.339
-15.542,-16.508,-9.741,-2.923,-8.114,-0.15,-5.261,-5.026
-15.349,-16.972,-9.458,-4.009,-6.732,-0.206,-4.683,-3.036
-11.71,-13.897,-5.762,-1.378,-2.812,3.116,-1.734,0.471
-7.1,-9.84,-1.632,1.687,1.103,5.325,1.976,2.059
-5.055,-7.618,-0.424,1.171,-0.566,3.234,3.145,1.282
-8.222,-9.488,-5.58,-5.259,-9.888,-3.674,-1.593,-3.902
-11.967,-12.308,-13.617,-12.622,-18.188,-10.307,-8.396,-10.402
-10.225,-11.61,-16.608,-14.192,-17.226,-11.224,-9.694,-10.6
-5.851,-8.327,-13.698,-11.342,-11.641,-8.51,-6.22,-5.204
-5.368,-6.376,-10.611,-9.361,-9.367,-7.461,-4.505,-2.111
-8.391,-7.209,-10.136,-8.562,-9.829,-8.122,-5.128,-3.196
-10.271,-8.782,-10.816,-6.517,-9.524,-7.36,-4.501,-3.618
-10.51,-8.945,-11.868,-4.294,-9.562,-5.718,-3.401,-2.088
-11.367,-8.16,-13.086,-3.85,-11.476,-5.052,-4.307,-1.009
-12.249,-7.618,-13.269,-3.741,-12.961,-4.074,-5.949,-0.435
-11.258,-7.057,-12.886,-2.584,-12.15,-2.196,-5.852,0.221
-8.479,-5.465,-13.085,-1.342,-10.328,-1.06,-3.683,0.475
-4.394,-1.723,-11.944,0.233,-8.302,-0.12,-0.566,1.444
0.835,4.149,-8.423,3.064,-5.415,1.97,1.988,4.275
4.786,8.316,-6.228,4.283,-3.364,2.656,2.129,6.109
4.975,6.401,-7.289,1.141,-4.252,-0.382,0.016,3.958
3.302,0.327,-8.258,-2.897,-5.229,-4.071,-0.641,0.78
2.265,-4.651,-8.005,-4.49,-3.699,-6.008,1.02,0.037
0.905,-6.86,-9.126,-5.623,-2.991,-7.893,0.395,-0.134
-0.984,-7.035,-10.983,-7.148,-5.045,-9.042,-2.976,-1.142
-1.292,-5.483,-10.859,-7.557,-6.538,-7.688,-3.771,-1.474
-0.276,-2.975,-9.85,-7.857,-6.362,-6.919,-1.88,-1.889
-0.326,-0.665,-10.447,-9.129,-7.048,-8.837,-2.467,-3.906
-0.835,1.449,-11.417,-9.587,-8.192,-9.752,-5.369,-5.266
1.105,3.918,-9.859,-8.232,-6.722,-7.784,-4.964,-3.858
5.535,6.393,-5.786,-6.211,-2.773,-6.085,0.77,-1.574
8.894,7.811,-2.81,-4.56,-0.802,-6.205,5.981,-0.585
7.923,7.108,-4.743,-4.189,-4.334,-6.366,3.23,-0.892
4.083,4.93,-9.466,-4.863,-9.711,-4.874,-4.256,-1.096
2.561,4.271,-10.603,-4.252,-10.517,-1.618,-5.591,0.54
4.586,6.284,-8.188,-2.29,-8.111,0.881,-1.071,2.714
5.941,8.253,-7.666,-2.067,-7.745,0.139,-0.581,2.133
5.02,8.449,-9.044,-3.863,-8.488,-1.747,-4.221,-0.046
4.608,8.196,-9.144,-4.806,-7.19,-1.54,-4.708,0.402
5.218,7.967,-9.403,-4,-6.045,0.077,-2.885,4.037
4.086,6.2,-11.871,-3.037,-8.162,0.932,-4.412,7.199
-0.387,1.841,-14.952,-3.784,-11.978,-0.266,-8.491,5.467
-7.349,-4.669,-17.469,-7.177,-15.568,-4.544,-10.408,-1.983
-13.719,-11.009,-19.776,-11.408,-18.548,-10.481,-9.37,-10.602
-16.227,-13.747,-20.681,-12.427,-18.609,-13.022,-8.008,-14.658
-15.48,-12.396,-18.63,-9.318,-15.08,-9.242,-7.1,-12.513
-14.034,-10.206,-14.894,-6.611,-11.906,-3.74,-5.017,-7.868
-11.786,-9.372,-11.948,-7.518,-11.355,-2.699,-2.344,-4.943
-7.559,-8.611,-9.357,-8.546,-10.546,-4.543,-1.767,-3.642
-2.284,-5.998,-4.121,-4.897,-5.985,-3.154,-2.397,-1.727
1.245,-2.691,3.508,1.98,1.012,2.123,-1.143,1.278
0.364,-2.539,7.343,5.949,4.058,5.962,0.862,3.876
-5.404,-7.293,2.941,4.09,-0.258,5.102,0.856,4.644
-13.441,-13.949,-5.397,-0.571,-6.866,1.872,-0.284,3.548
-18.317,-17.12,-10.155,-3.669,-9.35,-0.091,-0.885,1.952
-14.91,-13.24,-8.646,-3.189,-6.788,0.548,-0.397,2.243
-5.552,-5.082,-4.461,-0.812,-2.925,2.498,0.919,4.641
-0.427,-0.779,-3.929,-1.252,-2.998,2.326,0.21,4.934
-3.813,-3.29,-7.949,-5.582,-7.192,-1.179,-3.436,0.994
-7.45,-6.589,-10.038,-8.695,-9.282,-4.274,-5.329,-2.763
-5.344,-6.674,-6.863,-7.945,-6.302,-4.372,-3.155,-2.984
-2.54,-6.142,-2.582,-6.137,-2.013,-3.214,-0.293,-1.682
-3.323,-6.51,-0.727,-5.203,-0.248,-2.398,1.241,-1.048
-5.177,-6.644,-1.517,-5.441,-2.277,-2.615,1.656,-2.192
-6.369,-7.304,-5.009,-7.67,-6.646,-4.988,0.743,-5.904
-7.082,-9.058,-8.789,-10.495,-8.935,-8.183,-0.343,-8.714
-5.034,-8.836,-7.813,-9.714,-6.426,-7.859,-0.595,-5.094
0.885,-4.39,-1.211,-3.61,-0.592,-1.944,0.416,4.117
6.149,0.915,5.63,3.431,5.458,5.278,4.565,12.14
5.358,1.612,6.903,5.138,8.122,7.147,10.173,13.931
-1.556,-3.898,1.6,0.774,4.94,3.025,11.005,9.901
-9.91,-12.243,-6.225,-4.559,-2.129,-1.365,5.623,4.68
-14.403,-17.712,-10.99,-6.339,-7.142,-1.885,0.463,2.891
-13.912,-17.588,-11.362,-5.475,-7.185,-0.644,-0.23,3.341
-12.97,-15.24,-11.516,-6.65,-6.934,-2.386,-1.085,-0.437
-13.267,-13.07,-12.269,-9.92,-9.584,-6.241,-5.297,-8.584
-8.958,-7.759,-8.196,-8.673,-9.8,-5.77,-7.396,-10.557
0.575,-0.089,-0.383,-1.966,-4.871,-0.646,-4.762,-2.49
6.665,2.963,2.695,2.711,-0.523,2.947,-1.871,4.933
7.559,2.398,1.736,4.152,1.303,5.153,0.242,6.435
11.169,7.061,5.778,9.041,6.06,11.172,5.1,9.385
19.433,17.145,15.224,18.031,14.964,19.89,12.995,15.944
24.242,22.461,20.008,22.963,20.165,24.086,17.936,18.066
20.238,18.041,14.055,18.507,15.125,19.653,13.867,12.2
13.003,11.157,3.738,9.924,4.769,11.228,4.015,5.197
9.32,9.295,-2.107,5.074,-1.798,6.284,-3.161,2.426
6.599,9.491,-4.057,3.591,-3.884,5.202,-5.473,0.284
1.343,6.629,-5.708,1.349,-4.887,3.871,-5.375,-4.069
-1.402,4.064,-4.799,-0.197,-3.777,2.711,-3.517,-5.858
1.468,6.166,-0.725,1.508,-1.199,3.88,-1.778,-2.425
3.368,8.747,0.504,2.692,-2.295,4.405,-3.276,0.481
0.517,6.983,-2.579,-0.013,-6.062,1.182,-5.451,-1.442
-1.307,4.077,-2.662,-2.493,-5.173,-2.3,-3.272,-4.165
2.488,5.026,4.319,0.069,1.612,-0.681,2.197,-2.28
8.017,8.743,12.217,5.296,7.253,4.665,5.881,3.075
8.702,10.413,12.688,6.791,6.105,6.577,5.253,5.445
5.018,9.279,6.29,3.295,1.408,2.725,2.416,1.94
3.774,9.477,1.836,0.266,0.514,-0.909,1.676,-2.27
7.551,12.868,4.893,1.663,4.404,0.525,4.627,-1.427
12.208,16.636,11.295,5.148,7.954,4.541,8.489,3.24
13.734,17.253,12.817,6.103,7.734,6.042,9.854,6.219
11.685,13.717,7.055,3.178,4.484,3.786,8.101,4.575
8.353,8.929,0.124,-0.753,0.847,0.648,5.001,0.37
7.403,7.652,-1,-1.542,-0.213,-0.14,3.351,-1.83
10.297,10.328,3.415,2.072,2.371,1.933,4.394,0.281
13.607,11.781,7.632,6.4,5.608,4.148,5.198,3.654
13.551,9.405,8.125,7.151,5.722,3.945,2.365,4.063
11.219,7.033,6.171,5.06,3.022,2.101,-2.597,2.163
9.987,7.898,4.994,4.276,1.325,1.363,-4.625,1.527
10.471,9.964,6.378,6.657,2.776,3.166,-1.44,3.094
10.248,9.84,8.36,9.637,4.678,5.695,2.717,4.266
8.457,8.097,8.078,10.369,4.241,6.339,3.359,3.028
8.049,8.261,7.036,10.189,3.877,5.939,3.832,1.782
11.038,11.108,8.889,12.09,7.246,7.272,9.259,4.385
14.935,13.84,13.18,15.733,12.871,10.512,15.644,9.885
15.116,13.319,15.303,17.006,15.199,12.164,14.83,12.606
9.518,8.381,12.734,13.025,11.803,8.935,7.75,9.178
2.615,2.536,9.143,7.643,7.24,3.743,3.057,3.637
0.704,0.852,8.917,6.786,6.43,2.66,3.793,1.925
2.687,2.265,10.452,9.158,7.528,4.959,4.687,3.183
3.5,2.435,10.531,9.646,6.699,5.515,2.671,3.063
2.92,1.674,9.876,8.028,4.534,4.41,1.182,1.803
3.059,1.909,9.458,6.742,2.531,4.22,2.346,1.907
3.644,1.768,8.316,5.739,-0.057,3.918,3.504,2.718
4.497,1.097,7.352,4.993,-1.74,2.915,4.281,2.85
6.722,2.681,9.043,6.146,1.717,3.69,8.387,3.584
10.207,6.508,13.046,8.912,9.398,6.695,14.957,5.867
12.736,8.842,15.19,10.577,13.398,8.775,15.774,7.182
11.73,7.248,12.055,9.673,9.565,7.861,7.704,5.234
7.604,3.525,6.342,7.725,3.431,5.771,0.293,2.432
3.865,1.108,3.89,7.167,1.108,5.518,0.884,2.258
2.588,0.571,5.918,8.586,2.16,7.571,3.785,3.98
2.316,-0.552,8.857,10.289,3.646,9.682,2.933,4.758
0.621,-4.062,9.579,10.032,4.041,9.623,0.157,3.511
-2.73,-8.708,7.87,7.48,3.312,7.49,-1.74,1.179
-5.214,-11.321,6.227,5.149,2.865,5.517,-1.588,0.19
-3.934,-9.473,8.052,6.381,4.675,6.499,1.938,3.454
0.866,-3.783,13.743,11.422,9.368,11.169,8.034,10.877
5.2,1.785,18.642,15.294,14.251,15.024,11.599,15.782
5.934,3.345,17.521,12.231,14.428,11.383,7.549,9.713
4.229,0.762,11.802,3.833,8.893,1.616,-0.797,-4.076
3.059,-2.495,8.475,-1.813,3.068,-4.338,-4.123,-11.349
3.809,-3.029,9.77,-1.218,1.763,-2.326,-0.548,-7.511
5.534,-1.181,11.005,1.304,3.675,1.389,3.14,-2.149
6.822,0.637,10.807,2.705,6.139,2.77,4.031,-0.374
8.272,2.124,12.617,4.639,9.488,4.492,5.554,2.033
10.075,3.532,14.823,6.39,12.281,6.249,7.386,4.593
9.314,3.125,11.976,4.337,10.212,3.872,4.885,1.16
5.455,0.981,6.196,0.511,4.558,-0.595,-0.469,-5.86
2.884,0.023,4.407,0.314,1.341,-1.213,-2.37,-7.156
3.832,0.628,6.102,2.325,1.067,0.838,-0.372,-2.449
6.106,0.786,5.691,1.619,0.196,0.365,1.048,0.246
7.648,0.873,2.554,-1.562,-1.078,-2.942,0.275,-1.851
8.073,2.376,0.674,-3.775,-0.619,-5.615,-0.626,-4.368
7.424,3.89,1.825,-3.913,1.018,-5.57,-0.407,-4
5.456,3.119,3.507,-3.61,1.9,-4.277,-0.728,-2.436
3.063,1.958,3.934,-3.529,2.288,-3.888,-1.694,-1.998
2.237,3.793,4.678,-2.339,3.473,-3.765,-0.553,-1.895
2.375,6.276,5.776,-0.604,3.76,-3.115,1.789,-1.398
1.994,5.201,4.925,-0.456,1.231,-3.109,1.514,-1.508
3.219,3.054,3.168,-1.177,-1.417,-3.991,-1.12,-2.002
7.538,4.547,4.167,-0.414,-1.014,-4.327,-2.623,-1.41
11.69,8.182,7.801,1.461,0.811,-3.269,-1.407,0.256
13.264,10.105,10.474,2.156,1.222,-1.418,0.95,1.636
14.35,10.973,10.944,1.386,0.874,-0.124,2.686,2.451
15.953,12.239,10.396,0.524,1.316,-0.34,3.895,3.118
15.713,11.837,9.081,-0.223,1.878,-1.588,4.16,2.792
13.708,9.096,7.668,-0.91,2.225,-2.189,2.535,1.327
12.668,6.845,7.257,-1.19,3.19,-1.621,0.849,0.577
11.464,5.429,6.43,-2.46,3.774,-2.221,1.248,0.566
7.102,2.286,4.355,-5.702,2.838,-5.39,2.226,-0.656
1.879,-1.847,3.575,-8.183,1.832,-7.995,1.608,-2.349
-0.049,-3.748,4.623,-7.742,1.457,-7.423,-0.045,-2.554
0.637,-3.156,4.631,-6.301,0.13,-5.884,-1.441,-2.24
1.39,-2.133,3.077,-5.582,-2.326,-5.359,-2.804,-2.882
1.834,-1.88,1.787,-4.718,-3.752,-4.518,-4.146,-3.712
2.459,-1.909,1.301,-3.186,-3.379,-3.02,-4.176,-3.703
3.268,-1.416,1.156,-2.207,-3.148,-2.879,-2.889,-3.081
3.28,-1.489,0.164,-3.183,-3.869,-4.679,-2.277,-2.936
2.543,-2.221,-1.387,-4.921,-3.329,-5.98,-2.764,-3.351
3.877,-0.137,-0.288,-4.129,-0.269,-4.572,-2.099,-2.392
7.663,4.791,2.889,-1.14,2.474,-2.003,-0.004,-0.173
10.19,7.003,3.788,0.326,2.287,-0.875,0.963,0.312
10.9,5.255,3.513,0.128,1.556,-0.652,0.762,-0.892
12.868,4.518,5.647,0.648,3.01,-0.173,1.37,-1.259
16.086,7.09,8.203,1.915,4.886,0.254,2.422,-0.744
17.912,10.54,8.869,3.873,5.907,1.68,3.504,0.562
16.65,11.483,9.146,6.328,7.306,4.106,5.215,2.975
11.284,7.823,8.389,5.743,7.199,3.164,5.106,3.137
3.855,2.159,5.111,1.335,3.446,-1.847,1.503,-0.725
-0.614,-0.376,2.019,-1.938,-0.397,-4.986,-1.859,-4.374
-0.916,0.092,1.089,-2.433,-1.129,-4.516,-2.568,-5.327
0.611,0.278,1.389,-2.649,-0.094,-4,-1.978,-4.971
2.569,-0.111,2.562,-2.772,1.172,-4.063,-0.303,-3.687
3.01,-0.595,3.482,-2.207,1.76,-3.357,1.976,-1.967
0.86,-1.452,2.931,-1.533,0.995,-2.119,2.65,-1.051
-1.1,-1.637,2.445,-1.118,-0.19,-1.399,1.162,-0.762
-0.477,0.038,3.265,-1.026,-0.506,-1.85,-0.542,0.024
1.353,2.651,4.215,-0.743,0.189,-2.434,-0.146,1.93
2.109,3.795,3.934,-0.015,0.733,-1.795,2.056,3.643
1.965,3.033,2.187,0.45,-0.515,-0.85,2.865,2.894
2.63,2.776,-0.204,0.302,-3.4,-1.501,0.948,-0.499
3.319,3.387,-2.347,-0.799,-6.148,-4.313,-1.264,-4.696
2.141,2.847,-3.438,-2.5,-7.561,-7.25,-1.741,-7.264
0.882,2.12,-2.362,-2.39,-6.762,-7.003,-0.874,-6.583
1.577,2.986,-0.364,-0.366,-3.731,-4.481,-0.11,-4.061
2.995,4.297,-0.214,0.471,-0.593,-3.729,-0.075,-2.357
4.63,5.676,-0.745,0.188,1.332,-4.194,0.703,-1.422
6.261,7.197,-0.256,0.096,2.173,-3.994,1.959,-1.038
5.811,6.639,-1.42,-2.063,0.878,-5.795,-0.337,-3.053
3.03,3.637,-5.233,-6.862,-2.682,-10.166,-6.827,-6.748
0.151,1.144,-8.023,-10.181,-6.345,-12.478,-11.52,-8.498
-0.703,1.234,-6.836,-8.284,-7.438,-9.464,-8.854,-5.787
0.837,2.886,-3.144,-2.666,-4.918,-3.359,-1.433,0.227
2.436,3.515,-1.36,0.637,-2.378,-0.287,2.237,2.664
2.931,3.126,-2.034,-0.562,-3.095,-2.374,0.496,-3.244
4.189,3.546,-0.723,-1.56,-3.403,-4.277,0.515,-10.414
4.583,2.528,1.805,-0.987,-1.461,-3.647,3.023,-11.444
0.621,-1.886,0.209,-2.273,-2.007,-4.306,1.364,-10.218
-3.224,-3.682,-2.397,-2.817,-4.023,-4.911,-1.517,-9.061
-0.802,1.559,0.347,1.694,-1.756,-0.973,2.655,-3.69
3.815,7.492,4.115,6.235,1.632,3.778,8.937,2.879
4.356,8.456,2.342,4.962,-0.148,3.469,7.367,2.841
3.051,8.243,-1.555,1.419,-4.327,0.252,0.978,-2.275
4.27,10.394,-2.138,1.027,-5.213,-0.776,-1.103,-4.955
6.26,11.245,-1.061,2.709,-3.848,0.544,1.541,-3.21
4.892,7.761,-1.769,2.703,-4.035,1.177,2.982,-0.639
1.265,4.2,-2.993,1.557,-4.178,0.962,1.423,0.627
-0.651,4.508,-2.468,1.935,-1.235,1.695,-0.39,0.993
-2.151,3.729,-2.214,1.875,1.422,1.795,-1.851,0.991
-6.243,-3.168,-3.988,-1.305,0.176,-0.348,-4.538,2.516
-9.569,-10.317,-4.832,-4.731,-1.908,-2.558,-7.575,5.186
-8.058,-10.278,-2.452,-5.307,-1.119,-3.786,-7.159,3.402
-3.619,-5.143,1.766,-3.869,2.313,-4.657,-1.25,-3.793
0.733,-0.274,5.888,-1.341,6.058,-3.648,6.2,-8.538
4.017,2.954,8.086,2.303,7.095,0.362,9.651,-5.719
4.42,4.435,6.532,5.156,4.152,4.077,8.237,-1.021
0.336,3.008,1.226,3.951,-0.634,2.883,3.266,-2.828
-5.231,-0.58,-4.645,-0.782,-4.103,-2.011,-3.402,-9.574
-6.883,-2.429,-6.238,-3.468,-4.146,-4.241,-6.74,-12.631
-5.392,-1.109,-2.981,-1.172,-1.161,-1.674,-3.874,-9.518
-6.788,-1.166,-0.723,1.566,0.74,0.861,-0.119,-5.534
-11.029,-5.574,-3.333,-0.016,-1.63,-0.233,-1.406,-4.342
-11.648,-9.953,-7.012,-4.482,-5.519,-3.475,-5.618,-5.201
-6.983,-9.568,-6.734,-8.308,-5.998,-6.935,-6.431,-7.487
-2.016,-5.94,-3.079,-10.367,-2.272,-9.8,-2.129,-10.285
0.085,-3.188,0.01,-11.039,2.078,-11.101,2.241,-11.294
0.843,-2.583,0.931,-10.782,3.784,-10.653,2.452,-9.644
1.958,-2.394,1.717,-9.285,3.424,-8.626,0.951,-5.553
3.551,-0.946,4.619,-5.714,3.798,-4.951,1.919,0.103
5.585,0.952,8.557,-1.116,6.208,-1.054,5.527,4.448
7.81,1.245,10.68,1.595,9.895,0.565,9.259,5.14
10.376,0.421,11.62,2.127,14.075,0.319,12.227,4.5
13.918,0.768,14.228,3.162,18.389,1.333,16.087,7.057
16.989,1.304,17.059,4.569,21.631,3.375,20.617,12.099
17.537,-0.451,17.404,4.373,23.113,3.81,22.904,15.925
17.138,-2.431,17.67,4.198,24.126,3.853,22,18.956
18.015,-1.884,19.118,5.319,23.821,5.226,18.723,21.759
18.356,-1.483,17.048,4.496,18.521,4.868,13.838,20.607
15.851,-4.474,9.807,-1.133,9.176,-1.44,8.806,10.385
11.561,-9.26,2.487,-9.681,1.633,-12.769,3.883,-8.449
7.663,-12.244,-0.974,-14.869,-1.229,-20.824,-0.781,-23.506
5.232,-12.242,-0.808,-12.008,-1.008,-18.222,-2.478,-22.82
4.036,-10.83,1.177,-4.585,-0.232,-8.746,-0.629,-11.33
3.023,-9.415,2.319,0.445,0.126,-1.611,1.42,-1.457
1.854,-8.239,0.774,0.65,0.619,-0.52,1.627,1.235
1.17,-7.611,-1.969,-2.296,0.662,-3.566,0.941,-2.397
0.65,-7.815,-3.264,-5.499,-0.631,-7.024,0.794,-7.035
-1.367,-9.152,-3.857,-6.883,-1.825,-7.917,0.36,-6.539
-5.239,-11.64,-6.457,-7.212,-2.019,-6.668,-2.399,-2.192
-9.37,-14.011,-10.607,-8.765,-3.019,-6.256,-5.885,-0.664
-13.036,-15.744,-13.493,-11.642,-5.953,-7.518,-6.336,-1.644
-16.256,-17.981,-14.239,-13.354,-8.584,-8.248,-3.699,1.261
-17.428,-19.81,-14.063,-12.909,-7.706,-8.185,-0.7,5.584
-16.001,-19.253,-14.409,-12.861,-4.701,-9.771,0.244,2.229
-14.695,-18.183,-15.805,-15.207,-4.822,-13.107,-2.065,-7.044
-14.244,-18.803,-16.485,-17.973,-8.059,-15.674,-5.462,-12.874
-11.534,-18.773,-13.972,-17.921,-8.408,-15.995,-6.152,-13.66
-6.936,-16.585,-9.872,-15.095,-4.828,-14.593,-4.888,-13.382
-5.326,-15.168,-8.461,-12.706,-2.984,-12.941,-5.657,-13.082
-6.641,-15.256,-8.648,-11.396,-3.555,-10.763,-6.876,-10.39
-6.115,-14.069,-5.835,-8.674,-1.293,-6.942,-3.549,-5.049
-5.583,-13.166,-3.055,-6.308,1.596,-4.624,0.513,-3.229
-10.585,-16.204,-6.667,-7.944,-2.333,-6.815,-2.825,-8.099
-17.49,-19.623,-12.427,-9.616,-10.069,-8.31,-10.297,-11.251
-19.174,-18.254,-12.303,-5.953,-12.501,-3.797,-12.356,-6.433
-17.958,-15.365,-9.404,-1.556,-9.928,1.049,-9.521,-1.766
-18.226,-15.261,-10.027,-2.596,-7.937,-0.478,-8.305,-5.188
-16.736,-14.605,-10.748,-4.745,-6.04,-3.054,-8.079,-9.433
-12.501,-10.956,-7.587,-2.307,-2.47,-0.163,-5.557,-5.253
-11.492,-8.43,-4.79,1.546,-0.177,4.128,-3.554,3.395
-14.337,-8.531,-4.914,3.489,-0.112,5.845,-4.828,9.202
-15.386,-7.849,-4.377,5.267,0.783,7.149,-6.225,10.423
-14.092,-6.432,-1.986,5.465,2.457,6.227,-5.193,4.452
-14.085,-7.762,-1.022,-0.026,1.72,-1.569,-4.496,-9.994
-15.02,-11.86,-3.315,-8.437,-1.747,-11.895,-6.659,-24.175
-14.23,-15.381,-7.187,-12.706,-5.371,-15.803,-9.74,-27.973
-13.049,-17.259,-11.026,-12.711,-8.478,-14.052,-11.841,-24.454
-13.822,-18.704,-13.784,-12.825,-11.387,-13.009,-13.518,-21.912
-12.703,-17.88,-12.052,-11.203,-10.644,-10.981,-13.083,-18.189
-6.306,-13.328,-5.789,-5.52,-5.035,-4.736,-9.32,-10.189
-2.096,-11.176,-4.242,-3.771,-3.108,-2.27,-8.791,-8.6
-12.059,-20.788,-17.617,-16.598,-15.387,-14.558,-21.15,-25.721
-40.088,-45.711,-46.878,-44.597,-44.073,-41.396,-49.894,-59.093
-73.735,-75.818,-79.126,-74.556,-77.234,-68.887,-84.265,-92.824
-92.351,-92.523,-95.998,-89.853,-95.744,-82.052,-103.311,-109.77
-85.964,-85.13,-89.106,-83.896,-89.917,-77.103,-94.178,-99.719
-45.435,-43.551,-48.438,-46.658,-48.893,-44.634,-46.839,-48.995
30.402,31.764,28.48,25.589,30.121,22.571,36.63,40.906
93.262,92.307,92.846,87.027,96.718,83.707,103.013,114.597
93.115,91.408,92.847,88.081,96.928,88.925,100.514,119.189
55.465,56.245,53.774,50.59,56.383,54.022,57.96,76.066
28.057,32.511,25.941,20.525,27.533,22.484,27.932,31.94
13.815,21.149,14.322,6.248,16.368,6.533,15.344,6.062
4.189,12.888,8.148,2.226,11.278,2.877,8.48,4.216
5.257,13.233,9.375,7.687,13.539,8.783,7.546,19.184
14.383,19.889,14.566,13.666,19.787,14.333,8.303,27.084
17.201,19.622,11.824,8.355,17.562,8.745,2.367,12.8
8.456,7.967,-1.963,-7.379,2.993,-7.44,-7.299,-12.299
-2.473,-4.393,-16.439,-20.381,-13.35,-22.095,-10.341,-25.134
-3.962,-5.033,-19.133,-19.114,-17.701,-22.547,-2.953,-17.377
1.46,1.928,-11.982,-8.614,-10.599,-11.499,6.005,-2.651
-0.898,0.582,-10.672,-5.534,-8.332,-5.554,3.036,1.351
-13.366,-10.516,-20.384,-14.342,-18.066,-12.007,-11.455,-7.63
-20.625,-15.692,-27.159,-21.536,-25.829,-19.535,-21.09,-17.032
-15.429,-8.723,-21.031,-16.968,-20.195,-16.915,-15.874,-16.623
-9.744,-2.165,-11.201,-7.7,-10.996,-8.636,-5.647,-9.775
-14.788,-6.562,-11.291,-5.512,-12.681,-5.379,-5.237,-5.426
-25.588,-16.176,-20.653,-10.301,-22.151,-8.239,-14.599,-5.447
-30.493,-19.57,-26.672,-12.487,-25.607,-9.7,-20.766,-4.957
-26.785,-14.534,-22.789,-7.818,-19.57,-5.952,-16.696,-2.334
-22.501,-9.257,-17.036,-3.176,-13.573,-2.084,-9.949,-2.979
-24.755,-10.96,-18.452,-5.37,-14.849,-3.447,-10.073,-9.194
-30.566,-16.825,-24.418,-11.485,-20.036,-8.04,-16.34,-15.179
-31.798,-18.545,-26.94,-14.278,-21.707,-10.319,-20.6,-16.505
-25.05,-11.98,-22.497,-10.135,-16.104,-6.549,-16.008,-12.668
-15.548,-2.127,-15.391,-2.43,-7.908,1.492,-6.051,-3.754
-12.616,0.627,-14.557,-0.021,-8.247,5.426,-3.777,4.462
-17.632,-5.936,-21.345,-6.338,-18.609,0.215,-13.259,3.132
-20.846,-11.187,-25.823,-12.975,-25.173,-7.431,-21.131,-6.184
-16.808,-7.821,-22.557,-11.838,-20.162,-8.62,-17.236,-12.452
-13.257,-2.903,-19.038,-6.542,-13.607,-4.239,-10.14,-10.335
-17.077,-5.187,-21.872,-4.455,-15.019,-0.563,-11.089,-4.104
-23.325,-11.805,-26.49,-5.834,-19.818,0.318,-17.115,0.805
-25.551,-14.985,-27.072,-7.98,-21.647,-1.157,-20.837,-0.487
-25.498,-14.153,-26.003,-11.542,-22.853,-6.031,-22.358,-10.906
-26.737,-13.875,-27.372,-16.264,-25.555,-12.41,-23.734,-22.493
-26.366,-12.912,-28.788,-17.009,-25.4,-13.356,-23.047,-22.053
-20.347,-6.094,-25.828,-10.579,-20.35,-5.938,-17.943,-10.105
-13.419,2.899,-20.361,-2.99,-15.405,2.092,-10.671,-0.692
-12.358,5.591,-16.877,-1.904,-13.788,2.343,-6.463,-1.647
-15.061,2.374,-15.175,-5.754,-13.331,-2.383,-7.257,-6.79
-16.547,-0.582,-12.898,-8.246,-12.838,-4.355,-9.607,-8.603
-15.976,-0.368,-9.459,-7.212,-12.307,-2.161,-8.847,-7.026
-14.158,1.518,-6.632,-4.473,-10.581,0.92,-4.88,-3.808
-12.429,1.412,-7.513,-2.826,-8.749,2.73,-2.364,0.552
-11.948,-1.556,-12.021,-3.789,-9.479,2.659,-3.975,3.468
-11.618,-3.768,-15.784,-6.184,-11.319,0.847,-7.077,1.877
-9.991,-3.044,-15.639,-7.938,-10.285,-1.602,-8.223,-2.667
-7.482,-0.951,-12.784,-7.946,-6.691,-2.354,-6.958,-4.262
-5.454,0.863,-10.384,-6.141,-4.926,0.503,-4.933,0.378
-4.724,1.873,-10.095,-3.653,-7.209,5.147,-3.767,7.463
-4.814,2.006,-11.266,-2.584,-10.562,6.824,-3.989,10.03
-5.298,1.339,-13.191,-4.591,-10.816,3.367,-5.495,5.152
-6.39,-0.008,-15.351,-8.138,-8.617,-1.263,-7.587,-1.575
-7.503,-1.167,-16.331,-9.624,-7.904,-2.394,-8.986,-3.133
-7.459,-0.319,-15.397,-8.443,-8.686,-1.668,-8.699,-1.607
-5.516,3.546,-12.733,-5.705,-6.966,-1.244,-5.891,-1.246
-3.93,6.777,-10.327,-2.471,-3.767,0.43,-2.543,-1.39
-7.527,3.73,-12.341,-2.267,-5.577,1.063,-4.222,-3.177
-13.956,-2.17,-17.653,-5.508,-11.323,-2.053,-10.295,-6.77
-14.137,-1.567,-18.925,-6.492,-12.212,-4.114,-12.067,-6.723
-7.679,4.835,-13.971,-3.506,-6.962,-1.535,-6.83,-1.939
-2.7,8.282,-8.105,-0.854,-2.803,2.13,-1.408,2.967
-2.875,5.531,-6.096,-0.559,-3.463,3.615,-1.44,7.37
-6.533,0.014,-7.923,-1.621,-5.643,2.694,-5.835,11.354
-10.829,-3.949,-9.261,-3.081,-4.996,-0.409,-9.19,9.675
-12.452,-4.506,-6.316,-3.935,-1.928,-4.349,-7.539,0.413
-11.138,-3.353,-1.667,-4.105,-0.041,-7.172,-2.837,-9.281
-10.689,-3.357,-0.78,-4.564,-0.088,-8.407,0.032,-12.109
-11.961,-4.062,-3.08,-4.193,0.356,-7.544,-0.128,-7.986
-10.75,-2.14,-3.209,-0.095,2.436,-2.886,-0.131,-0.638
-5.858,2.245,-0.07,7.329,5.119,5.288,2.302,7.228
-1.956,4.621,2.315,13.255,6.72,12.307,5.135,12.995
-2.326,3.141,1.658,13.998,5.894,13.552,5.2,13.526
-4.358,1.076,0.282,12.226,3.812,11.798,3.396,10.82
-4.688,1.371,0.642,13.06,3.438,13.121,2.74,11.777
-5.473,1.955,0.177,14.409,3.628,14.868,1.607,14.889
-9.699,0.074,-4.108,10.594,0.148,10.392,-2.996,10.447
-13.337,-1.163,-7.569,5.091,-5.181,3.58,-6.82,0.058
-11.58,1.727,-4.867,4.868,-6.696,2.576,-4.779,-4.751
-8.265,4.791,-0.64,6.932,-5.159,5.143,-0.717,-2.957
-8.996,3.283,-0.85,5.336,-4.304,5.001,-0.21,-1.438
-11.459,-0.028,-2.293,2.786,-3.259,4.024,-2.028,-0.032
-11.266,-0.444,-1.333,3.826,-1.116,6.427,-2.693,3.926
-9.99,0.952,-1.599,5.371,-0.82,9.153,-2.691,6.511
-9.977,1.403,-5.049,3.22,-3.622,7.857,-3.975,3.785
-7.498,3.566,-5.569,1.887,-4.676,6.81,-3.235,1.287
0.158,9.571,0.388,6.671,0.389,11.317,3.106,5.671
5.992,12.599,5.442,10.955,5.912,15.076,7.968,10.269
3.64,7.355,3.627,6.849,3.989,10.594,3.781,6.069
-1.591,0.42,-0.418,-0.364,-2.283,3.576,-3.521,-1.151
-3.69,-1.522,-3.039,-2.678,-6.225,2.146,-6.535,-2.528
-4.748,-0.402,-6.46,-1.083,-7.943,4.691,-7.438,-0.335
-5.886,1.248,-9.279,1,-8.98,7.215,-8.194,0.754
-4.328,3.637,-7.461,3.434,-8.324,9.648,-6.578,1.725
-1.093,5.502,-2.81,6.14,-6.254,11.892,-3.462,4.245
-0.458,5.05,-0.438,7.531,-4.977,12.438,-2.217,6.881
-2.972,3.206,-1.215,6.997,-5.417,11.36,-3.093,7.828
-5.108,2.038,-2.374,5.929,-6.236,10.587,-4.003,8.083
-5.07,1.472,-3.117,4.609,-6.417,9.938,-4.667,8.03
-4.651,0.588,-4.473,1.861,-6.38,7.199,-6.346,5.196
-5.028,0.451,-5.523,-0.267,-6.226,4.237,-8.603,1.417
-4.039,3.314,-4.167,1.714,-5.176,4.855,-8.754,0.801
0.555,9.632,0.167,6.255,-2.538,7.454,-4.695,0.741
6.057,15.553,5.604,9.079,0.662,8.818,1.102,-0.786
6.978,15.889,8.754,8.91,2.298,9.103,3.183,-0.568
2.653,11.068,7.861,6.563,2.59,8.224,0.637,0.526
-1.652,6.955,4.812,3.254,2.939,5.802,-2.259,-0.463
-1.437,7.241,2.888,1.604,2.596,4.525,-3.062,-1.087
3.021,10.262,3.497,4.05,1.538,6.989,-2.552,1.576
8.669,12.758,5.583,8.902,1.828,11.081,-1.29,5.132
12.138,12.772,6.966,11.149,3.102,12.413,-0.307,5.264
11.703,10.295,6.379,8.888,3.269,10.118,-1.222,2.158
9.171,7.566,5.306,5.983,3.524,8.041,-2.638,1.335
8.288,7.014,6.58,6.413,6.594,9.438,-1.362,5.829
9.729,7.669,9.145,7.652,10.253,10.76,1.558,9.615
10.031,6.399,8.515,4.635,9.017,6.566,1.955,6.571
7.573,3.485,5.037,-0.573,3.983,-0.002,0.036,1.113
4.336,1.372,3.202,-2.636,1.58,-2.604,-1.154,-1.388
0.782,-0.843,2.892,-2.636,2.043,-2.518,-2.446,-3.341
-3.658,-4.71,1.257,-4.154,0.757,-3.723,-5.251,-5.848
-6.202,-7.41,-0.232,-5.589,-1.603,-4.674,-6.478,-4.92
-4.096,-5.619,1.501,-3.159,-0.859,-1.941,-3.426,0.441
-0.617,-1.841,5.14,1.535,2.541,2.449,0.685,5.117
-1.526,-1.425,6.586,2.898,4.576,3.293,1.194,4.492
-6.994,-4.56,4.65,0.232,3.998,0.79,-1.051,0.952
-11.473,-6.604,2.351,-1.928,3.16,-0.348,-2.064,-0.077
-10.499,-5.356,2.888,-1.662,3.972,0.865,-0.802,2.103
-5.219,-2.986,5.637,-0.705,5.613,2.042,1.555,4.813
-0.438,-1.565,7.245,-0.004,6.143,2.633,4.474,7.128
1.457,-0.49,7.309,1.217,5.817,3.449,7.948,10.159
2.427,1.218,8.89,3.519,7.173,4.686,11.634,14.583
3.404,2.074,11.413,4.977,9.595,5.073,13.226,17.366
2.501,0.224,10.305,2.196,8.349,1.87,10.093,13.432
-0.208,-2.793,5.168,-4.11,2.896,-4.773,4.28,4.023
-2.252,-3.877,0.878,-8.184,-0.833,-9.41,0.453,-2.979
-2.744,-2.417,0.252,-6.731,0.241,-8.127,-0.76,-3.88
-2.698,-0.316,1.247,-2.745,2.35,-3.631,-2.074,-2.25
-2.788,0.567,1.785,0.154,2.58,0.069,-3.939,-0.927
-2.553,0.53,3.107,2.599,3.535,3.135,-3.788,1.217
-0.826,1.926,7.124,6.906,7.749,7.269,-0.653,4.608
1.949,5.299,12.194,11.934,12.235,10.933,2.458,6.49
1.842,6.903,12.74,12.793,11.186,10.451,2.062,4.623
-4.047,3.849,5.774,7.184,3.3,5.418,-1.441,0.734
-11.637,-0.383,-2.477,0.378,-4.437,0.603,-3.996,-1.462
-14.214,-0.646,-3.711,-1.032,-4.355,0.161,-3.146,-0.735
-12.063,1.815,0,1.135,0.379,1.482,-1.918,0.083
-10.448,2.357,1.428,0.938,1.346,0.276,-3.808,-1.49
-10.026,1.197,0.921,-1.289,-0.459,-1.698,-6.382,-3.167
-7.805,2.024,2.548,-1.776,1.026,-1.278,-5.593,-1.975
-5.148,4.327,3.845,-1.796,3.284,-0.96,-3.682,-0.755
-5.491,4.127,0.859,-4.31,0.63,-3.838,-4.81,-3.354
-6.12,2.448,-2.109,-5.816,-2.795,-5.91,-5.598,-5.23
-3.22,3.424,-0.419,-2.072,-0.634,-2.633,-1.889,-1.102
-1.242,4.776,0.652,2.118,2.339,1.318,0.803,3.119
-5.3,1.73,-4.27,0.564,-1.411,-0.133,-3.058,0.885
-11.02,-3.24,-10.24,-3.731,-8.707,-3.978,-8.329,-3.24
-12.435,-4.769,-10.712,-5.481,-11.496,-5.456,-8.339,-3.622
-11.218,-3.223,-7.249,-5.18,-8.189,-5.791,-4.795,-1.349
-10.094,-1.366,-4.044,-4.42,-2.797,-6.263,-2.785,1.169
-7.476,0.779,-1.459,-2.938,0.469,-5.472,-3.54,1.467
-3.652,2.887,0.987,-1.789,0.292,-4.182,-4.764,-2.349
-1.654,3.746,2.874,-1.847,-0.496,-3.798,-4.107,-6.509
-0.874,5.06,5.114,-0.901,1.266,-2.307,-1.269,-5.263
0.559,7.957,7.643,1.837,3.649,0.923,1.598,-0.614
1.273,9.823,8.807,3.738,3.165,2.872,2.872,1.782
1.442,10.633,10.386,5.51,2.734,4.313,4.878,4.189
2.786,12.443,13.588,9.298,6.517,7.568,8.586,9.093
2.823,12.494,13.539,11.252,9.883,8.605,8.989,9.172
-0.167,8.564,8.515,8.634,7.018,4.834,4.193,1.921
-1.726,5.082,4.848,6.495,2.439,1.9,0.647,-2.598
0.618,5.257,6.247,8.318,2.805,3.456,2.157,0.397
1.733,5.143,8.632,10.048,5.209,4.967,3.512,3.172
-2.305,1.042,8.43,8.131,4.19,2.704,0.618,0.609
-6.542,-3.192,8.722,5.943,2.764,0.575,-1.344,-1.409
-5.381,-2.748,12.718,7.263,6.231,2.731,2.992,2.676
-2.418,-0.814,16.725,9.161,11.699,5.846,8.959,8.202
-2.158,-1.494,17.271,8.759,13.949,6.068,10.574,9.518
-1.928,-2.301,16.899,8.518,13.496,5.287,9.432,8.319
-0.551,-1.739,16.589,9.169,12.035,5.346,7.552,6.588
-0.872,-1.926,14.558,9.181,10.371,6.392,5.313,4.508
-1.665,-2.208,12.956,10.178,10.996,9.529,5.645,4.754
0.091,-1.174,14.555,13.313,13.87,13.741,9.241,8.472
2.645,-0.503,17.493,16.593,14.574,16.503,12.715,12.835
3.136,-0.867,19.13,18.936,11.765,18.005,14.104,15.431
2.588,-0.51,19.03,19.873,10.235,18.38,13.66,15.245
3.745,1.321,18.266,18.566,13.092,16.665,12.716,13.427
7.302,4.204,19.086,17.091,17.232,15.391,13.587,14.626
10.819,6.723,20.967,16.411,18.662,15.341,15.268,17.429
11.432,6.39,19.617,11.905,16.438,10.217,13.034,11.473
9.957,3.728,14.962,3.401,12.174,-0.468,7.083,-2.128
8.729,1.948,11.267,-1.987,7.643,-7.407,2.763,-8.633
7.215,1.141,8.533,-3.196,2.845,-8.405,1.205,-6.169
5.875,0.676,5.672,-4.238,0.085,-8.723,0.805,-4.553
8.391,2.905,5.875,-3.941,3.515,-7.898,2.996,-3.165
13.678,6.853,8.766,-1.592,9.536,-4.73,7.132,2.357
15.403,7.414,8.88,-0.988,10.055,-3.358,8.652,6.613
12.992,4.511,6.232,-2.421,6.307,-5.218,6.768,4.312
12.046,3.196,6.071,-2.489,5.716,-7.08,5.002,-0.985
14.172,5.173,9.423,-0.226,8.85,-6.49,5.091,-3.139
15.793,7.514,12.926,2.945,10.944,-2.906,6.249,-0.753
14.579,7.799,14.309,4.942,10.631,1.276,7.04,2.003
11.229,6.217,13.007,3.738,9.25,1.585,5.761,1.071
7.947,4.641,9.771,0.838,7.472,-1.164,2.605,-1.302
6.837,5.152,7.36,1.143,6.423,-1.001,0.977,0.049
7.232,7.133,7.124,4.702,6.564,2.041,2.55,3.726
7.135,7.878,7.124,6.028,6.28,2.26,4.268,3.639
7.138,7.572,6.455,4.408,5.286,0.114,3.964,0.414
8.389,8.753,6.293,4.164,5.349,0.504,3.491,0.137
9.323,10.691,6.314,5.284,6.153,2.313,4.007,2.821
8.169,9.687,5.093,4.16,5.173,1,3.583,3.079
6.861,6.319,4.007,1.935,3.201,-1.943,1.792,0.557
8.9,5.981,6.16,3.14,4.18,-1.274,1.884,-0.177
12.799,8.682,10.367,7.036,7.402,2.22,4.838,1.585
13.982,8.607,12.5,9.069,8.893,3.509,7.113,2.849
12.752,5.674,12.261,8.422,8.869,2.342,6.806,2.878
12.022,4.639,11.173,7.01,8.246,1.586,5.246,2.455
11.535,6.001,8.632,5.72,5.887,1.541,3.647,1.567
10.832,7.601,5.741,5.191,4.019,1.659,3.308,0.948
11.4,8.956,6.094,6.393,6.104,2.723,5.377,2.216
12.55,9.479,9.07,8.548,9.578,4.281,7.769,4.666
11.789,8.432,10.045,9.202,9.776,4.025,7.215,4.926
10.112,7.329,9.152,8.4,8.401,2.281,5.144,2.607
9.84,7.233,10.093,8.505,8.981,2.23,5.189,1.568
9.128,5.993,11.251,9.185,9.01,3.924,6.383,2.939
5.313,2.262,8.441,8.26,5.104,4.05,5.385,3.434
0.754,-1.11,3.562,6.603,-0.137,2.304,2.489,1.661
0.494,-0.608,2.121,7.589,-1.645,2.542,1.252,0.795
4.842,2.837,4.078,11.294,1.137,5.785,3.199,3.206
8.683,5.348,4.729,13.115,3.697,7.57,5.219,5.749
9.589,5.965,3.783,11.153,3.57,5.945,4.679,5.049
10.248,6.287,4.414,9.061,3.195,4.425,3.304,3.19
12.09,5.951,5.699,8.395,3.651,4.366,2.704,2.557
13.819,4.483,4.811,6.85,3.038,3.677,2.018,2.061
15.623,4.692,3.364,4.989,2.02,2.687,1.492,1.646
18.888,8.344,5.016,5.654,3.474,3.293,2.806,2.69
21.734,11.391,8.085,7.142,6.042,4.082,4.935,3.736
20.052,9.268,6.784,4.869,4.641,2.065,4.144,1.985
14.225,4.113,0.914,-0.406,-1.475,-1.914,-0.041,-2.049
9.785,1.641,-3.009,-2.562,-6.551,-3.555,-3.01,-4.489
10.609,3.755,-1.505,1.122,-5.13,-0.951,-1.37,-2.561
13.982,6.603,1.399,5.647,0.854,2.179,2.138,0.852
14.299,5.885,1.204,5.859,4.491,1.965,3.195,0.911
11.451,3.233,-0.355,4.274,4.018,0.598,2.523,-0.74
9.761,2.518,-0.225,4.728,3.006,1.266,2.658,0.085
10.042,3.347,0.052,5.718,2.48,2.874,3.018,1.687
9.992,4.02,-0.666,6.001,2.036,4.035,2.888,1.245
8.984,4.708,0.235,6.683,3.186,4.67,3.132,0.333
8.459,5.573,4.277,7.273,6.422,4.487,4.131,1.122
10.114,6.375,9.83,7.048,10.158,4.055,5.862,3.561
13.475,6.881,14.423,6.637,12.978,4.049,7.963,6.319
15.802,6.736,16.564,6.137,14.403,3.799,9.295,8.116
15.701,5.929,16.033,4.928,14.252,2.518,9.106,8.322
14.164,4.521,13.407,3.299,12.378,1.045,7.685,7.338
12.017,2.579,10.085,2.84,9.313,1.244,5.962,6.843
9.219,0.65,6.883,3.194,5.808,1.66,4.471,4.973
6.657,-0.369,3.49,1.732,2.34,-1.16,3.134,-2.25
6.579,0.455,1.473,-0.119,0.575,-4.242,2.926,-8.823
8.847,2.205,2.514,1.032,1.581,-2.602,4.346,-6.395
9.666,1.894,4.241,2.617,3.378,0.292,5.343,-0.677
8.599,-0.185,4.989,1.901,5.037,-0.127,5.669,0.591
10.304,0.105,7.74,2.755,8.901,-0.318,8.206,1.436
14.394,2.218,13.236,6.94,14.863,2.946,12.502,5.731
13.519,0.166,15.965,8.708,17.932,5.108,14.117,8.094
5.781,-6.696,11.582,4.147,14.567,1.784,11.404,4.649
-1.319,-11.588,3.334,-2.618,7.211,-3.702,6.927,0.374
-2.425,-10.692,-1.882,-5.228,1.174,-5.265,3.679,0.648
-0.743,-7.423,-1.876,-2.833,-0.78,-2.513,2.831,3.415
-0.932,-6.048,-0.785,-0.529,-0.533,-0.79,2.841,3.206
-2.805,-6.941,-1.687,-1.479,-1.019,-2.577,1.534,-0.273
-3.944,-7.914,-2.747,-2.208,-2.396,-3.751,-0.645,-2.05
-4.617,-7.533,-3.738,-0.565,-4.748,-2.209,-2.967,-1.256
-6.689,-6.354,-7.94,-0.601,-9.361,-1.981,-6.448,-2.739
-7.626,-3.373,-13.076,-2.714,-13.331,-3.574,-9.397,-6.657
-3.7,3.13,-13.214,-2.369,-12.622,-3.154,-8.922,-8.157
0.02,8.205,-11.407,-1.662,-11.026,-2.466,-7.741,-7.156
-3.865,5.326,-14.498,-5.774,-13.867,-5.166,-9.61,-6.784
-11.641,-2.021,-19.818,-12.058,-18.262,-8.916,-12.32,-7.177
-14.906,-5.947,-20.457,-14.855,-19.147,-10.18,-12.123,-7.114
-14.117,-6.298,-16.857,-14.103,-17.524,-9.555,-9.86,-6.829
-14.743,-7.418,-14.351,-12.787,-16.344,-8.836,-8.759,-7.041
-15.631,-8.215,-13.201,-10.823,-13.976,-7.292,-8.219,-6.44
-12.193,-5.5,-9.887,-7.11,-8.954,-4.376,-5.403,-3.776
-7.058,-2.17,-6.192,-4.375,-5.474,-3.079,-2.161,-1.983
-6.051,-2.005,-6.317,-5.325,-6.865,-5.457,-2.606,-3.999
-7.799,-2.742,-8.284,-7.228,-9.882,-8.329,-5.666,-6.581
-7.468,-1.443,-7.488,-5.735,-9.881,-7.796,-6.458,-4.353
-6.358,-0.401,-4.973,-1.617,-7.427,-4.877,-3.719,1.134
-9.488,-3.607,-5.893,-0.238,-6.991,-3.754,-1.932,1.926
-15.905,-9.846,-10.551,-3.436,-9.369,-5.364,-4.03,-3.927
-18.181,-12.708,-12.151,-5.924,-9.621,-6.146,-5.811,-8.226
-13.292,-9.647,-7.474,-4.393,-5.888,-4.859,-3.522,-6.14
-7.503,-5.657,-3.427,-2.796,-3.829,-4.654,-1.387,-2.87
-6.122,-4.295,-5.735,-3.249,-6.967,-5.866,-3.555,-2.587
-6.32,-3.206,-9.575,-1.927,-10.527,-4.588,-6.009,-2.539
-5.243,-1.444,-9.92,1.812,-10.992,-0.705,-5.15,-1.773
-5.414,-1.719,-10.505,2.912,-12.166,0.619,-5.144,-4.421
-6.785,-3.175,-13.314,0.962,-14.966,-1.277,-7.867,-9.278
-5.038,-1.917,-12.256,1.669,-13.209,-0.438,-7.656,-8.904
-1.53,0.324,-5.568,5.17,-5.731,3.938,-3.003,-3.313
-2.303,-1.645,-0.105,5.68,0.583,5.648,0.639,0.381
-6.858,-6.74,1.518,3.094,3.14,3.827,2.301,1.704
-9.447,-9.467,4.046,2.632,6.076,3.691,6.02,5.445
-8.9,-8.935,8.153,4.936,9.753,5.754,10.59,10.017
-8.259,-8.459,8.807,5.934,9.812,5.911,10.997,9.965
-8.661,-9.603,4.894,3.535,5.871,3.09,7.63,5.677
-8.94,-11.236,0.783,-0.599,1.96,-0.527,4.73,1.502
-7.758,-11.744,-0.11,-3.615,0.509,-3.616,3.558,-0.839
-5.356,-11.299,1.235,-4.73,0.715,-6.258,2.393,-2.471
-4.107,-11.763,2.106,-5.337,1.062,-7.877,0.305,-4.776
-6.972,-15.11,0.263,-7.405,-0.675,-9.022,-3.815,-9.696
-16.309,-23.542,-8.165,-14.053,-8.856,-13.827,-13.956,-20.544
-30.386,-36.138,-23.63,-26.094,-23.605,-24.018,-30.073,-36.4
-40.326,-44.944,-35.828,-36.327,-34.904,-32.963,-41.012,-46.482
-34.406,-38.83,-30.662,-32.03,-29.328,-29.046,-31.97,-35.847
-10.688,-15.713,-6.558,-9.293,-4.957,-7.911,-1.783,-3.166
15.254,9.767,20.224,16.799,21.895,17.71,30.32,31.051
28.873,23.71,35.31,30.364,36.042,32.535,46.925,48.845
33.285,28.797,40.177,32.608,39.844,35.584,49.971,52.735
33.111,28.743,37.472,28.239,37.521,30.449,44.82,47.548
25.813,20.556,26.63,17.705,27.883,19.047,32.306,33.519
15.411,8.607,15.531,7.405,17.581,8.923,19.537,19.086
10.856,2.455,13.135,5.221,15.638,7.33,14.939,14.11
11.45,1.545,15.358,7.873,18.261,10.141,15.587,15.016
9.104,-2.186,12.876,6.219,16.008,8.278,12.813,11.927
2.818,-9.324,6.55,-0.078,9.678,1.987,6.489,4.853
-0.037,-12.66,4.58,-3.284,7.472,-0.775,4.029,1.746
3.839,-10.311,8.985,-0.622,11.12,2.181,7.551,4.847
8.832,-8.244,13.124,2.595,14.007,5.257,10.942,8.413
9.021,-9.856,10.985,1.772,10.873,4.669,8.984,7.481
5.757,-11.29,4.407,-1.238,4.059,2.52,4.076,3.397
4.332,-8.062,0.461,-1.86,0.48,2.358,2.683,1.178
5.725,-2.214,2.598,0.57,3.116,4.358,6.061,2.7
5.693,-0.172,6.508,1.979,7.228,5.129,8.768,4.48
2.91,-3.27,7.138,-0.471,7.99,2.342,7.739,3.57
1.617,-5.855,5.863,-4.333,7.333,-1.811,5.972,1.67
3.114,-5.197,5.539,-6.351,8.089,-4.184,5.778,1.017
3.266,-4.81,4.426,-7.075,8.09,-4.895,5.499,0.911
0.828,-6.086,0.919,-7.408,5.324,-4.908,3.971,0.572
-0.747,-6.144,-2.127,-6.391,2.328,-4.02,2.509,0.599
-0.354,-5.201,-2.519,-5.228,1.472,-3.572,1.392,0.352
-0.429,-7.032,-2.359,-6.271,1.324,-5.068,-0.324,-0.956
-0.977,-10.384,-3.018,-7.416,0.935,-5.887,-1.044,-1.364
0.775,-9.726,-2.288,-5.448,2.154,-3.471,1.235,0.576
4.125,-5.626,0.689,-2.452,4.708,-0.608,4.233,2.739
5.135,-3.67,3.175,-1.945,5.281,-0.318,4.706,3.054
3.474,-4.507,2.8,-3.286,3.424,-1.444,3.308,2.23
3.07,-4.089,0.453,-4.072,2.227,-2.171,2.549,1.679
5.589,-1.561,-1.514,-4.018,2.714,-2.601,3.249,1.47
8.037,-0.678,-2.783,-4.529,2.728,-3.94,3.862,0.688
8.452,-3.063,-4.102,-5.483,1.522,-6.153,2.931,-0.237
9.091,-5.284,-4.17,-5.005,1.377,-6.67,2.063,0.55
11.02,-5.481,-1.898,-3.502,3.366,-4.731,2.975,2.248
11.789,-5.819,1.061,-2.965,5.483,-3.019,4.279,2.397
11.123,-6.058,3.146,-2.308,6.746,-1.767,5.236,2.214
10.888,-4.374,3.752,-0.4,7.5,0.475,6.411,3.347
9.888,-3.157,1.78,-0.055,6.319,1.424,6.255,3.193
6.631,-4.711,-1.964,-2.38,2.656,-0.468,3.806,0.452
3.044,-6.438,-4.415,-3.826,-0.819,-1.794,1.248,-1.444
1.097,-5.695,-4.053,-2.119,-1.421,0.069,0.503,-0.293
0.629,-3.711,-1.553,1.263,1.097,3.405,1.492,2.027
1.465,-2.24,2.468,4.673,5.486,5.984,4.346,3.976
3.856,-0.646,7.747,8.038,10.907,7.911,11.123,6.993
5.223,0.429,11.327,10.082,15.069,9.305,21.091,10.571
0.196,-3.82,6.505,5.948,10.823,6.589,22.122,6.485
-11.888,-15.751,-9.161,-7.243,-6.052,-4.256,1.784,-11.841
-23.66,-29.035,-26.866,-23.271,-26.131,-19.408,-28.188,-34.087
-27.783,-35.044,-35.023,-32.275,-35.369,-29.081,-42.658,-42.575
-19.743,-28.275,-27.372,-27.516,-27.04,-24.899,-32.581,-30.872
2.177,-7.792,-4.053,-7.742,-2.418,-5.296,-5.849,-4.67
23.617,11.927,18.777,12.636,21.499,14.751,18.222,18.438
24.323,12.335,20.724,14.979,23.674,16.77,21.106,21.413
13.286,3.354,11.019,8.227,13.17,10.109,12.307,14.418
14.185,6.82,13.112,12.99,14.224,15.563,14.186,18.393
22.954,16.675,22.955,22.662,23.72,26.361,23.466,27.931
22.761,16.884,24.016,21.186,25.289,25.497,25.806,27.785
17.982,13.079,19.877,14.73,21.705,18.542,24.075,22.611
18.522,14.522,18.799,13.274,20.413,16.458,22.952,20.395
17.832,14.352,14.204,10.156,15.382,13.506,15.491,15.11
9.811,7.433,2.942,0.907,4.317,4.67,2.38,4.664
4.19,3.256,-2.565,-3.604,-0.917,0.268,-1.52,0.891
9.265,8.401,4.581,2.868,5.56,6.833,8.711,8.811
15.706,13.099,12.304,8.936,11.364,13.109,16.824,14.802
10.963,6.37,7.91,3.704,4.431,7.946,8.611,6.586
-0.209,-5.742,-2.919,-6.59,-7.262,-2.867,-6.097,-7.35
-2.733,-8.422,-4.71,-8.778,-7.02,-6.079,-7.149,-9.703
6.999,0.961,6.09,-0.67,5.416,1.801,6.318,1.099
17.751,10.636,16.778,7.452,14.187,10.889,15.305,10.402
18.873,10.594,15.219,6.037,9.74,10.133,8.443,7.94
12.748,3.864,5.476,-1.935,0.386,1.933,-3.639,-0.348
10.286,0.499,1.643,-5.094,-0.554,-1.485,-4.922,-1.906
14.945,3.924,7.141,0.237,6.762,3.627,3.955,4.734
19.252,8.48,11.535,5.563,11.729,8.214,9.55,9.038
18.13,8.576,8.603,3.508,9.625,5.209,5.943,5.224
15.407,5.057,3.908,-2.438,4.947,-1.004,0.087,-0.402
15.981,2.956,3.702,-4.617,3.051,-2.7,-0.399,-0.598
18.531,4.65,6.643,-2.257,4.641,-0.091,3.333,2.764
18.389,6.886,7.646,-0.902,6.462,0.747,4.966,3.17
15.482,6.262,5.25,-2.988,5.817,-1.934,2.326,-0.537
14.851,4.705,3.382,-4.666,4.317,-3.842,-0.274,-3.185
18.055,5.618,4.955,-3.119,4.745,-2.484,0.809,-1.584
20.481,7.915,6.876,-1.199,5.962,-0.59,3.381,1.138
18.906,8.006,5.286,-1.974,5.347,-1.137,3.792,1.243
15.028,4.861,1.554,-4.375,3.323,-3.674,2.217,-0.421
11.883,1.122,-0.288,-6.06,2.263,-5.77,1.169,-1.082
11.479,0.441,1.085,-6.102,3.235,-5.352,1.929,-0.146
14.088,3.348,3.533,-4.837,5.026,-2.794,3.851,0.975
17.9,6.497,4.663,-3.55,5.67,-1.064,5.348,1.202
20.552,7.214,4.263,-3.263,4.573,-1.604,5.353,0.879
20.931,6.248,3.39,-3.799,2.246,-2.836,4.149,0.419
19.175,4.762,2.212,-5.216,-1.282,-4.365,1.962,-1.237
16.751,3.051,1.217,-7.225,-4.543,-6.683,-0.674,-3.918
16.237,3.054,2.53,-7.451,-3.457,-7.373,-0.875,-4.213
17.972,6.197,5.882,-5.203,2.307,-5.09,2.56,-1.156
18.847,9.795,7.527,-3.585,6.716,-3.123,5.672,1.305
16.713,10.5,5.351,-4.522,5.644,-3.896,5.145,0.892
12.609,8.201,0.496,-7.102,1.356,-6.411,2.168,-1.029
8.937,5.364,-4.133,-9.77,-1.956,-8.95,-0.683,-3.084
7.763,4.924,-5.626,-10.426,-2.571,-9.553,-1.757,-4.329
9.003,7.461,-4.298,-8.111,-2.025,-7.509,-1.161,-4.094
10.595,10.72,-3.173,-5.022,-2.56,-5.199,-0.562,-2.9
11.271,12.403,-3.484,-3.821,-4.115,-4.993,-0.785,-1.846
10.83,11.653,-3.944,-4.813,-5.21,-6.306,-1.228,-1.807
9.045,9.052,-4.007,-6.992,-5.702,-7.791,-1.699,-3.142
7.651,7.341,-3.704,-8.318,-5.313,-8.669,-1.62,-4.295
9.592,9.155,-1.855,-6.338,-2.036,-7.679,0.391,-2.69
13.169,11.988,0.763,-2.669,3.011,-5.461,2.878,0.541
13.409,10.732,0.985,-1.827,4.839,-4.836,2.854,1.707
9.976,5.696,-1.173,-3.977,2.171,-6.013,1.054,0.616
6.612,1.635,-2.54,-5.562,-0.945,-6.824,-0.05,-0.572
4.788,0.282,-2.191,-5.585,-1.619,-6.892,-0.484,-1.491
3.328,-0.492,-2.079,-6.196,-1.245,-7.556,-1.662,-2.728
1.884,-1.651,-2.887,-8.038,-1.678,-8.758,-3.201,-3.796
1.551,-1.389,-2.993,-8.534,-2.011,-8.399,-2.828,-3.42
2.613,1.197,-2.572,-6.838,-1.621,-6.185,-0.701,-1.839
3.101,3.653,-4.334,-6.219,-2.427,-5.124,-0.516,-1.564
1.551,3.858,-7.75,-7.749,-4.541,-6.104,-3.207,-3.422
-0.37,2.992,-8.698,-8.025,-5.301,-6.257,-5.155,-4.919
-1.229,2.254,-6.359,-5.775,-4.919,-4.771,-4.532,-4.529
-1.546,1.754,-3.298,-2.943,-4.937,-3.197,-2.498,-2.817
-1.732,1.454,-1.542,-0.941,-3.728,-2.323,-0.536,-1.138
-2.661,-0.192,-2.66,-1.232,-1.515,-3.314,-0.761,-1.735
-4.058,-3.091,-5.362,-3.719,-1.065,-5.447,-2.812,-3.988
-3.289,-3.844,-5.754,-5.041,-1.283,-5.225,-2.88,-4.066
-1.265,-2.717,-4.599,-4.595,-0.818,-3.464,-1.155,-2.349
-2.438,-4.208,-6.085,-6.122,-2.378,-4.726,-1.997,-2.906
-6.502,-8.609,-9.322,-9.829,-6.323,-8.425,-4.845,-5.055
-8.66,-11.292,-9.778,-11.134,-8.362,-9.779,-4.705,-4.542
-6.715,-9.361,-6.565,-7.934,-6.163,-7.336,-1.031,-1.153
-2.807,-4.972,-3.168,-3.363,-3,-3.838,1.697,1.317
-0.328,-2.752,-2.517,-1.311,-3.067,-2.019,0.72,0.678
0.002,-3.515,-2.99,-1.275,-4.976,-1.537,-2.481,-0.906
0.009,-3.913,-1.59,-0.157,-4.588,-0.627,-5.353,-0.304
0.27,-2.587,0.857,2.004,-2.089,0.303,-6.416,1.519
0.655,-0.134,2.868,3.939,0.253,0.768,-4.2,1.813
1.801,3.494,5.358,7.01,2.23,2.617,1.111,1.121
2.993,6.872,7.392,11.081,3.275,5.648,5.513,1.016
3.109,7.951,6.275,12.665,2.198,6.358,5.697,0.641
3.014,7.089,2.683,10.362,-0.015,3.498,2.733,-0.935
4.115,5.725,0.274,6.824,-1.13,-0.122,0.044,-2.132
6.393,4.887,0.954,4.485,-0.779,-1.955,0.585,-1.168
8.867,5.977,2.904,3.147,-0.473,-2.403,3.778,0.554
11.632,10.078,3.692,2.63,-0.211,-2.341,6.413,0.601
14.494,14.859,3.271,3.453,1.159,-1.692,7.08,-0.672
14.804,15.514,2.772,4.555,2.311,-1.004,5.833,-1.775
12.832,12.467,3.397,5.33,2.392,-0.391,3.418,-2.113
12.663,11.072,5.345,6.615,3.564,0.612,1.986,-1.482
13.658,11.878,6.528,7.262,5.328,1.049,2.162,-0.913
12.321,11.619,6.186,6.215,5.074,0.763,2.456,-1.836
9.706,9.959,6.2,5.126,4.075,1.074,1.718,-3.652
7.831,7.868,6.17,4.545,3.961,1.619,-0.422,-4.736
5.618,5.522,4.127,3.506,2.955,1.308,-2.875,-4.926
2.501,3.408,1.757,2.987,0.822,0.874,-3.159,-5.007
0.989,2.494,2.696,5.12,0.86,2.205,-0.236,-3.729
2.508,3,6.368,9.28,3.871,5.55,3.538,0.78
4.06,3.621,8.219,11.688,5.379,7.997,4.655,5.534
3.117,3.636,6.505,10.626,2.549,7.286,2.757,5.179
1.641,4.102,4.39,9.322,-0.792,5.821,1.134,1.445
1.621,5.169,3.888,10.232,-0.732,6.283,1.625,1.123
1.327,5.204,2.235,10.059,0.034,5.83,1.137,3.037
-0.462,4.086,-1.907,6.18,-2.488,1.66,-2.436,0.438
-1.758,3.496,-4.281,2.739,-6.769,-2.209,-5.086,-4.867
-1.642,3.234,-2.605,3.4,-8.471,-1.747,-3.996,-5.991
-0.788,2.33,-0.332,5.732,-6.217,1.007,-2.426,-2.146
0.68,1.497,-0.857,5.788,-3.314,2.195,-3.025,1.618
0.936,0.232,-4.828,1.876,-3.692,-0.6,-4.265,-0.689
-1.471,-2.969,-9.893,-3.872,-6.482,-6.306,-4.754,-9.055
-3.257,-6.327,-11.611,-6.668,-7.631,-9.843,-4.669,-15.249
-0.824,-6.419,-8.577,-4.754,-5.501,-8.229,-2.783,-13.479
4.243,-3.476,-4.119,-1.04,-1.904,-4.074,1.31,-7.85
7.977,-1.3,-1.474,1.489,1.1,-0.882,4.014,-4.435
9.404,-1.836,-0.349,2.554,3.449,0.586,3.391,-3.218
10.468,-2.907,1.137,2.837,5.696,0.758,2.845,-1.82
11.697,-2.523,3.372,2.591,7.445,0.128,4.864,-0.617
12.226,-1.072,5.884,3.037,9.202,0.451,7.725,-0.055
12.826,0.975,8.832,5.732,12.322,3.178,9.653,2.03
13.122,2.336,11.046,8.924,14.911,5.926,9.796,5.598
10.896,1.272,10.513,9.127,13.673,5.625,7.497,6.273
8.045,-0.235,8.807,6.818,10.244,3.73,5.027,2.512
8.776,1.064,9.395,5.62,8.906,3.348,5.766,-0.839
11.963,3.445,11.533,6.855,10.051,5.005,8.817,0.751
13.422,3.278,11.641,8.704,10.943,7.279,11.081,5.797
13.231,1.68,9.862,9.931,10.264,8.692,12.811,10.128
13.117,1.094,9.003,10.55,8.531,8.441,15.017,11.587
10.875,-0.188,8.769,9.516,6.488,6.322,15.198,10.201
5.461,-3.726,7.394,6.385,5.155,3.123,12.042,7.75
0.798,-7.462,5.469,2.915,5.033,-0.056,8.466,6.086
-1.402,-10.169,3.874,-0.343,4.668,-3.486,5.9,4.456
-4.275,-13.335,1.201,-4.778,2.047,-7.758,2.589,1.185
-8.546,-16.773,-3.427,-9.283,-1.904,-11.415,-0.845,-2.537
-10.865,-17.498,-7.222,-10.649,-4.264,-12.333,-1.678,-3.997
-10.165,-14.68,-7.737,-8.897,-4.913,-10.757,-0.981,-3.374
-8.662,-10.836,-6.958,-6.643,-5.808,-8.327,-1.855,-3.216
-7.783,-7.978,-7.271,-4.796,-7.17,-6.121,-3.99,-4.585
-7.655,-6.298,-7.513,-2.728,-7.881,-4.555,-5.293,-6.199
-8.145,-5.557,-6.477,-0.62,-7.787,-3.021,-5.63,-6.692
-8.7,-5.875,-5.995,0.251,-7.853,-1.015,-6.205,-6.412
-8.606,-6.648,-6.748,-0.073,-7.667,0.586,-6.529,-5.871
-8.126,-6.555,-6.051,0.31,-5.359,1.058,-4.809,-4.524
-8.892,-6.355,-3.403,1.429,-2.075,0.376,-2.112,-3.199
-11.133,-7.415,-1.846,1.409,-1.231,-1.011,-1.229,-3.358
-12.112,-7.555,-2.109,0.757,-1.98,-1.478,-1.293,-3.653
-10.749,-5.172,-2.444,0.942,-1.184,-0.404,0.014,-2.988
-9.749,-3.46,-2.913,0.952,-0.153,0.422,1.246,-3.265
-10.004,-4.146,-3.258,0.303,-0.983,0.55,0.587,-4.638
-8.905,-4.697,-1.057,0.824,-1.289,1.624,-0.102,-4.637
-5.719,-4.327,3.318,2.884,0.958,3.558,0.626,-3.129
-2.573,-4.566,6.478,4.69,3.73,4.626,1.451,-2.038
-0.74,-5.386,7.744,5.179,5.146,4.208,1.677,-1.699
0.167,-5.638,8.688,4.709,6.24,3.063,1.962,-1.246
1.353,-4.128,9.82,4.58,8.365,2.655,2.9,-0.34
3.205,-0.534,11.145,6.014,10.287,3.683,4.431,0.786
3.185,2.275,11.406,7.528,9.601,4.202,4.553,1.003
-0.634,1.241,8.445,6.273,6.514,2.466,1.416,-0.879
-4.497,-1.179,3.989,3.523,3.944,0.976,-2.228,-3.489
-3.037,-0.251,2.918,3.368,4.226,2.512,-1.837,-3.699
3.239,3.704,5.949,5.827,6.76,5.08,1.976,-1.074
8.789,6.415,8.516,7.105,8.494,5.711,4.307,1.348
9.521,5.872,7.226,5.308,6.57,4.287,2.647,1.191
6.316,4.02,3.609,2.235,1.259,2,-1.1,-0.384
3.141,3.525,1.617,1.333,-3.259,0.974,-3.883,0.458
1.805,3.842,2.488,3.421,-3.74,2.367,-5.023,4.831
0.086,2.361,3.043,4.59,-2.575,2.907,-6.777,6.499
-2.965,-0.146,1.246,2.293,-2.786,-0.207,-9.803,0.305
-4.429,-0.489,0.081,-0.121,-2.683,-3.408,-10.712,-8.104
-3.302,0.777,1.674,0.281,-0.712,-2.949,-8.253,-11.202
-2.396,0.815,3.235,1.374,0.669,-1.09,-5.645,-9.669
-1.335,0.884,3.195,1.334,0.217,-0.387,-3.153,-6.524
4.007,4.335,4.047,1.957,0.294,0.673,1.693,-2.248
12.619,9.762,6.125,3.927,1.276,2.531,6.166,1.35
18.106,12.667,6.719,4.319,1.067,2.096,6.021,0.858
18.147,12.09,5.918,1.583,-0.002,-1.436,3.296,-3.202
16.665,11.089,6.356,-0.786,0.198,-3.716,2.242,-5.446
17.018,11.784,8.058,0.709,2.222,-1.595,2.745,-3.015
18.568,13.116,8.963,4.567,4.775,2.469,2.72,0.828
19.122,13.652,9.066,7.66,6.649,4.91,2.894,2.605
16.538,12.646,8.721,8.523,6.846,4.908,3.887,1.927
10.983,9.814,6.785,7.117,4.051,3.878,3.382,-0.214
5.907,6.723,4.038,5.287,-1.103,3.896,0.872,-1.567
2.358,4.482,2.219,4.563,-6.047,4.671,-1.389,-0.716
-1.622,2.052,1.003,3.748,-9.023,3.82,-2.773,0.363
-4.729,-0.551,0.537,2.022,-9.271,1.451,-3.629,-0.347
-4.664,-2.218,1.386,1.08,-6.927,0.064,-2.793,-1.433
-3.801,-3.368,1.242,1.457,-4.307,-0.007,-0.16,-0.835
-5.665,-5.122,-2.075,0.927,-4.803,-0.686,1.142,0.482
-9.697,-7.39,-6.568,-1.265,-8.75,-2.12,-1.15,0.238
-12.968,-8.884,-9.056,-2.733,-12.298,-2.357,-4.565,-1.486
-14.816,-8.896,-9.467,-2.525,-12.778,-1.4,-5.59,-2.87
-17.037,-8.588,-9.795,-2.904,-12.07,-1.796,-4.857,-3.403
-19.904,-9.498,-10.566,-4.763,-12.423,-4.092,-4.701,-4.009
-22.172,-11.923,-11.148,-6.595,-13.974,-6.368,-5.383,-5.622
-23.111,-13.85,-11.029,-6.988,-15.875,-7.077,-6.195,-7.497
-20.929,-11.421,-8.791,-3.91,-15.548,-4.198,-5.808,-6.017
-15.567,-5.5,-5.227,1.916,-12.108,1.672,-4.422,-0.508
-12.338,-3.341,-5.01,3.877,-10.016,3.857,-5.356,2.902
