EEG 1,EEG 2,EEG 3,EEG 4,EEG 5,EEG 6,EEG 7,EEG 8
-7.495,-21.93,2.089,-4.223,6.467,-1.284,6.012,5.507
12.877,36.414,12.44,15.198,12.478,14.475,12.964,13.247
26.863,85.424,21.051,30.205,18.226,25.753,17.61,16.139
18.979,60.339,18.665,26.833,16.512,22.938,16.45,12.54
5.8,6.298,12.566,20.041,11.865,19.339,13.525,9.291
2.067,-10.937,8.903,14.248,8.126,15.424,10.398,8.613
-3.108,-19.037,3.257,-1.401,1.594,0.973,5.014,5.255
-10.875,-42.123,-0.616,-14.163,-2.989,-9.466,1.177,0.689
-6.437,-43.806,4.319,-8.927,2.174,-3.281,2.97,0.924
9.777,-13.064,13.039,3.703,12.349,6.396,8.522,6.201
23.338,20.783,18.49,11.817,19.368,10.265,15.146,12.705
27.931,47.493,20.521,15.969,21.05,12.151,19.984,16.027
27.388,69.057,20.399,18.581,17.442,14.194,19.943,14.801
19.673,55.748,15.442,14.277,8.461,10.853,14.442,10.272
2.552,-1.316,5.729,0.194,-1.491,-0.339,7.168,3.704
-4.95,-30.182,4.392,-3.421,-0.189,-2.096,7.399,2.113
13.19,16.977,19.856,20.774,17.243,20.202,19.268,12.493
32.993,69.617,32.643,44.554,32.673,41.15,28.657,24.337
24.877,55.196,22.662,31.225,27.592,27.402,21.601,21.417
1.299,7.499,3.474,-1.657,11.301,-4.392,8.32,8.813
-12.2,-23.187,-3.226,-14.024,2.122,-14.558,4.234,2.495
-14.183,-39.165,0.488,-5.756,1.278,-2.861,6.186,3.913
-8.571,-31.294,4.851,1.7,4.236,5.184,7.462,6.76
6.993,17.724,10.247,9.274,12.326,8.955,11.217,11.193
18.984,57.249,13.588,20.105,18.721,17.136,15.25,14.496
6.702,23.482,5.313,14.086,10.471,12.268,10.05,9.031
-14.285,-35.366,-5.257,-7.02,-2.536,-7.554,2.456,1.779
-12.089,-30.642,0.411,-10.001,1.721,-10.723,7.918,6.595
0.946,9.056,11.941,2.913,15.009,2.519,17.735,15.106
-4.581,5.139,9.115,0.322,14.28,0.872,13.716,10.862
-16.379,-22.387,1.086,-11.576,5.496,-11.427,3.431,1.321
-9.996,-9.811,4.826,-5.366,7.555,-7.403,4.069,2.457
1.306,15.756,11.538,7.861,14.469,3.632,10.215,8.654
-5.298,-10.39,7.219,1.09,10.959,-2.83,8.802,7.251
-18.492,-57.825,0.601,-11.883,3.564,-12.992,5.158,3.761
-16.856,-54.621,3.278,-4.492,5.11,-4.026,7.779,7.019
-6.946,-11.696,7.592,9.532,9.999,8.309,10.672,10.597
-4.429,14.243,6.142,6.95,9.722,3.366,10.478,8.556
-3.399,18.192,8.136,2.561,11.6,-1.434,15.87,9.56
3.353,21.43,16.743,13.705,19.778,11.21,25.651,18.017
0.952,6.847,15.474,17.131,19.783,16.608,23.529,19.991
-17.22,-38.477,-1.651,-4.993,5.036,-4.203,7.734,8.521
-26.404,-64.408,-13.044,-22.164,-6.162,-21.195,-1.184,0.508
-10.645,-28.395,-4.682,-8.813,-2.351,-9.256,5.828,7.05
7.205,21.146,6.718,10.706,2.205,8.734,12.601,14.063
4.771,20.372,4.707,10.029,-1.942,9.258,7.176,9.256
-7.712,-14.576,-2.444,0.711,-4.947,2.905,-1.931,0.968
-13.695,-35.564,-2.17,-2.387,-2.104,0.89,-5.086,-1.791
-11.764,-30.365,3.599,-2.291,1.737,-0.336,-2.741,-1.577
-2.998,-6.756,10.297,4.681,8.574,4.552,4.248,1.648
9.658,21.081,16.883,20.183,18.282,18.052,12.819,9.206
12.136,24.458,15.9,21.569,17.723,18.714,12.9,11.346
-0.37,-3.413,4.563,0.598,3.7,-1.102,3.624,2.943
-9.881,-25.911,-3.172,-12.842,-6.77,-13.442,-2.404,-3.942
-5.094,-16.318,1.155,-3.314,-4.728,-4.806,-0.728,-1.563
2.071,5.991,7.217,7.238,-0.194,3.741,0.962,2.315
0.773,10.865,6.035,4.215,-0.735,0.376,-0.639,1.377
-4.318,-6.316,1.099,-2.091,-2.983,-3.618,-2.027,-0.893
-6.433,-27.061,-2.175,-3.374,-3.388,-2.592,-1.458,-0.354
-4.789,-28.01,-2.057,-2.804,-1.769,-2.269,0.391,1.892
0.078,-4.565,1.487,-2.031,1.525,-3.174,3.123,3.443
5.986,19.477,5.58,0.883,4.37,-0.934,5.432,3.836
7.345,18.376,6.043,3.465,4.383,2.258,5.453,2.884
2.352,-1.78,2.928,0.994,2.494,0.551,3.628,1.137
-2.873,-11.994,0.061,-4.256,0.442,-4.569,2.665,1.078
-2.175,-1.441,0.978,-4.333,-0.298,-5.753,4.812,4.024
2.833,10.514,5.954,2.37,2.541,-0.748,8.839,7.642
4.953,4.312,9.954,6.455,5.149,3.221,10.224,8.056
1.712,-12.549,8.535,0.946,-0.634,-0.612,7.595,5.023
-0.604,-17.211,4.508,-7.779,-9.744,-7.861,5.362,2.609
2.33,-3.646,2.379,-10.448,-8.603,-9.755,5.927,2.504
7.214,13.375,4.222,-5.181,0.039,-4.038,7.425,3.855
10.792,20.246,10.855,5.847,3.602,6.507,9.479,8.519
10.969,16.245,15.714,15.39,2.312,14.862,10.601,15.081
4.386,7.325,9.409,11.653,2.353,10.3,6.962,14.343
-5.568,-3.702,-1.98,-3.105,2.813,-4.665,1.033,4.02
-8.768,-12.026,-4.182,-9.859,2.478,-11.125,-0.379,-3.359
-1.707,-3.326,3.18,-0.993,4.969,-2.057,3.217,0.132
9.271,22.797,11.183,11.449,10.922,9.918,7.144,6.148
13.949,36.542,13.47,14.097,12.949,12.542,8.037,6.479
8.651,23.69,8.601,5.991,6.642,5.489,6.017,4.528
5.002,15.146,5.036,1.186,1.94,1.265,5.106,5.734
10.194,23.133,9.494,6.912,7.298,7.027,6.18,7.284
9.306,8.735,9.545,5.306,10.712,6.927,2.193,2.285
-1.865,-27.039,-2.012,-9.879,2.166,-5.972,-6.005,-5.744
0.976,-18.651,-5.095,-9.153,-3.006,-5.14,-3.807,-3.098
21.272,32.001,8.24,15.04,5.634,17.134,9.486,9.657
27.066,42.908,13.782,24.33,11.875,24.803,14.146,13.984
11.518,8.168,3.841,7.235,7.116,6.536,5.118,5.854
2.079,-5.613,-0.469,-2.719,3.813,-4.573,-1.24,1.465
3.956,4.91,4.702,3.517,4.685,1.332,0.266,4.735
0.684,1.926,3.304,4.101,0.956,1.891,0.034,4.041
-4.253,-2.767,-4.466,-1.202,-3.487,-4.846,-2.06,-0.835
1.623,15.774,-5.579,3.963,0.082,-1.906,0.635,-0.775
9.876,30.262,-1.195,13.165,3.65,7.234,3.75,1.57
8.745,12.192,-0.804,9.067,-4.168,5.78,0.941,-0.544
6.819,-4.546,-2.452,-0.737,-14.491,-2.555,-1.357,-1.595
11.238,10.379,-1.611,1.189,-13.692,-2.629,3.004,3.981
12.336,29.641,-2.743,10.015,-6.34,3.932,7.259,9.15
6.56,29.379,-7.255,12.063,-2.002,6.552,4.956,7.377
2.835,19.636,-9.665,8.104,-1.021,4.94,0.058,3.001
4.707,12.84,-8.616,7.475,-1.884,6.237,-1.528,1.905
6.623,10.636,-7.347,11.464,-4.68,10.614,0.445,2.519
4.401,9.539,-7.5,10.791,-6.714,8.361,2.027,0.905
2.811,11.974,-6.733,5.189,-3.343,0.485,1.665,-0.366
5.799,17.67,-3.918,5.577,3.373,0.989,1.421,2.329
4.584,9.111,-5.315,6.455,3.398,5.507,-0.079,3.194
-4.594,-14.025,-12.082,-3.42,-4.852,-0.152,-3.868,-2.453
-5.494,-11.333,-10.247,-8.207,-8.486,-4.29,-2.832,-5.564
13.953,46.333,8.231,11.793,0.587,11.123,7.013,2.289
34.929,109.941,24.969,38.176,10.944,30.72,14.268,12.237
24.852,83.055,14.67,31.965,4.259,22.179,5.347,8.444
-10.537,-24.862,-15.486,-4.05,-16.181,-9.399,-12.724,-7.434
-25.669,-79.21,-31.523,-21.288,-25.934,-21.732,-19.585,-15.255
-7.114,-34.315,-23.096,-3.721,-17.187,-4.026,-11.2,-6.655
10.888,17.089,-11.783,11.7,-5.878,8.951,-0.932,3.623
11.753,27.104,-9.821,7.209,-0.369,2.606,3.031,4.133
10.741,30.309,-8.673,4.736,3.768,-0.721,2.666,1.52
13.197,39.956,-3.451,13.032,6.664,7.483,0.568,2.739
6.739,26.708,-3.46,12.497,1.719,8.367,-4.205,1.08
-11.362,-17.046,-14.706,-3.883,-11.106,-4.677,-10.438,-8.151
-22.216,-38.324,-24.228,-13.586,-17.803,-12.231,-12.46,-14.242
-13.118,-1.268,-20.665,-4.105,-11.194,-4.623,-10.609,-10.108
-0.818,37.005,-15.343,4.918,-5.261,1.667,-11.316,-5.089
-1.118,23.65,-17.413,1.165,-7.785,-2.372,-12.788,-5.643
-1.27,5.624,-15.457,1.524,-6.193,-2.104,-8.303,-5.036
7.816,24.204,-6.04,11.756,2.763,6.824,-2.424,-0.664
9.163,31.853,-5.387,9.686,3.313,5.023,-4.942,-1.011
-4.918,-1.14,-17.683,-9.646,-8.988,-11.76,-12.622,-7.923
-17.106,-33.147,-26.87,-21.399,-19.957,-21.561,-15.251,-11.983
-16.466,-33.219,-24.499,-14.944,-21.161,-15.963,-12.496,-10.448
-8.512,-7.864,-16.291,-3.222,-15.754,-7.781,-9.336,-9.184
-0.92,20.583,-9.012,3.389,-10.333,-4.112,-6.399,-8.465
-0.92,18.105,-8.235,0.117,-11.825,-5.378,-4.569,-5.38
-6.675,-13.629,-11.999,-9.519,-15.472,-8.485,-5.131,-0.81
-4.487,-23.935,-9.023,-9.917,-8.334,-3.052,-4.516,5.366
7.693,3.933,3.441,2.54,4.779,10.088,0.219,12.204
18.333,35.868,17.115,14.012,9.47,16.928,7.911,14.12
22.378,49.903,23.275,16.982,8.589,14.367,15.196,9.37
19.432,42.899,16.259,13.064,9.917,8.876,15.386,2.828
12.076,21.806,3.973,7.257,8.363,4.904,6.465,-0.64
10.573,12.92,2.418,7.116,-0.751,6.023,-2.901,-0.261
17.568,26.437,9.613,12.184,-8.964,11.33,-5.984,0.609
21.809,34.282,11.135,15.903,-5.864,16.245,-5.115,-0.222
14.817,14.121,3.767,12.608,1.186,14.117,-5.327,-2.138
0.243,-16.937,-7.323,-2.811,-2.037,-1.498,-8.669,-4.715
-8.632,-24.471,-15.7,-18.929,-6.996,-17.05,-10.42,-4.415
-3.876,-3.913,-15.671,-16.318,-0.031,-12.179,-7.009,-0.081
4.143,12.738,-10.624,-4.452,6.557,-0.014,-5.215,-0.035
5.233,9.158,-5.793,-3.529,1.206,-2.408,-8.11,-6.202
6.733,7.254,2.305,-5.498,-0.743,-6.624,-5.99,-7.523
14.705,20.597,13.334,3.807,12.245,5.134,5.269,0.349
18.871,27.379,17.034,13.536,23.939,18.876,13.581,8.152
11.574,11.564,10.348,8.053,16.952,14.293,7.419,6.668
3.19,-5.33,4.309,-5.146,-1.346,-1.292,-6.51,-3.501
4.864,-0.519,5.352,-8.04,-12.172,-6.858,-12.413,-12.429
12,14.291,5.878,1.466,-7.436,1.312,-5.642,-9.393
15.413,18.428,3.233,11.815,7.24,11.377,6.619,5.348
13.759,13.486,5.027,15.356,18.323,15.446,13.579,18.475
10.055,10.193,10.508,12.153,14.805,12.486,7.103,16.621
6.758,8.055,11.535,6.477,1.582,5.343,-6.253,3.954
3.911,2.072,6.938,2.444,-7.867,-0.498,-11.432,-3.536
-0.085,-4.897,1.437,-1.328,-10.203,-4.549,-9.038,-5.938
-3.34,-5.129,-2.018,-5.362,-7.115,-8.257,-7.866,-12.251
-2.097,3.727,-2.893,-3.417,2.792,-5.493,-4.66,-13.152
1.575,13.941,-0.026,4.739,13.399,5.333,2.838,-1.99
2.01,14.891,5.076,7.496,13.195,10.506,6.19,5.356
-1.128,6.532,6.954,0.244,2.819,3.077,3.139,0.784
-2.033,0.954,4.932,-5.32,-5.446,-2.788,1.275,-2.9
2.298,5.972,3.632,-1.114,-4.233,2.159,1.68,2.046
7.082,14.47,4.159,6.298,2.761,9.486,-0.723,9.003
6.607,14.782,4.619,8.598,6.809,12.12,-3.439,10.695
1.149,4.444,4.942,3.633,2.925,9.232,-2.257,6.85
-3.422,-5.084,5.683,-2.909,-2.364,4.515,-0.026,5.214
-1.647,-0.259,6.851,-1.044,1.297,6.473,2.176,13.348
4.518,12.592,8.163,7.568,11.596,12.184,6.742,20.621
8.817,15.601,8.14,10.018,17.79,8.627,8.794,8.943
10.283,9.89,6.834,4.953,15.123,-0.236,1.882,-10.966
13.065,11.358,8.363,4.862,7.374,1.837,-4.594,-10.7
17.34,21.411,13.818,12.838,3.911,13.011,2.942,7.603
17.416,25.496,15.534,16.393,8.946,16.554,15.355,14.695
10.96,16.872,7.132,8.241,11.983,7.824,11.873,2.11
4.004,5.935,-4.63,-1.924,4.515,-1.139,-6.025,-8.726
3.154,5.012,-7.351,-2.596,-2.539,-0.427,-15.05,-4.172
7.398,12.577,0.002,3.325,3.243,4.594,-5.104,4.53
10.148,16.228,6.759,5.115,12.849,4.504,6.546,4.194
6.453,8.3,6.001,0.706,10.312,2.501,4.029,-1.196
-1.236,-4.077,2.054,-3.652,0.869,3.223,-3.679,-1.993
-5.011,-7.787,1.616,-6.347,1.561,-1.149,-2.912,-1.032
-2.542,-2.608,5.087,-9.293,12.279,-11.66,3.314,-3.773
-0.906,-1.238,8.725,-9.778,19.486,-14.693,8.957,-2.408
-4.394,-7.739,9.465,-5.123,16.474,-6.944,12.588,9.211
-6.226,-9.707,10.005,2.842,9.388,1.62,13.319,20.324
-1.073,0.127,14.945,9.637,9.567,6.004,15.971,19.569
3.581,10.683,16.667,9.375,13.249,5.026,17.576,7.728
0.107,11.779,5.853,1.96,6.229,-3.249,5.434,-8.766
-7.809,5.885,-7.024,-4.156,-5.033,-13.955,-10.917,-18.128
-13.074,-1.313,-8.268,-3.583,-4.045,-15.947,-11.534,-10.985
-12.321,-2.705,-3.975,-0.658,3.355,-7.122,-5.84,2.143
-6.603,5.761,-5.418,-0.597,1.313,1.371,-12.685,4.191
0.831,19.082,-8.557,0.537,-7.889,5.043,-23.719,-0.991
7.363,28.61,-5.125,5.163,-11.25,7.284,-22.635,-0.916
8.42,22.696,-1.548,1.826,-8.413,0.869,-15.31,0.081
2.729,1.76,-6.088,-11.859,-8.162,-14.728,-13.186,-5.47
-1.431,-11.171,-10.651,-17.522,-11.503,-20.44,-10.917,-10.865
0.566,-6.153,-6.531,-9.364,-12.925,-10.925,-2.695,-9.585
4.427,3.066,0.254,-2.001,-7.848,-2.086,4.723,-4.592
9.16,12.493,2.277,-0.294,3.075,-0.207,6.313,0.963
14.402,23.287,0.588,2.051,10.111,0.749,4.555,5.765
13.321,22.997,-2.965,1.623,5.059,-0.523,2.011,5.832
5.769,8.64,-6.909,-6.685,-4.621,-7.811,-0.717,0.942
4.007,0.819,-4.2,-11.235,-4.741,-11.485,-2.452,1.171
11.682,11.619,6.875,0.074,6.501,-0.354,-0.34,14.09
15.934,23.804,13.069,18.024,17.879,19.209,7.062,32.434
9.994,19.283,8.423,27.449,21.05,31.917,19.037,43.232
1.402,3.397,4.836,24.058,15.403,27.974,30.424,38.482
-4.728,-10.336,2.633,6.997,0.208,6.183,22.129,16.329
-10.344,-16.387,-10.999,-18.729,-18.634,-21.444,-15.318,-15.658
-15.823,-15.951,-28.443,-36.673,-27.172,-37.291,-48.531,-41.648
-18.287,-13.354,-30.969,-37.757,-23.188,-38.225,-46.2,-49.785
-16.12,-12.168,-21.512,-30.259,-14.267,-33.092,-26.284,-39.386
-11.337,-11.194,-13.484,-20.732,-3.889,-23.527,-12.085,-18.63
-5.7,-5.143,-6.506,-5.302,2.156,-6.044,0.632,-1.375
0.372,6.246,3.38,13.131,-3.009,11.413,11.906,2.065
2.312,11.602,8.278,18.946,-12.643,13.969,8.592,-4.021
-4.959,1.427,1.274,5.532,-13.156,0.502,-5.35,-6.624
-17.164,-15.878,-9.98,-11.463,-5.413,-12.677,-7.896,-0.947
-23.603,-23.14,-14.232,-13.483,0.189,-11.208,5.973,6.388
-20.238,-16.018,-9.927,-2.473,2.239,0.644,16.136,8.869
-14.718,-6.938,-3.843,4.922,3.217,7.55,10.119,6.719
-15.299,-6.894,-2.277,0.544,-0.481,2.636,-1.155,2.886
-19.152,-11.658,-3.31,-7.901,-8.099,-6.345,-4.458,-0.816
-18.541,-11.422,-1.028,-10.601,-9.059,-9.152,0.916,-2.561
-13.8,-6.169,2.06,-8.539,-1.848,-6.224,7.686,-1.602
-10.929,-2.967,-1.962,-8.335,1.835,-4.041,6.704,-0.588
-10.362,-3.408,-9.886,-9.112,-0.574,-2.064,-2.439,-1.048
-7.888,-2.76,-9.644,-4.996,-0.761,2.76,-6.698,-0.325
-4.446,0.563,-1.282,0.867,4.881,2.833,1.253,2.734
-5.223,1.486,2.556,-0.611,12.346,-7.787,8.784,4.084
-9.187,-2.956,-1.67,-6.831,13.96,-15.223,1.714,-0.645
-9.676,-6.952,-5.625,-7.534,7.213,-6.659,-13.782,-9.994
-5.855,-5.773,-6.288,-5.459,-0.611,4.567,-20.493,-16.28
-2.491,-2.824,-5.226,-8.515,-4.2,2.693,-13.825,-12.089
-1.347,-1.096,-0.547,-10.984,-6.335,-3.402,-4.629,-0.74
-2.879,-0.885,2.26,-8.693,-8.447,-3.214,-3.35,3.883
-7.834,-3.605,-5.227,-9.85,-8.334,-4.506,-8.653,-3.809
-13.017,-8.412,-14.663,-15.37,-6.478,-11.174,-12.666,-12.971
-15.592,-12.179,-14.602,-17.077,-5.451,-14.455,-12.963,-14.939
-16.923,-13.395,-9.811,-14.808,-6.12,-12.426,-12.289,-13.173
-16.813,-11.582,-6.228,-13.442,-7.423,-11.11,-10.258,-9.94
-13.72,-7.721,-0.447,-10.766,-7.882,-9.179,-2.681,-1.996
-10.151,-4.733,7.024,-2.389,-7.276,-1.195,9.813,6.958
-10.685,-5.326,9.388,5.777,-5.566,6.568,17.644,7.71
-16.929,-11.175,3.712,2.882,-2.429,1.479,12.668,2.233
-23.643,-18.509,-5.258,-6.819,-0.031,-10.381,0.267,2.48
-21.625,-17.952,-6.101,-6.699,1.803,-8.373,-4.409,11.39
-11.698,-9.422,5.156,4.257,7.547,6.014,3.154,18.283
-6.806,-5.52,11.993,9.046,10.773,9.422,5.217,12.41
-12.285,-11.653,1.594,-0.077,-1.097,-3.623,-12.478,-5.691
-18.345,-18.582,-11.396,-13.872,-18.392,-16.222,-31.3,-21.964
-17.282,-18.526,-11.249,-21.799,-19.202,-18.885,-26.084,-21.962
-13.365,-14.955,-5.423,-21.786,-5.45,-16.07,-6.194,-11.664
-12.583,-14.21,-4.292,-18.658,3.595,-12.446,3.91,-8.674
-13.262,-15.246,-4.06,-15.441,3.868,-7.575,4.415,-12.017
-10.541,-11.814,1.839,-7.323,6.088,1.214,10.457,-5.547
-6.01,-4.269,8.486,5.704,8.776,9.241,16.898,7.754
-6.176,-1.401,5.234,10.169,0.085,4.834,4.732,7.503
-10.021,-4.986,-2.771,2.461,-12.172,-6.49,-16.796,-2.097
-9.532,-5.911,-0.433,-2.599,-10.125,-5.582,-17.97,-0.061
-5.754,-2.57,6.58,-1.419,-1.163,2.45,-2.118,3.176
-7.637,-3.328,1.116,-4.841,-2.992,-2.546,0.642,-12.943
-14.64,-8.989,-12.915,-13.367,-11.958,-17.193,-12.975,-31.743
-18.213,-12.973,-19.716,-19.056,-15.916,-24.088,-19.535,-28.634
-15.404,-12.749,-15.234,-18.313,-12.264,-19.615,-9.511,-12.408
-10.76,-10.454,-6.705,-12.919,-3.56,-13.267,2.882,-3.975
-10.487,-9.718,-5.2,-9.138,2.304,-11.787,1.085,-6.233
-14.482,-11.317,-13.312,-9.728,-2.394,-10.2,-13.249,-9.92
-15.491,-11.424,-19.123,-9.783,-10.953,-3.068,-23.297,-11.002
-10.589,-8.58,-14.893,-8.479,-12.415,1.154,-20.914,-12.677
-5.241,-6.217,-7.283,-10.056,-8.965,-6.293,-13.253,-12.978
-3.323,-5.743,-2.462,-11.349,-6.859,-14.543,-5.586,-4.444
-2.699,-5.034,0.9,-6.84,-4.81,-9.121,1.935,7.119
-1.223,-3.516,3.098,-0.64,-1.352,2.652,4.824,5.31
0.328,-1.927,2.277,1.708,0.733,5.508,0.768,-6.701
0.784,0.334,2.317,4.721,1.759,4.212,-0.285,-5.058
0.353,3.396,7.652,15.09,5.875,13.56,12.355,16.056
-0.953,4.114,10.065,24.294,10.554,25.441,26.817,28.461
-5.305,-1.712,-0.83,15.276,6.994,17.818,17.447,9.061
-12.6,-11.849,-16.927,-6.673,-2.701,-4.308,-11.34,-22.935
-17.464,-18.062,-20.926,-17.251,-5.581,-15.393,-24.655,-33.364
-16.499,-16.651,-10.571,-9.932,1.928,-8.959,-10.612,-20.357
-12.543,-11.326,1.301,1.317,11.158,1.153,7.283,-3.416
-9.282,-6.948,4.606,7.707,14.299,7.073,11.633,10.512
-7.882,-5.953,-0.373,9.223,8.876,10.737,6.915,17.997
-9.265,-8.976,-8.759,2.677,-1.917,6.589,-1.118,7.715
-13.621,-14.558,-16.228,-11.923,-10.465,-10.23,-11.049,-14.152
-17.175,-18.102,-18.964,-21.232,-13.982,-23.086,-17.17,-22.644
-16.029,-16.819,-15.955,-16.346,-15.608,-17.521,-15.703,-14.476
-13.266,-15.281,-12.916,-8.347,-16.301,-7.481,-13.14,-11.595
-14.224,-18.704,-15.888,-10.329,-15.995,-9.594,-16.308,-21.683
-16.258,-23.755,-20.3,-19.43,-14.838,-18.531,-22.113,-31.059
-13.437,-24.134,-17.661,-24.498,-10.169,-21.335,-22.618,-30.146
-8,-20.475,-10.756,-20.506,-1.766,-15.882,-13.688,-20.429
-5.777,-17.069,-6.903,-11.543,4.514,-8.763,-0.096,-6.165
-5.421,-14.182,-4.881,-4.521,4.691,-4.156,7.921,6.16
-2.715,-10.155,-2.702,-3.223,3.406,-2.669,6.18,8.303
1.304,-5.777,-3.089,-5.595,6.671,-4.453,1.928,0.977
3.25,-3.055,-5.628,-5.673,11.755,-5.564,4.478,-3.207
2.238,-2.676,-6.547,-1.254,13.087,-0.523,10.686,1.093
0.538,-2.531,-4.644,3.684,10.647,8.19,9.103,3.889
0.263,-0.991,-2.246,5.728,5.304,11.694,-1.218,1.147
-1.439,-2.037,-1.897,4.672,-2.062,6.894,-8.593,1.027
-7.843,-8.776,-4.189,1.066,-5.863,0.122,-5.733,4.143
-14.211,-14.579,-6.731,-1.488,-1.407,-1.838,2.348,3.844
-14.067,-12.646,-4.601,3.487,6.951,4.217,11.008,4.989
-10.711,-8.509,1.499,13.407,9.048,15.158,20.599,16.7
-11.423,-10.803,3.022,14.284,-0.298,17.387,22.57,28.263
-15.106,-17.063,-3.488,2.61,-17.366,3.714,5.697,17.54
-16.978,-20.446,-11.961,-8.449,-32.374,-13.793,-19.758,-12.29
-18.84,-22.095,-17.746,-13.986,-33.244,-24.592,-30.888,-31.496
-23.19,-25.039,-21.13,-19.978,-18.51,-29.049,-21.5,-27.066
-25.849,-25.96,-20.704,-22.545,-2.253,-24.11,-4.604,-14.47
-23.398,-22.476,-14.503,-14.651,4.946,-8.962,5.645,-2.917
-19.435,-18.672,-5.706,-2.715,6.864,4.6,7.756,11.352
-19.052,-19.034,-0.145,2.79,7.505,7.226,7.205,18.547
-21.87,-22.75,0.507,1.972,0.767,3.339,1.699,6.241
-24.629,-26.606,-1.85,-0.045,-14.268,-0.362,-8.681,-10.647
-28.871,-32.057,-9.773,-5.356,-22.234,-5.311,-10.326,-11.849
-36.582,-41.495,-24.051,-16.239,-16.305,-13.788,0.378,-2.031
-40.848,-48.024,-33.283,-22.913,-12.322,-18.144,6.8,6.265
-35.308,-43.753,-31.48,-18.345,-19.375,-11.973,0.833,7.501
-26.603,-34.506,-28.727,-13.615,-26.612,-5.999,-5.792,-0.727
-22.595,-29.28,-28.791,-16.577,-26.169,-9.147,-3.664,-11.446
-19.303,-25.275,-24.102,-16.357,-22.091,-10.704,2.772,-11.929
-12.64,-18.543,-17.291,-8.431,-18.258,-5.106,5.293,-3.299
-8.407,-14.108,-18.836,-5.977,-11.77,-4.428,1.072,-0.981
-9.097,-13.579,-23.236,-10.55,0.542,-9.637,-4.397,-8.881
-7.995,-10.339,-14.09,-5.234,13.901,-5.499,-1.608,-9.977
-4.252,-3.959,6.841,11.263,19.242,7.313,8.848,4.543
-4.707,-1.495,19.33,20.422,13.36,12.716,14.683,20.171
-8.613,-3.533,14.929,19.152,4.579,11.064,9.492,22.514
-8.599,-4.228,7.65,21.508,4.951,13.288,0.823,12.301
-5.011,-2.979,9.493,25.235,12.642,13.359,0.414,1.141
-4.216,-4.11,14.021,16.04,13.923,2.609,9.759,1.777
-6.539,-7.829,11.118,0.392,4.64,-5.607,16.014,11.125
-7.664,-10.61,3.779,-4.296,-8.786,1.192,10.241,12.969
-6.733,-10.741,2.104,1.128,-23.797,11.338,1.187,2.608
-6.438,-9.537,1.168,4.413,-34.496,12.169,-1.231,-8.913
-8.098,-9.484,-14.28,-0.654,-30.015,5.83,-0.571,-11.45
-8.755,-9.89,-35.746,-11.613,-16.999,-4.09,-3.706,-6.141
-6.409,-7.627,-41.119,-19.825,-10.004,-12.968,-7.28,-1.607
-4.897,-3.735,-31.881,-18.912,-4.544,-12.854,-1.447,0.16
-5.5,-1.022,-21.324,-11.265,4.175,-4.903,9.893,4.583
-2.529,2.214,-11.667,-1.821,4.919,2.624,8.902,7.335
4.96,7.437,-1.366,7.996,-1.487,6.878,-3.527,-0.047
9.52,10.365,8.095,15.739,1.888,7.365,-6.396,-7.066
7.443,6.787,15.594,16.064,15.08,2.556,4.556,2.602
3.679,0.219,23.573,11.063,18.704,-1.575,15.428,19.279
3.262,-2.304,33.271,11.623,6.459,4.396,19.797,20.613
3.803,-1.721,35.733,18.203,-2.728,15.359,19.308,8.632
1.264,-4.222,24.851,18.412,2.781,18.024,14.078,2.502
-0.409,-7.466,14.239,12.714,9.329,14.673,8.098,6.572
2.762,-4.958,13.826,13.258,9.641,15.019,8.254,9.462
5.843,1.441,12.054,18.073,12.498,17.405,10.276,5.283
4.769,5.943,3.446,16.941,15.804,17.364,6.772,1.119
0.426,6.024,-3.706,8.877,8.486,13.657,2.735,2.392
-6.735,2.606,-10.277,-1.269,-4.685,5.57,2.601,3.497
-13.897,-0.508,-20.547,-7.612,-8.733,-1.542,-0.756,-0.414
-15.761,-0.269,-25.887,-6.259,-4.394,-0.803,-10.357,-4.839
-12.013,2.095,-19.156,-0.955,-1.633,4.377,-15.092,-5.251
-8.293,3.147,-10.353,1.078,0.528,5.365,-8.577,-4.535
-7.566,2.623,-10.307,-0.046,3.514,1.822,-1.523,-4.491
-5.663,4.233,-11.652,2.12,0.244,0.269,-1.201,-1.682
-1.034,7.379,-3.816,7.652,-8.47,2.198,-0.682,3.366
0.619,5.802,6.076,9.134,-10.155,3.393,3.226,4.884
-1.607,-0.234,7.484,4.809,-1.933,1.343,4.367,0.538
-1.799,-3.512,4.184,1.424,4.097,-0.891,-0.41,-5.327
0.627,-2.855,1.324,3.316,2.996,3.35,-5.415,-5.515
1.497,-2.82,-1.966,5.251,2.457,10.93,-2.845,1.455
0.24,-4.604,-3.648,-0.004,3.273,7.943,3.184,5.31
-1.406,-6.292,-2.702,-8.345,-1.883,-5.57,1.264,-2.004
-2.332,-6.647,-3.255,-11.557,-10.189,-15.183,-5.841,-10.076
-1.582,-5.572,-5.347,-12.05,-11.4,-16.956,-7.983,-6.499
0.928,-3.433,-2.487,-12.347,-7.982,-15.184,-6.403,1.162
4.979,0.262,7.968,-6.598,-10.787,-9.097,-3.425,1.128
10.212,5.283,17.327,4.061,-16.48,0.545,2.504,-0.25
12.968,7.151,13.261,7.856,-14.775,5.483,4.265,5.279
9.055,1.715,-2.995,0.34,-9.551,0.727,-2.149,9.6
0.913,-7.289,-15.912,-8.438,-6.124,-6.128,-3.852,5.099
-5.255,-12.578,-16.824,-8.517,-0.362,-5.407,6.161,-2.891
-6.433,-11.799,-11.659,-1.981,5.061,1.906,13.142,-6.626
-2.728,-6.933,-6.103,2.82,4.427,8.048,5.509,-2.924
3.272,-1.182,-0.905,1.498,1.552,8.104,-6.843,4.167
7.492,2.279,2.077,-3.091,-0.363,3.989,-10.288,5.328
8.405,2.487,1.786,-6.131,-2.182,-0.556,-6.268,-0.152
7.565,1.07,-0.045,-6.82,-1.262,-4.164,-3.053,-2.259
7.743,0.837,0.527,-4.581,5.698,-2.482,1.348,3.835
10.141,2.376,6.144,0.766,14.941,6.356,11.434,11.433
11.316,1.762,10.661,2.774,17.086,10.974,16.518,11.397
8.901,-2.497,8.234,-1.917,9.697,4.04,5.554,4.462
7.789,-4.736,6.893,-4.762,2.358,-3.316,-9.13,0.265
11.773,-1.55,12.233,-1.586,2.026,-3.938,-9.091,0.266
16.627,2.662,14.159,-1.271,4.325,-5.436,2.023,-1.992
17.662,3.839,7.163,-6.801,6.525,-9.627,8.876,-4.112
16.2,3.95,0.2,-7.908,10.899,-7.88,8.717,-0.343
16.747,7.18,1.761,1.148,12.142,2.618,10.008,6.334
21.419,14.25,13.528,12.567,4.082,12.894,15.665,11.65
28.299,21.961,32.021,17.401,-5,13.997,17.961,16.739
34.703,27.261,45.785,19.671,-2.539,13.22,13.694,23.004
37.78,28.259,42.813,27.033,11.303,23.389,13.982,27.325
32.785,21.631,26.738,29.139,25.128,31.91,23.109,25.352
19.401,7.298,11.862,12.915,28.343,17.763,26.755,18.565
7.216,-5.165,4.654,-7.081,19.681,-4.178,16.643,11.728
4.986,-7.188,3.129,-10.993,5.909,-7.469,2.475,4.316
10.03,-2.552,3.666,-6.089,-2.46,0.267,-3.299,-2.737
15.327,1.928,2.897,-5.639,0.605,0.979,0.947,-2.407
18.503,5.08,1.272,-5.232,8.259,-0.354,4.931,1.336
20.483,7.31,1.79,-0.019,13.317,4.795,1.894,-2.118
22.979,9.422,5.991,1.945,19.643,7.923,0.196,-5.488
26.385,12.362,13.8,-3.71,28.049,2.021,8.628,3.244
27.406,13.32,21.081,-9.426,29.819,-5.532,18.185,14.716
23.86,9.853,21.666,-9.706,22.767,-8.254,14.718,14.502
18.911,5.212,15.712,-7.178,16.569,-7.139,3.298,7.256
16.424,3.214,9.455,-4.75,16.427,-3.781,-2.61,2.599
18.35,5.308,9.856,0.818,18.499,2.752,-0.925,1.555
24.305,11.879,19.04,12.598,19.884,12.293,4.804,6.19
28.784,18.724,28.215,21.192,15.777,16.085,7.867,12.688
26.099,19.083,27.082,15.834,2.202,7.493,2.535,7.554
18.398,12.692,17.805,4.17,-12.149,-2.302,-4.034,-5.918
12.11,5.768,6.507,-0.384,-16.828,-0.99,-3.708,-9.625
10.012,3.043,-4.336,1.678,-11.707,6.01,0.768,-3.644
11.004,4.295,-8.106,4.464,0.414,9.797,9.072,1.126
13.33,6.784,-1.235,8.03,14.223,12.934,21.97,7.327
14.716,7.755,5.787,10.351,17.929,16.351,25.481,16.973
12.598,5.688,3.422,4.914,6.143,10.801,9.925,20.711
8.055,2.254,-2.347,-5.556,-9.264,-3.696,-6.919,14.771
5.916,0.005,-3.39,-10.288,-12.717,-12.212,-8.268,4.314
6.662,-2.816,-3.365,-7.834,-3.959,-8.919,-4.108,-5.341
6.407,-7.404,-5.089,-6.304,4.207,-4.21,-6.335,-10.078
7.657,-7.526,-0.172,-7.732,4.675,-3.418,-8.699,-8.44
14.748,0.393,12.046,-6.188,2.097,1.036,-4.404,-2.691
20.972,8.24,16.068,-0.446,1.566,10.907,0.921,3.057
18.626,9.768,6.083,3.97,3.612,14.513,1.789,4.583
13.338,10.674,-3.038,5.582,6.411,7.79,0.97,1.239
13.348,15.697,0.804,8.334,7.437,3.337,2.748,-1.264
15.647,19.25,9.307,10.081,4.348,6.401,3.66,0.749
14.893,16.4,8.686,5.978,-4.457,7.96,-3.743,1.617
14.046,11.514,2.383,2.272,-13.261,6.435,-11.491,-1.871
14.795,8.497,1.397,4.498,-11.829,5.502,-5.936,-2.306
11.647,3.777,3.814,5.504,-3.164,2.798,2.38,4.172
3.667,-4.319,2.77,1.549,0.953,-0.013,-1.076,8.514
-1.821,-9.97,0.216,-0.61,2.105,1.755,-4.394,5.339
0.155,-7.221,1.574,4.006,8.269,6.072,4.492,3.922
6.417,2.185,5.319,11.188,14.099,7.64,13.745,9.155
9.853,8.655,5.577,12.216,10.799,3.346,11.858,11.603
9.24,7.474,4.42,8.086,3.656,-0.75,6.785,6.769
10.243,5.602,7.293,9.046,0.721,5.869,6.219,2.341
12.63,5.068,9.872,13.35,-3.236,16.134,3.276,2.634
11.333,0.368,8.286,9.335,-11.05,12.371,-2.383,4.043
8.939,-4.551,7.073,0.313,-9.511,-0.82,0.347,4.928
10.405,-3.223,7.683,-0.706,6.493,-3.616,9,6.526
13.794,0.27,8.702,4.904,21.016,4.162,12.276,7.944
14.923,1.16,12.397,7.881,23.208,8.353,12.779,10.176
13.05,0.824,17.348,8.35,17.963,7.498,16.376,14.502
10.439,1.552,15.659,9.312,10.687,7.83,16.571,14.817
9.619,3.785,6.141,8.009,4.049,7.192,8.021,7.929
10.135,4.081,-1.591,2.032,-0.084,0.783,-3.361,1.228
9.095,-1.006,-2.83,-3.907,-2.286,-6.151,-9.224,-0.143
6.912,-6.092,-1.196,-2.098,-2.89,-3.548,-4.997,1.071
7.489,-4.433,4.53,6.387,-2.976,5.573,5.543,2.017
10.963,0.142,15.371,12.814,-3.458,9.136,13,4.585
13.165,2.131,22.266,14.608,0.48,6.963,17.291,10.81
11.623,3.543,18.2,13.508,11.041,5.308,21.179,15.293
7.781,4.587,8.348,7.735,19.735,2.157,16.276,10.829
5.51,1.204,2.529,1.1,20.128,-1.917,2.738,2.043
6.909,-3.482,4.565,2.227,14.965,-0.117,-2.808,-0.101
8.35,-5.111,9.678,6.488,6.605,3.052,3.44,3.168
4.435,-10.061,9.072,1.361,-3.487,-3.175,7.307,2.066
-4.275,-21.383,-1.872,-11.404,-10,-15.423,2.345,-4.287
-11.046,-28.726,-15.09,-19.669,-9.895,-22.879,-2.453,-8.488
-10.68,-25.062,-18.181,-20.297,-6.383,-22.871,1.103,-6.603
-5.536,-16.543,-13.896,-20.084,-4.133,-19.838,6.656,-3.11
-0.451,-9.335,-12.476,-20.742,-4.348,-16.552,5.067,-3.004
4.798,-0.348,-11.116,-15.382,-3.733,-9.556,2.663,-0.871
10.446,11.178,-2.773,-4.037,0.467,0.531,8.827,9.01
11.985,17.265,7.435,3.686,4.726,4.921,17.5,17.519
7.427,13.403,9.876,3.787,3.298,1.87,17.39,13.993
0.745,3.261,5.082,-1.018,-1.188,-2.598,10.208,3.826
-4.561,-8.623,1.605,-7.938,-3.038,-7.229,5.157,-1.731
-8.69,-18.137,1.574,-13.412,-8.705,-13.287,1.184,-1.711
-11.266,-18.462,-2.804,-15.086,-22.386,-17.396,-6.708,-2.332
-10.392,-8.49,-14.508,-13.968,-27.697,-15.305,-13.215,-6.097
-7.225,-2.455,-22.163,-11.839,-14.121,-9.293,-11.922,-9.941
-5.376,-10.919,-17.477,-10.536,1.512,-6.747,-6.318,-12.802
-6.546,-22.422,-10.728,-11.265,3.331,-9.395,-3.509,-17.469
-9.614,-23.187,-11.924,-12.416,-2.551,-10.975,-5.228,-21.488
-10.311,-11.69,-12.881,-10.521,-5.922,-7.734,-7.398,-17.547
-4.314,6.842,-2.214,-3.122,-8.059,-0.455,-5.046,-4.971
4.065,17.138,12.96,5.138,-15.985,7.613,-0.34,6.802
5.033,7.335,13.599,4.384,-26.124,8.74,-0.833,8.432
-2.255,-10.981,-1.57,-3.607,-21.889,1.481,-3.507,2.355
-8.799,-19.469,-11.663,-5.252,-0.941,-2.546,1.106,-2.172
-7.538,-11.681,-5.358,4.036,16.239,4.085,9.259,0.214
-2.289,4.541,4.343,13.505,18.489,12.744,10.956,7.476
-2.594,10.156,3.302,11.504,14.718,11.948,6.097,9.839
-7.472,-2.049,-1.124,1.194,13.201,3.631,3.639,3.662
-8.088,-17.503,7.476,-3.455,15.318,-0.55,12.851,1.917
-4.733,-21.047,24.929,3.015,18.65,5.096,27.268,13.6
-3.458,-11.749,28.245,11.05,16.914,12.914,24.573,22.804
-3.711,-0.267,13.094,10.258,9.929,11.548,2.314,9.645
-1.808,4.09,3.557,3.5,6.147,2.918,-13.621,-13.134
-0.274,1.164,9.014,-1.891,5.996,-3.448,-14.489,-19.88
-1.996,-2.776,11.788,-5.109,3.326,-6.368,-16.129,-15.424
-0.189,1.76,8.478,-2.097,4.244,-3.627,-17.899,-13.911
9.119,14.32,11.961,8.979,15.623,7.423,-7.517,-9.367
16.611,19.845,19.652,13.939,24.808,13.864,6.879,0.76
18.428,15.655,23.429,7.978,18.934,9.304,10.522,6.876
23.623,19.242,27.227,7.966,6.833,8.492,6.741,7.168
32.547,33.395,31.085,15.648,3.549,13.599,5.406,4.078
33.925,38.628,26.717,14.012,8.966,10.931,3.665,-4.13
27.046,28.512,15.536,3.442,11.697,2.267,-4.839,-13.498
23.668,18.022,8.308,-1.479,7.905,-1.196,-12.079,-15.723
29.469,18.062,9.222,1.879,5.646,1.555,-9.155,-11.034
40.548,27.319,14.537,8.177,10.905,8.056,-1.977,-3.999
51.893,41.845,21.729,15.744,19.755,17.161,3.931,4.871
57.775,54.315,28.787,21.781,21.486,23.384,8.438,11.364
53.853,54.475,31.143,21.884,9.319,21.485,7.001,7.067
43.849,45.246,26.466,17.115,-6.448,14.131,-1.282,-4.97
35.346,41.109,17.712,13.181,-9.242,9.439,-5.943,-10.684
30.986,41.918,11.208,12.905,-1.472,10.914,-0.164,-5.38
27.751,34.332,8.63,10.95,0.792,11.828,2.173,0.977
22.778,18.99,2.582,2.005,-5.914,6.175,-12.808,-1.101
18.212,9.456,-9.567,-8.34,-11.362,-1.901,-28.579,-11.358
18.362,12.152,-15.695,-11.275,-10.094,-6.026,-24.21,-20.124
23.311,22.532,-6.161,-6.073,-3.771,-4.318,-8.013,-16.905
27.428,29.555,7.579,0.445,3.368,-0.016,1.031,-6.728
27.014,28.783,10.41,1.541,4.073,0.073,-3.075,-4.907
26.241,30.341,9.156,-1.746,-1.822,-5.444,-11.162,-11.869
25.545,31.587,13.389,-4.866,-6.144,-10.712,-11.536,-14.116
18.09,14.53,12.988,-6.344,-7.144,-11.973,-7.656,-8.77
6.747,-9.375,1.047,-5.045,-7.884,-9.549,-8.825,-6.438
-1.83,-14.452,-14.593,-5.814,-8.928,-8.643,-14.974,-12.598
-10.728,-11.836,-27.123,-17.211,-10.647,-16.265,-21.305,-20.238
-16.081,-18.838,-29.378,-29.241,-11.055,-24.245,-20.754,-19.509
-6.547,-17.632,-16.098,-23.826,-8.29,-17.331,-11.564,-10.358
11.323,6.784,1.317,-7.237,-4.822,-1.961,-2.889,-1.788
18.91,31.362,5.154,0.817,-0.276,3.593,1.912,1.428
12.368,27.373,-4.217,-5.3,5.033,-4.261,6.35,0.036
-0.157,-1.135,-13.961,-19.671,0.509,-18.437,2.505,-7.863
-13.746,-26.183,-21.675,-33.219,-17.978,-30.162,-15.593,-20.653
-22.887,-30.479,-29.142,-35.116,-34.322,-29.43,-31.018,-28.274
-22.819,-23.447,-28.712,-23.828,-33.481,-17.762,-27.1,-24.29
-17.386,-16.614,-17.218,-10.379,-18.265,-10.135,-11.371,-12.39
-11.24,-6.068,-4.309,-2.103,-1.76,-10.271,-0.325,-0.927
-4.076,6.744,1.787,3.372,4.59,-7.412,-0.302,4.23
4.866,14.63,2.936,8.755,2.959,-0.214,-3.963,5.595
14.886,25.21,5.06,15.541,4.782,5.124,-0.652,7.582
21.453,40.687,6.773,21.075,6.719,7.268,5.37,3.836
15.094,34.042,-1.444,13.405,-4.838,1.131,0.671,-12.384
-2.677,-2.477,-18.258,-7.106,-20.662,-14.374,-11.668,-27.887
-11.967,-23.43,-26.154,-17.185,-19.575,-23.916,-16.255,-26.614
-8.844,-11.032,-19.202,-8.846,-9.846,-20.564,-13.946,-17.72
-12.408,-10.534,-11.823,-3.076,-16.255,-17.81,-18.98,-17.398
-20.309,-32.733,-10.792,-8.694,-34.897,-19.905,-29.043,-21.867
-16.46,-33.263,-10.096,-8.431,-37.774,-13.051,-25.828,-20.091
-9.448,-5.748,-9.061,2.278,-19.1,1.037,-8.992,-13.019
-6.853,16.666,-5.335,7.04,-2.482,3.297,2.71,-5.195
2.806,31.483,6.202,6.633,0.307,-1,5.433,3.798
11.308,41.193,11.81,9.939,-0.956,1.968,6.485,7.722
-0.49,21.802,-1.673,5.098,-0.752,-2.636,3.141,-0.648
-16.443,-10.301,-15.543,-8.639,-0.759,-17.842,-3.164,-10.363
-7.844,-0.817,-10.4,-6.85,1.884,-14.764,-2.675,-8.033
17.179,31.155,1.193,12.081,9.335,8.752,1.986,-1.204
24.02,13.77,-1.229,15.39,11.534,14.484,-1.256,-3.823
9.5,-23.273,-11.581,-3.231,1.714,-6.389,-11.266,-11.85
5.764,9.98,-6.896,-6.205,-4.651,-13.855,-13.339,-12.216
8.115,62.994,5.974,10.986,1.297,1.294,-6.394,-8.381
-13.561,19.812,-1.474,9.412,4.461,3.018,-5.705,-10.903
-35.886,-56.489,-15.335,-2.836,3.865,-4.682,-7.898,-10.034
-22.172,-32.076,1.207,16.189,12.452,12.837,3.53,6.375
4.16,37.961,31.231,47.391,18.11,37.437,15.652,19.843
11.944,30.944,29.604,42.932,7.874,29.756,7.29,9.264
23.078,-11.124,5.066,16.221,2.272,4.164,-4.556,-7.041
49.919,3.955,-0.237,9.322,11.004,-3.321,0.431,-5.524
45.125,28.156,10.135,15.322,4.922,2.833,2.565,-2.47
-13.195,-20.443,1.253,2.091,-23.147,-4.817,-12.961,-15.251
-68.826,-89.792,-25.378,-23.843,-35.16,-24.696,-21.907,-23.929
-68.966,-74.453,-35.681,-26.751,-14.781,-25.289,-8.453,-10.49
-25.199,25.924,-16.013,3.807,12.912,4.19,10.797,10.175
14.14,101.178,6.251,31.341,25.76,26.869,17.193,14.069
16.817,63.851,0.014,18.602,16.41,9.717,4.238,-4.024
-0.364,-17.421,-20.071,-7.887,-5.43,-16.103,-17.819,-22.733
-8.348,-10.922,-19.34,2.469,-14.181,-4.392,-26.345,-20.238
-18.104,46.415,-9.499,26.868,-7.726,18.923,-20.421,-10.411
-34.949,19.984,-19.37,13.856,-6.575,7.097,-19.551,-16.374
-22.029,-52.954,-28.415,-10.229,-6.989,-13.718,-21.328,-25.199
18.327,-41.813,-12.102,1.774,3.084,-2.35,-12.297,-17.933
21.751,10.9,0.622,21.778,6.686,14.718,-5.835,-9.722
-17.238,-7.866,-13.059,9.038,-6.173,2.126,-15.773,-16.507
-14.872,-40.828,-18.267,-7.863,-9.755,-15.289,-22.969,-21.902
43.223,-1.745,7.92,4.747,5.661,-8.348,-12.543,-11.752
52.167,23.726,20.802,13.099,7.719,-2.995,-4.017,-3.605
-10.604,-25.607,-10.146,-7.616,-14.875,-17.668,-10.148,-10.503
-21.313,-47.891,-33.254,-12.366,-22.315,-17.602,-11.843,-13.48
43.118,-17.179,-8.703,16.092,3.521,5.274,0.97,-0.109
41.254,-29.07,14.221,26.522,16.561,9.926,9.765,10.811
-51.969,-65.577,-0.476,7.487,-13.029,-4.258,4.595,6.307
-100.124,-44.758,-13.199,0.7,-44.18,-3.022,-1.601,-1.803
-80.457,-11.387,-13.722,5.721,-41.476,5.928,-2.222,-5.078
-84.714,-29.377,-35.989,-3.352,-24.361,2.459,-3.232,-7.671
-96.579,-51.482,-59.997,-13.014,-12.624,-0.874,-4.031,-9.98
-43.838,-33.013,-43.675,-5.006,-0.901,3.518,-0.933,-8.318
26.095,-2.818,-8.402,6.959,9.76,3.653,0.177,-5.47
15.166,15.397,1.286,8.601,9.235,-1.91,-4.262,-6.051
-64.032,14.803,-15.516,3.413,-1.043,-4.907,-6.8,-7.584
-112.007,-25.022,-34.48,-7.299,-12.324,-9.099,-7.305,-9.815
-78.368,-77.898,-37.627,-20.311,-14.917,-18.017,-11.146,-14.716
-23.362,-79.563,-20.294,-19.904,-4.283,-18.513,-10.507,-14.49
-28.284,-39.97,-0.857,-4.239,3.181,-4.343,-0.907,-6.004
-66.011,-7.748,-0.619,9.694,-5.749,10.66,5.39,-0.671
-59.248,15.736,-12.91,9.811,-14.155,10.83,0.574,-4.921
-21.735,17.229,-19.351,-4.416,-9.424,-5.169,-8.547,-12.45
-11.921,-31.377,-16.64,-20.853,-4.377,-21.724,-13.287,-15.457
-20.593,-79.171,-8.857,-19.296,-4.599,-19.576,-10.395,-9.992
-3.158,-47.629,4.911,4.629,1.61,2.965,-1.471,1.804
29.81,22.508,17.544,22.64,13.201,18.749,5.21,8.841
16.664,17.284,10.583,8.388,12.563,4.62,2.476,3.857
-39.759,-55.02,-10.627,-16.999,0.086,-16.916,-3.25,-4.392
-51.678,-80.976,-13.743,-19.403,-2.705,-15.683,-1.281,-4.621
-19.679,-47.409,-0.859,-10.755,3.349,-6.719,5.486,1.403
-26.003,-32.822,-3.991,-15.2,-1.43,-10.941,8.365,4.964
-29.788,-32.611,-8.222,-12.894,-5.404,-8.544,10.058,6.508
29.749,-6.086,13.566,8.289,8.695,8.835,11.703,10.181
43.659,-3.827,23.156,5.649,13.874,2.186,3.457,6.949
-47.036,-40.994,-7.762,-28.994,-8.422,-31.984,-10.43,-6.21
-92.089,-23.743,-25.649,-33.381,-22.431,-36.088,-11.706,-10.487
-23.277,37.547,-0.517,2.794,-6.537,-1.676,-0.572,0.047
14.952,14.956,12.033,14.046,5.532,13.007,5.682,6.209
-37.08,-66.79,-10.391,-11.319,-4.352,-5.297,2.574,1.788
-62.63,-68.498,-15.228,-19.077,-8.54,-12.541,2.004,1.14
-30.916,-6.154,7.478,-0.454,0.327,2.424,8.309,7.138
-35.322,7.717,8.412,5.41,-2.355,9.891,11.476,6.752
-78.302,-27.782,-17.682,-10.625,-17.382,-2.557,6.387,-3.129
-73.542,-46.872,-27.624,-25.794,-22.259,-20.475,0.287,-9.936
-21.486,-42.659,-11.276,-26.291,-12.086,-25.561,-1.737,-5.531
-3.05,-39.25,0.627,-16.538,-0.863,-12.804,-1.396,4.436
-32.944,-24.278,-2.719,-5.493,3.894,4.857,1.662,11.44
-50.468,5.201,-2.277,1.147,4.767,11.024,5.682,10.924
-29.226,0.78,6.408,-1.124,1.195,2.487,2.872,2.401
-2.67,-54.475,7.808,-12.565,-8.7,-10.603,-7.144,-8.308
-6.018,-98,-1.175,-23.419,-17.441,-16.327,-12.634,-11.8
-29.651,-74.297,-4.255,-18.253,-12.11,-7.849,-6.099,-3.905
-32.3,-19.35,6.909,1.987,4.827,10.546,3.89,6.916
-2.784,-4.115,18.28,14.699,14.579,22.327,7.686,9.962
26.112,-14.71,19.928,10.391,14.382,17.889,10.032,9.955
20.663,1.194,16.441,0.851,16.263,3.583,14.271,13.273
-9.323,16.485,11.947,-5.963,18.048,-8.639,13.399,13.058
-9.445,5.31,18.826,-2.381,17.748,-5.152,9.864,10.473
30.712,10.735,37.34,13.114,20.251,12.035,12.473,14.866
41.923,25.835,31.369,16.364,14.973,15.381,16.145,17.912
-10.476,-1.6,-6.993,-4.985,-2.238,-4.572,14.537,9.384
-69.821,-48.137,-31.183,-23.701,-11.527,-19.756,11.794,0.446
-83.489,-60.391,-23.943,-22.464,-6.018,-15.789,7.008,1.246
-69.161,-52.161,-17.42,-19.854,-2.651,-11.298,-3.591,2.233
-53.584,-52.739,-18.406,-23.064,-5.69,-12.917,-10.042,-4.238
-27.101,-39.373,-2.442,-12.778,-1.313,-4.367,-3.039,-7.19
-0.596,-4.245,18.182,5.187,6.548,9.432,5.124,0.355
-6.762,13.52,8.623,2.36,-0.225,6.574,0.582,5.865
-20.488,6.596,-13.909,-10.554,-14.8,-1.966,-8.595,1.911
3.619,-6.501,-8.21,-2.772,-15.31,6.28,-10.592,-1.18
27.84,-26.144,11.951,12.925,-4.872,15.669,-8.545,1.659
-5.908,-38.115,7.674,5.965,-4.483,4.265,-7.327,1.792
-57.859,-24.779,-14.381,-15.692,-14.699,-13.867,-3.512,-2.505
-59.034,-6.39,-21.967,-23.116,-15.755,-15.233,3.821,-1.941
-24.397,-8.145,-11.466,-13.645,-4.978,-2.667,6.221,3.092
-3.992,-24.114,-4.567,-10.109,-0.466,2.604,-1.29,2.492
2.076,-24.565,-7.776,-18.408,-4.248,-4.571,-6.935,-1.434
9.745,-5.028,-9.552,-21.813,-4.457,-9.346,-1.2,-0.255
0.111,-13.391,-11.41,-20.18,-6.274,-10.017,2.661,-0.274
-26.642,-51.61,-17.02,-23.164,-14.942,-14.31,-5.311,-6.641
-22.1,-40.192,-11.212,-17.685,-15.054,-10.751,-9.818,-6.034
18.33,23.221,7.202,3.647,-1.378,8.899,1.015,8.461
28.169,33.633,11.034,13.025,5.037,19.179,12.209,18.76
-6.586,-24.135,-3.348,-3.5,-3.692,3.38,8.466,10.765
-13.113,-43.015,-0.18,-12.12,-3.981,-7.186,0.994,-0.175
23.827,6.562,26.07,7.262,13.139,10.561,5.172,4.625
30.667,41.764,30.43,23.787,21.195,27.568,12.816,14.632
-6.184,33.197,1.468,14.655,6.527,16.964,8.878,8.721
-24.026,24.247,-18.887,-0.945,-11.064,-3.384,-3.669,-7.521
-3.257,14.289,-14.842,-7.081,-16.617,-9.674,-14.226,-13.235
21.473,-23.308,-8.58,-13.872,-16.511,-9.33,-20.666,-8.126
20.661,-49.869,-7.79,-21.907,-15.606,-13.795,-21.546,-4.863
-1.588,-13.267,-2.694,-14.288,-6.816,-11.478,-12.143,-3.144
-16.19,49.027,6.617,5.398,8.779,3.457,3.298,3.137
-15.973,59.107,8.78,12.601,13.86,13.589,12.266,10.792
-17.031,19.765,2.036,5.044,4.431,12.407,10.789,13.451
-14.458,-11.808,-1.031,0.944,-1.75,11.053,4.14,8.588
-0.024,-25.206,3.274,-0.871,1.311,5.958,-3.768,-1.424
6.106,-27.336,4.529,-8.63,3.235,-6.689,-6.646,-6.639
-10.184,-4.187,-1.932,-11.643,-0.233,-9.543,-0.967,-2.335
-26.047,22.869,-9.72,-5.686,-8.071,0.186,2.63,1.15
-13.754,13.689,-9.348,-1.685,-16.14,4.673,-2.484,-0.394
14.845,-15.619,0.434,-1.204,-16.108,2.452,-6.827,1.701
19.838,-20.796,6.311,-0.424,-9.231,1.801,-4.721,6.906
-6.11,-4.971,0.167,-1.992,-4.174,0.466,-1.576,6.446
-22.628,-3.795,-5.939,-5.718,-2.156,-1.851,-1.547,1.015
-6.134,-21.822,-2.442,-5.826,-2.278,1.26,-4.103,-1.27
20.399,-29.204,3.772,-0.288,-5.419,9.331,-6.135,3.214
32.041,-8.884,7.159,5.279,-5.39,13.142,-3.17,9.378
23.59,19.171,9.527,4.818,3.187,8.586,4.209,10.45
-1.935,22.717,8.343,-1.259,10.993,1.771,7.414,6.382
-27.442,0.872,1.845,-7.25,8.499,-0.969,2.474,2.441
-26.415,-8.298,0.784,-4.721,4.622,3.451,-1.023,4.327
1.225,20.877,11.679,6.773,8.024,12.562,2.915,9.592
23.677,58.256,20.743,12.789,7.49,15.673,4.36,6.457
23.802,52.548,14.504,4.134,-5.644,8.599,-4.562,-6.741
20.13,6.069,2.347,-8.698,-17.363,-0.036,-15.418,-17.089
23.032,-22.929,1.071,-13.537,-14.37,-3.855,-16.562,-17.732
6.665,-11.036,1.865,-12.389,-8.469,-3.244,-10.465,-12.011
-32.109,11.424,-10.887,-9.274,-11.379,1.906,-6.386,-2.4
-42.691,34.74,-18.97,-0.96,-9.988,10.516,-3.835,7.203
-8.137,55.777,-5.963,6.908,1.176,14.243,-0.527,7.786
21.818,48.666,6.348,1.948,4.356,7.253,-2.077,-1.528
17.638,20.697,2.121,-9.121,-3.548,-1.191,-8.489,-8.046
0.285,6.12,-3.351,-8.107,-5.147,0.117,-9.682,-3.959
-7.66,6.146,1.25,3.398,2.012,6.301,-2.443,3.997
-1.719,2.99,8.546,9.229,4.058,8.914,4.972,8.334
13.276,7.194,13.465,11.14,1.263,15.278,8.172,11.447
21.182,28.965,15.031,15.993,2.873,24.973,8.812,15.233
2.691,26.065,5.827,6.381,0.672,14.728,3.728,11.475
-27.959,-20.373,-9.505,-20.332,-11.628,-12.878,-6.607,-1.489
-26.24,-36.887,-7.814,-27.957,-14.656,-20.12,-9.6,-8.078
5.419,6.63,11.066,-7.38,-1.166,-2.12,-0.762,-0.051
9.182,22.893,16.088,1.011,0.133,4.141,4.543,7.536
-20.36,-14.522,0.499,-15.691,-20.052,-10.042,-3.772,1.375
-27.427,-22.707,-8.329,-22.44,-27.06,-15.035,-12.431,-7.364
-6.734,2.955,-1.479,-8.954,-7.581,-3.271,-8.668,-4.161
2.175,-5.221,4.598,-1.619,9.121,4.435,-0.768,2.617
-1.219,-28.417,5.298,-6.087,9.387,3.028,1.241,-0.254
2.452,-19.402,8.737,-6.01,7.871,3.808,0.65,-6.103
8.66,-3.117,13.454,-0.11,9.012,7.209,0.555,-3.87
4.939,-2.822,10.587,1.065,3.107,5.595,-3.034,0.965
-4.909,0.968,1.238,-2.114,-7.857,1.91,-10.109,-0.452
-0.493,14.892,-1.308,0.485,-8.427,6.057,-12.666,-2.892
18.439,21.681,5.93,7.16,2.005,13.253,-7.032,0.89
20.098,13.445,6.761,3.822,3.095,8.393,-0.134,5.79
0.114,8.906,-2.452,-6.151,-10.378,-3.273,2.161,6.158
-7.45,25.054,-5.056,-4.316,-17.902,-2.674,2.155,6.196
5.495,39.685,0.709,7.329,-9.623,7.714,2.383,9.01
16.619,29.816,2.142,12.244,1.402,11.667,2.571,10.659
16.925,16.959,-2.442,6.638,3.27,6.212,2.533,7.576
9.38,23.719,-7.784,-3.882,-2.418,-2.534,0.757,1.14
-0.62,35.421,-9.655,-11.896,-6.842,-7.995,-2.861,-3.638
-0.206,30.21,-4.974,-12.034,-5.059,-6.197,-4.642,-3.474
11.201,10.237,2.743,-9.376,-1.038,-3.224,-2.803,-0.101
14.612,-7.284,7.13,-10.242,0.736,-6.578,0.497,2.488
3.512,-16.149,7.065,-12.705,0.916,-12.616,2.474,1.475
-7.432,-20.354,5.086,-14.581,0.171,-14.125,3.045,-1.093
-9.759,-17.6,4.829,-13.51,-1.872,-8.377,5.169,0.547
-9.155,-11.743,5.909,-9.391,-6.41,-0.787,7.035,5.125
-10.204,-15.724,2.005,-10.767,-13.75,-2.468,3.149,4.625
-12.557,-25.377,-8.39,-19.139,-17.821,-12.098,-2.437,-0.165
-13.304,-26.141,-18.349,-23.51,-15.64,-16.589,-2.737,-0.464
-3.713,-16.345,-19.937,-18.735,-14.008,-12.169,-1.018,4.764
16.285,-0.994,-12.007,-9.758,-15.186,-4.737,-1.35,8.09
26.002,14.775,-4.12,-2.867,-13.911,0.678,-1.574,6.536
15.475,19.542,-3.886,-0.808,-9.918,1.753,-2.006,4.301
0.193,5.329,-6.62,-3.568,-9.596,-1.487,-6.305,1.045
-6.794,-10.739,-7.447,-10.003,-13.659,-7.062,-10.496,-6.564
1.588,-0.572,-5.116,-12.78,-11.334,-9.316,-5.451,-11.119
21.833,27.513,1.77,-5.906,0.093,-3.909,4.291,-5.681
26.432,33.768,6.869,-0.936,4.892,0.475,4.328,-0.366
6.367,10.695,4.227,-9.431,-2.616,-6.661,-4,-4.516
-6.038,-7.873,2.125,-18.9,-6.822,-16.423,-6.576,-8.784
3.878,-3.53,7.707,-14.448,-0.37,-14.272,-0.666,-3.323
10.706,11.463,14.251,-3.631,6.738,-4.083,5.62,5.026
2.96,26.246,15.793,1.592,8.948,2.645,8.701,7.226
0.805,38.003,16.816,4.409,10.586,5.954,10.405,6.96
12.92,39.724,21.311,10.873,13.564,11.081,11.683,10.824
22.231,29.459,24.162,15.686,15.34,15.827,11.772,15.128
19.934,22.981,21.03,12.072,15.021,15.231,9.877,11.892
16.574,32.006,16.447,5.411,13.857,11.588,6.035,2.922
15.638,36.785,13.004,1.959,11.653,7.992,1.119,-2.753
9.043,16.402,6.849,-3.471,7.254,0.936,-3.477,-3.007
0.357,-6.868,0.346,-11.21,3.105,-7.452,-5.347,-1.762
2.552,-3.617,1.542,-10.904,3.534,-7.938,-2.872,-0.375
13.526,8.858,8.331,-3.972,7.152,-2.743,0.725,0.488
20.005,4.072,10.465,-3.348,8.375,-2.143,0.892,-0.097
19.386,-4.132,7.097,-9.302,6.806,-5.421,-1.147,-0.834
18.156,5.875,7.429,-10.447,7.023,-4.494,-1.328,-0.347
18.818,24.73,14.09,-4.443,9.04,1.476,1.089,1.147
17.897,27.899,17.524,-1.053,7.648,4.847,4.112,1.933
16.214,11.959,12.367,-4.649,2.815,1.871,5.737,0.978
20.151,2.296,8.082,-5.355,0.964,1.237,5.246,0.412
21.417,10.073,10.76,2.669,3.069,8.647,4.086,1.518
8.214,13.719,12.433,9.071,2.807,13.494,5.353,2.665
-3.808,5.603,10.205,7.087,0.335,9.129,10.342,4.474
3.566,5.212,11.549,5.895,5.72,7.212,16.817,9.331
19.224,17.319,17.802,12.058,21.294,15.024,21.026,15.574
25.153,24.335,21.167,16.812,32.068,20.774,17.947,17.578
24.066,21.396,15.834,11.965,25.576,14.699,5.823,11.415
30.916,24.079,7.739,4.734,12.124,5.242,-6.153,1.297
42.658,34.475,7.834,4.357,9.143,3.149,-7.252,-3.277
37.734,35.259,14.8,7.203,15.562,5.762,-0.326,-0.428
20.378,27.904,20.18,7.746,21.192,6.93,5.206,3.339
17.044,29.413,20.873,6.797,23.422,6.284,6.508,5.063
22.437,33.839,16.425,5.035,20.929,4.634,5.73,7.12
14.456,27.581,9.607,2.879,12.64,1.787,4.161,8.647
1.427,19.856,5.538,1.03,4.633,-2.342,1.189,4.716
3.101,20.809,5.307,-0.069,3.781,-4.67,-2.288,-2.742
17.598,23.127,7.938,3.028,9.353,0.7,-2.026,-3.772
34.68,26.294,14.17,13.101,16.961,13.374,3.534,4.42
44.88,32.185,20.961,22.112,21.719,21.833,8.302,11.912
30.806,21.717,17.819,16.648,17.166,15.401,6.592,10.217
-3.158,-6.531,2.318,-0.105,4.653,0.567,2.642,3.242
-21.498,-20.508,-10.085,-11.526,-3.582,-8.113,2.725,-0.916
-12.314,-11.007,-7.077,-11.319,-0.657,-7.364,5.121,0.039
1.817,1.585,3.422,-5.026,7.198,-2.907,6.18,3.47
8.501,9.455,7.835,0.217,10.889,-0.645,6.069,4.496
15.732,17.378,6.642,1.231,9.296,-1.632,5.985,1.665
26.351,22.379,8.632,1.75,9.128,-0.369,6.495,0.52
27.193,18.746,12.584,4.889,12.453,4.635,6.513,3.821
14.106,11.911,11.735,7.593,12.867,7.094,4.993,6.536
9.17,13.931,9.764,8.947,10.245,5.925,4.826,6.253
23.942,22.874,11.13,10.676,11.081,5.404,7.492,6.103
34.126,22.003,9.242,9.844,12.285,4.164,7.94,6.474
21.845,8.618,1.853,5.221,7.416,0.429,3.987,5.959
4.085,0.081,-2.772,2.038,1.129,-1.695,1.327,6.348
-0.473,4.325,-1.974,2.432,-0.525,-0.782,2.855,7.732
4.396,10.34,-0.203,3.477,1.006,-0.215,4.701,6.604
8.167,9.509,2.421,4.923,4.574,-0.15,5.035,3.812
9.515,7.222,7.568,8.474,10.091,2.016,6.537,4.396
12.244,11.801,9.957,12.299,12.623,5.144,9.66,7.522
15.219,20.272,5.273,13.976,8.337,6.342,11.502,8.571
15.603,21.577,2.364,15.789,2.387,7.122,11.345,9.915
15.105,14.308,9.596,19.083,0.117,8.824,9.737,13.939
15.828,11.136,18.099,20.035,-2.408,7.647,6.396,13.335
19.553,20.166,16.079,19.46,-9.106,5.095,4.044,5.48
26.122,30.189,6.194,21.903,-14.944,7.981,4.577,0.425
28.019,24.882,-2.992,21.589,-12.177,11.216,4.565,3.513
19.789,7.698,-9.852,11.241,-1.311,6.745,2.595,7.804
7.753,-4.486,-15.592,-1.783,7.178,1.186,0.817,5.965
3.536,-6.228,-17.01,-7.299,7.208,0.569,-0.582,-0.831
13.171,-0.827,-11.473,-4.497,5.311,2.109,-1.072,-4.701
26.982,9.435,-4.041,2.602,6.668,5.564,0.713,-1.475
27.429,15.862,-3.093,7.366,7.201,9.101,2.599,2.538
16.86,13.418,-8.587,7.613,5.432,9.247,2.841,2.006
14.121,12.347,-11.643,9.61,5.973,9.708,3.167,1.754
19.102,16.971,-9.711,14.072,6.571,12.509,2.87,4.842
16.775,18.803,-8.703,15.734,0.361,13.703,0.363,6.64
11.224,17.057,-8.956,16.874,-7.082,13.234,-0.939,5.264
14.137,17.218,-6.968,21.418,-4.802,14.251,1.523,4.549
17.456,17.743,-3.388,26.152,3.344,17.584,4.426,7.816
13.787,17.714,1.918,28.885,6.88,22.182,5.959,14.043
13.96,22.77,9.479,32.107,6.606,25.391,8.818,16.957
22.769,31.931,15.416,34.89,8.092,23.828,11.836,11.26
30.007,36.085,16.387,33.079,11.171,17.891,10.756,2.947
29.21,32.826,12.965,26.337,12.863,12.195,7.051,1.273
23.187,26.326,8.418,17.517,10.678,8.65,3.96,2.602
17.643,19.836,6.376,10.406,5.457,5.982,1.36,-0.065
17.295,17.538,6.366,9.194,3.765,6.08,0.845,-2.185
22.24,21.496,6.942,13.642,10.23,10.391,4.15,2.052
27.341,26.665,9.008,17.36,19.453,13.917,6.38,7.283
28.224,28.126,10.731,16.196,23.741,12.571,2.963,5.938
27.265,27.712,9.305,13.812,22.677,9.702,-0.797,0.807
29.961,29.859,6.969,14.153,18.566,9.164,0.826,-0.894
34.84,35.147,6.877,14.499,12.523,9.284,3.983,0.975
34.294,37.242,7.437,10.727,8.268,6.857,4.215,2.401
29.243,31.329,6.57,4.875,8.607,2.185,3.735,1.836
27.254,24.248,5.288,2.687,9.208,-1.349,4.959,-0.429
24.404,21.649,2.175,5.287,5.601,-0.582,5.81,-2.233
16.449,18.538,-4.07,8.109,0.478,3.799,2.932,-0.25
14.076,14.615,-6.725,7.167,-3.217,5.662,-3.071,4.03
20.272,15.632,-1.2,3.357,-6.738,0.852,-6.793,4.052
23.424,21.205,4.789,1.626,-7.868,-4.422,-4.567,-1.331
21.73,27.752,3.421,4.765,-2.07,-2.618,0.62,-5.202
21.686,31.392,-1.486,8.254,5.097,2.005,2.359,-5.359
19.588,27.107,-3.695,5.886,3.989,0.338,-2.656,-8.29
9.979,16.843,-4.915,-0.236,-1.423,-6.268,-10.438,-15.446
0.621,9.981,-7.095,-2.172,-1.534,-7.999,-13.946,-17.709
0.842,9.595,-5.539,1.388,0.067,-2.419,-11.915,-10.28
7.899,10.676,1.959,5.611,-5.335,3.295,-7.767,-1.938
14.404,13.372,9.382,10.388,-13.208,5.658,-2.767,-0.549
16.809,20.962,11.622,17.053,-12.789,7.453,1.587,-1.962
14.868,27.356,9.014,21.614,-5.325,10.749,1.946,-0.207
10.513,25.309,2.451,21.56,0.738,15.173,0.172,4.18
6.655,19.283,-5.166,18.847,2.573,16.902,0.942,6.89
4.869,16.287,-9.084,15.327,1.008,13.12,1.762,3.414
5.081,15.585,-8.965,13.057,-0.952,9.729,-2.177,-4.876
6,13.619,-7.206,13.301,-0.111,12.17,-7.167,-8.888
5.183,10.841,-4.56,14.427,0.441,15.224,-6.892,-3.968
3.278,11.021,-0.839,15.081,-0.834,14.056,-2.915,2.337
3.501,13.33,1.846,14.496,1.566,11.759,-0.318,2.012
2.988,11.212,-1.438,10.937,6.724,10.188,-0.546,-1.927
-2.065,4.151,-9.638,5.336,6.618,7.589,-2.527,-2.681
-5.858,-0.15,-12.668,2.728,1.921,5.751,-4.162,-0.322
-2.459,2.221,-6.233,7.34,1.579,9.505,-2.368,1.826
3.512,7.603,0.402,16.683,7.856,17.387,2.975,3.29
4.479,12.187,-0.587,21.676,12.079,19.651,5.839,4.164
0.375,14.797,-4.175,18.066,6.535,13.299,1.344,4.011
-3.584,13.09,-3.853,13.913,-4.431,9.177,-5.596,2.946
-5.035,7.275,-2.464,16.668,-9.453,13.653,-6.249,1.29
-4.548,4.566,-4.733,20.807,-5.116,18.396,-0.111,1.848
-1.566,9.072,-8.026,18.764,-0.126,16.226,4.409,6.592
3.415,15.815,-7.784,13.546,-2.337,10.829,1.722,9.752
5.884,19.291,-7.239,10.615,-8.207,7.074,-3.42,6.561
2.688,18.623,-10.76,9.476,-11.368,5.303,-5.634,1.834
-0.567,16.971,-14.467,9.013,-13.266,5.329,-6.994,-1.398
4.204,18.473,-14.674,10.17,-14.633,7.452,-9.025,-5.613
13.227,21.996,-13.871,12.802,-10.665,11.191,-9.056,-7.784
16.024,24.457,-13.399,14.76,-3.313,14.12,-7.114,-4.656
11.001,25.925,-13.744,11.185,-1.175,9.976,-7.767,-4.057
2.934,23.793,-18.134,0.643,-6.056,-1.504,-13.106,-12.148
-2.544,17.971,-23.349,-6.101,-9.93,-6.184,-17.241,-19.485
-0.298,17.785,-20.664,-0.88,-6.797,2.035,-15.172,-17.239
5.971,26.325,-12.282,6.611,-3.037,8.268,-11.788,-12.609
8.003,33.529,-7.487,7.537,-5.878,4.78,-11.952,-12.189
6.91,33.02,-7.051,7.782,-9.375,2.785,-12.458,-9.696
9.383,30.279,-6.224,12.08,-5.889,8.611,-10.248,-2.341
15.476,30.894,-3.514,14.706,0.231,13.74,-7.825,1.314
18.486,31.502,-1.732,10.225,1.633,10.212,-8.431,-2.981
15.662,28.625,-3.915,2.487,-0.366,2.282,-10.775,-7.774
12.418,27.205,-6.733,-0.103,-0.097,-0.678,-10.042,-5.688
12.923,30.371,-2.847,4.243,3.863,2.421,-5.018,0.685
14.594,31.396,6.004,8.494,6.921,5,-0.759,3.232
14.143,26.482,8.355,7.837,4.855,4.396,-0.908,-0.022
13.159,23.589,2.047,7.355,1.773,5.719,-2.291,-1.75
13.819,28.043,-2.717,11.834,2.945,11.943,-0.878,2.612
12.558,30.522,-3.59,15.165,2.994,15.726,1.882,7.18
6.571,22.111,-6.501,11.607,-3.721,10.974,2.457,6.612
0.629,11.142,-9.42,6.75,-9.872,4.192,0.272,2.831
-1.371,9.417,-7.039,6.91,-8.083,3.438,-2.62,-1.635
-2.035,13.454,-2.783,10.563,-3.526,7.852,-2.785,-3.463
-3.414,13.366,-1.423,14.122,-2.242,12.533,2.298,2.69
-5.314,7.661,-0.729,15.678,-2.964,13.953,9.394,13.466
-7.899,0.856,-0.277,12.446,-5.457,9.297,9.685,14.745
-9.008,-3.912,-4.616,3.131,-11.817,-1.563,0.182,1.52
-8.381,-4.949,-12.572,-5.565,-18.52,-10.953,-8.586,-11.532
-9.765,-1.483,-17.318,-5.355,-19.692,-10.701,-7.428,-12.228
-10.851,3.709,-15.682,1.282,-17.263,-4.227,-3.199,-7.906
-7.095,6.739,-9.784,6.94,-15.82,0.288,-4.983,-6.985
-2.115,7.253,-2.049,11.669,-11.758,3.098,-8.19,-4.16
-0.369,6.859,7.188,17.374,-2.046,8.295,-5.52,2.955
-1.837,4.858,12.239,18.366,4.74,11.671,-0.51,3.877
-5.063,0.152,5.742,11.614,2.217,7.261,1.163,-4.832
-7.577,-3.494,-2.67,5.735,-1.261,1.53,1.83,-9.919
-8.483,-2.854,1.639,6.669,2.257,3.231,5.086,-2.875
-7.71,-1.353,12.413,10.555,8.213,9.376,9.342,7.425
-6.092,-2.118,16.102,13.915,9.623,12.959,10.954,9.877
-9.186,-4.59,12.166,13.809,5.175,10.447,8.014,5.275
-16.96,-7.425,6.394,8.983,-0.317,4.488,3.522,2.441
-20.104,-9.175,2.881,5.697,-0.292,3.061,3.313,5.794
-18.219,-10.947,1.875,6.704,2.742,6.188,5.918,9.593
-19.15,-13.898,-0.186,6.348,1.61,5.614,3.925,7.033
-21.462,-14.108,-3.797,4.282,-0.925,1.924,-1.629,0.43
-19.419,-9.414,-5.177,4.732,-0.269,1.978,-3.504,-3.457
-15.551,-5.342,-4.067,4.545,-2.066,2.417,-2.235,-3.166
-14.769,-6.784,-4.246,-0.649,-8.679,-3.038,-2.671,-2.336
-15.881,-10.453,-6.407,-6.031,-10.147,-8.489,-3.378,-2.376
-15.163,-9.783,-6.695,-5.468,-1.172,-6.918,-0.156,-0.842
-11.683,-4.319,-3.235,-1.972,9.079,-3.179,5.479,2.419
-8.388,-1.055,-0.186,-2.452,10.935,-3.761,7.308,3.926
-8.336,-5.478,-0.44,-6.369,6.201,-6.434,3.296,2.522
-9.26,-13.634,-0.313,-7.512,2.447,-6.621,-0.324,1.193
-8.313,-16.04,1.531,-4.713,2.017,-4.322,1.542,1.893
-7.555,-9.885,0.614,-1.07,1.729,-0.217,4.597,2.26
-9.118,-3.129,-3.118,2.655,0.415,5.193,3.511,0.125
-13.038,-3.336,-4.198,4.969,-0.932,6.578,0.493,-1.514
-17.67,-8.117,-2.404,2.155,-4.363,0.078,-0.964,-0.408
-18.369,-11.429,-2.831,-4.204,-10.291,-7.823,-2.132,-1.311
-14.215,-13.269,-6.12,-8.065,-12.04,-9.933,-3.48,-6.132
-12.7,-16.797,-8.537,-8.223,-6.329,-8.306,-1.756,-7.542
-16.669,-20.176,-6.94,-6.39,-0.201,-5.535,2.73,-1.768
-17.23,-18.824,-0.003,-1.945,2.041,-0.311,5.327,5.867
-12.003,-15.038,6.815,2.532,4.997,4.103,5.142,9.99
-11.894,-16.511,4.587,0.859,8.684,1.489,4.718,8.3
-19.693,-23.099,-4.636,-6.701,5.598,-7.14,3.567,1.324
-23.383,-25.18,-10.657,-12.979,-3.738,-14.742,-0.145,-5.879
-17.03,-19.006,-10.167,-14.113,-8.802,-17.148,-4.03,-8.151
-10.623,-12.86,-7.232,-12.695,-6.075,-15.64,-4.64,-5.649
-11.909,-12.645,-4.376,-10.447,-3.466,-11.969,-2.527,-1.324
-13.41,-14.341,-0.036,-5.574,-6.131,-6.612,0.02,1.996
-8.55,-15.02,4.742,-0.68,-9.172,-3.76,0.858,1.254
-6.904,-17.777,2.817,-3.221,-8.222,-8.074,-0.22,-2.828
-16.955,-24.174,-7.918,-13.203,-6.943,-15.596,0.346,-4.409
-25.979,-29.029,-16.755,-20.168,-6.723,-17.751,3.995,-0.888
-20.215,-26.63,-14.357,-16.818,-3.435,-11.758,7.297,3.663
-9.578,-20.972,-6.089,-9.225,2.285,-3.91,8.219,5.562
-8.885,-20.695,-1.357,-7.794,6.09,-3.38,7.464,6.059
-14.616,-25.764,1.32,-10.71,7.183,-8.4,6.044,8.066
-16.259,-29.301,7.174,-9.405,5.919,-9.297,5.934,11.467
-14.032,-29.469,10.678,-8.115,-2.002,-8.871,6.798,12.026
-15.394,-29.913,4.695,-14.178,-17.575,-13.768,4.961,5.896
-21.732,-30.967,-5.194,-19.186,-27.323,-15.939,0.486,-3.874
-26.648,-30.691,-10.902,-15.494,-20.438,-10.66,-3.103,-9.581
-25.221,-30.248,-13.073,-10.779,-6.541,-6.839,-3.831,-7.712
-19.602,-30.46,-15.04,-11.869,1.529,-8.263,-0.498,-1.418
-14.896,-28.419,-15.894,-14.637,2.615,-10.653,5.046,3.265
-12.691,-22.948,-12.131,-13.775,-1.698,-12.15,7.068,2.184
-12.815,-19.821,-5.716,-11.139,-9.658,-13.407,3.614,-2.942
-15.802,-22.814,-5.371,-10.803,-14.163,-14.135,-0.511,-6.172
-19.523,-26.444,-13.325,-12.814,-10.995,-14.444,-1.615,-5.079
-20.837,-27.315,-20.311,-16.382,-5.737,-15.811,-2.276,-3.239
-18.378,-28.051,-18.493,-19.927,-3.984,-16.955,-4.398,-2.794
-10.313,-27.1,-8.074,-18.38,-4.455,-13.754,-4.215,-0.754
1.382,-22.317,6.293,-11.205,-3.436,-7.173,0.116,3.718
5.51,-19.911,15.373,-6.228,-0.225,-4.33,3.332,5.144
-4.692,-24.259,10.59,-6.767,1.138,-6.39,1.482,0.86
-16.861,-29.111,-2.189,-8.053,-1.944,-6.809,-0.877,-2.617
-17.484,-29.959,-7.635,-10.561,-4.988,-6.996,1.491,0.288
-13.196,-30.615,-4.062,-18.268,-3.892,-14.136,5.317,4.716
-14.073,-32.282,-2.174,-25.394,-0.485,-22.923,5.406,3.311
-15.283,-30.93,-4.408,-23.393,3,-21.973,3.552,-1.453
-11.386,-26.996,-6.441,-16.467,4.172,-14.557,1.717,-2.236
-7.872,-25.336,-6.994,-14.04,1.25,-12.218,-0.836,1.256
-9.969,-26.228,-5.076,-14.416,-0.659,-14.222,0.445,5.43
-14.133,-26.573,-1.594,-12.709,2.595,-14.347,5.981,7.401
-13.749,-25.228,0.265,-12.196,6.544,-15.202,5.81,3.755
-8.763,-21.682,1.203,-14.101,7.277,-18.48,-0.862,-3.277
-7.085,-19.179,0.8,-15.199,3.239,-20.239,-5.467,-7.528
-12.004,-24.364,-3.181,-16.424,-5.927,-20.11,-8.214,-9.415
-13.382,-32.438,-4.997,-16.672,-10.737,-18.217,-9.636,-9.852
-5.156,-31.504,-0.459,-12.405,-2.932,-13.589,-3.655,-4.894
-0.5,-26.277,2.28,-9.701,6.727,-11.787,5.645,2.525
-8.811,-28.606,-1.618,-14.688,5.738,-16.213,7.106,3.665
-17.959,-33.964,-4.683,-20.151,-0.402,-19.744,1.961,-1.428
-17.473,-33.569,-1.907,-19.405,-1.755,-18.627,-0.853,-5.047
-11.541,-29.614,3.566,-15.466,2.858,-16.552,1.834,-2.004
-5.126,-26.651,8.951,-10.807,10.127,-13.279,7.23,5.473
-0.615,-24.167,12.212,-4.387,14.754,-6.976,10.438,8.566
1.471,-18.469,12.987,2.645,11.233,-1.393,9.158,2.899
3.386,-11.282,15.116,4.11,-1.568,-2.091,5.595,-4.133
1.602,-12.767,15.282,-5.088,-16.093,-9.943,2.648,-4.787
-7.938,-24.571,4.277,-18.939,-19.839,-19.703,1.316,-1.633
-15.867,-33.294,-11.943,-26.331,-12.25,-25.005,0.581,-0.835
-13.247,-31.334,-18.815,-25.225,-4.949,-24.156,0.032,-1.662
-8.342,-26.081,-16.951,-21.105,-1.683,-20.096,2.133,1.094
-9.343,-24.778,-13.544,-16.693,2.255,-15.569,7.886,7.754
-9.13,-25.042,-6.756,-10.879,6.328,-11.016,14.247,13.763
-3.373,-23.327,2.73,-6.022,5.93,-8.688,17.078,15.155
-1.981,-23.179,4.786,-7.752,2.278,-12.093,12.811,10.114
-9.055,-26.904,-3.354,-14.356,2.285,-18.326,3.448,2.167
-13.017,-28.44,-9.554,-16.916,7.919,-19.709,-0.955,-0.931
-7.059,-23.579,-5.397,-12.771,12.894,-14.787,4.17,0.972
0.662,-16.248,1.685,-7.829,12.634,-10.186,9.705,0.894
3.294,-11.399,3.416,-5.728,10.062,-10.047,9.434,0.538
2.883,-11.265,1.926,-5.097,8.848,-10.569,8.585,5.503
0.574,-16.148,-0.66,-5.801,7.287,-8.798,7.508,8
-3.269,-22.086,-5.29,-8.224,2.991,-7.726,1.366,0.062
-3.546,-22.894,-7.161,-10.263,-1.125,-9.496,-3.856,-7.897
1.741,-18.124,-1.143,-11.055,-0.649,-13.253,-0.494,-5.376
6.465,-13.572,6.901,-11.741,3.155,-17.464,5.918,0.576
5.284,-13.6,6.725,-13.188,3.509,-19.706,6.939,0.895
0.426,-16.353,-0.301,-15.49,-2.563,-19.154,3.445,-1.969
-2.137,-17.207,-4.404,-16.692,-8.788,-17.56,1.246,-2.128
-0.875,-15.749,-4.719,-15.344,-9.653,-15.499,2.457,0.466
-0.065,-14.941,-6.886,-12.31,-6.293,-11.022,4.354,2.157
-2.562,-15.101,-9.114,-7.762,-0.047,-3.87,4.294,2.409
-6.235,-14.863,-6.615,-3.683,7.234,0.129,3.343,4.011
-7.342,-14.266,-2.751,-4.488,12.327,-4.02,4.264,6.927
-4.695,-13.061,-3.077,-7.752,15.634,-9.363,7.291,7.954
-1.69,-10.785,-4.476,-6.588,17.835,-7.334,9.907,7.365
-1.73,-8.996,-1.307,-3.605,15.66,-4.403,9.934,7.226
-2.414,-8.875,3.844,-5.155,9.441,-8.505,7.263,5.264
-0.341,-9.03,5.345,-7.751,6.689,-12.797,3.349,0.196
2.345,-9.363,3.811,-7.227,9.802,-11.267,-0.123,-4.892
2.203,-11.573,3.383,-7.345,10.923,-9.941,-2.754,-8.345
1.665,-12.787,5.798,-7.975,7.357,-11.627,-3.908,-9.265
5.473,-7.657,9.251,-2.292,5.494,-9.798,-0.321,-4.966
11.457,1.048,11.985,8.995,4.444,-1.729,8.189,4.196
13.852,5.397,15.813,16.937,-0.587,8.057,15.209,13.169
12.169,3.933,17.913,17.368,-2.637,15.502,16.358,17.315
9.111,0.059,10.328,11.933,4.434,16.56,14.31,16.014
5.447,-4.552,-2.226,2.239,11.721,8.118,12.731,12.006
0.377,-9.19,-7.781,-7.941,10.385,-3.36,9.104,7.393
-4.491,-12.137,-7.008,-12.298,3.551,-8.322,-0.333,3.002
-3.932,-11.111,-4.011,-9.771,-3.285,-9.12,-9.263,-0.349
5.055,-4.745,4.978,-5.005,-7.82,-11.307,-8.566,-4.943
17.794,4.649,18.532,1.008,-4.792,-8.991,-0.538,-9.491
24.88,10.676,24.219,8.856,9.191,1.099,7.266,-6.296
21.835,9.406,15.842,12.74,24.518,7.643,11.623,1.563
13.452,3.86,3.412,8.979,27.581,4.607,10.812,3.086
6.586,-1.345,-0.924,3.598,17.701,1.078,5.248,-0.757
2.592,-4.991,2.987,2.398,7.171,3.22,0.93,-2.261
-0.928,-7.526,6.908,4.077,6.883,7.105,2.639,0.169
-4.083,-8.534,6.171,5.892,14.416,9.132,8.004,3.756
-3.899,-7.193,4.664,8.207,19.807,10.227,12.301,7.695
1.253,-3.4,8.464,12.076,19.612,11.727,14.291,14.46
7.339,0.878,16.316,14.939,18.323,12.15,16.292,20.219
7.336,1.133,19.506,11.964,19.886,8.045,18.366,14.68
1.892,-3.995,14.251,4.309,22.021,-0.046,15.217,1.103
-0.526,-8.908,8.001,-0.043,18.7,-5.804,6.117,-5.178
2.486,-9.166,8.085,1.887,8.111,-5.707,-0.031,-1.365
4.219,-8.469,11.353,3.547,-2.992,-3.147,0.509,3.927
0.273,-11.714,9.537,-0.439,-4.69,-2.225,1.446,6.67
-5.431,-16.103,1.873,-6.391,3.684,-3.579,1.326,6.328
-6.929,-15.796,-2.761,-7.995,12.599,-5.827,4.188,3.456
-4.625,-12.005,-0.439,-5.966,15.964,-8.278,7.457,0.092
-2.829,-9.95,1.711,-4.773,15.033,-10.204,5.506,-4.349
-1.879,-9.222,0.114,-3.702,11.712,-8.666,-0.63,-8.981
0.071,-6.64,-0.703,-0.76,6.996,-4.165,-5.895,-9.41
2.108,-3.149,0.671,1.637,3.423,-2.218,-6.528,-6.063
2.395,-0.533,1.472,2.725,3.312,-2.079,-2.388,-2.572
1.831,2.112,2.773,5.231,5.199,2.191,2.16,1.346
3.792,5.188,7.851,8.973,7.054,8.411,3.354,5.83
9.909,8.698,14.902,11.653,9.77,9.814,2.947,7.417
17.857,14.706,20.22,14.134,14.606,7.771,4.512,5.506
23.923,22.758,22.306,18.151,20.223,8.703,7.362,4.545
27.412,28.186,20.695,21.955,23.539,13.002,8.977,7.818
31.602,30.105,19.453,23.137,23.928,15.975,10.141,13.24
36.547,31.904,22.487,21.037,22.617,14.648,10.665,14.466
37.882,33.581,25,15.432,20.834,9.5,8.33,8.216
38.098,34.553,23.114,9.339,22.537,4.826,4.787,-0.459
43.179,37.393,20.667,7.045,27.665,2.8,1.027,-5.869
50.066,42.766,21.158,8.213,26.479,0.811,-3.282,-7.432
54.668,49.308,26.179,12.869,15.541,2.75,-1.378,-4.333
57.921,54.022,33.878,20.152,6.843,12.183,9.757,3.525
57.846,52.846,35.736,22.639,8.819,19.086,18.341,10.676
54.667,49.227,29.536,20.117,15.898,19.839,16.095,12.035
53.656,49.085,24.432,21.963,20.56,23.671,10.132,8.573
51.327,46.351,22.999,25.041,17.497,26.553,5.291,3.025
38.79,33.04,16.247,15.985,4.525,16.259,-3.348,-3.927
19.998,15.679,1.174,-2.298,-10.149,-0.831,-14.73,-10.67
8.563,6.356,-11.374,-11.703,-15.565,-7.902,-19.547,-13.499
9.837,7.653,-12.377,-6.482,-11.324,-2.542,-14.565,-11.939
16.27,13.04,-6.293,0.798,-3.624,3.778,-6.069,-9.45
19.279,16.01,-0.555,1.508,4.076,4.184,-1.048,-7.116
18.648,16.015,2.967,0.56,10.096,2.146,-0.611,-3.098
17.237,14.994,4.353,2.546,11.408,1.994,-1.114,2.339
14.88,12.07,3.802,4.841,6.592,4.729,-0.225,5.405
11.346,7.321,1.229,4.959,-1.3,8.598,-0.014,2.719
7.863,5.167,-3.32,3.309,-6.862,8.455,-2.083,-3.448
3.924,5.326,-8.064,-0.204,-8.193,2.47,-4.553,-7.585
-1.007,0.865,-11.033,-5.252,-8.75,-3.723,-6.534,-8.181
-3.557,-6.268,-11.066,-8.106,-10.652,-5.36,-8.103,-6.883
-1.557,-5.571,-7.616,-5.563,-11.382,-2.826,-7.487,-4.625
0.314,1.189,-2.984,-1.323,-8.471,1.296,-4.339,-1.984
-3.428,-0.25,-1.832,-2.04,-3.056,2.82,-1.191,0.14
-11.451,-13.425,-4.577,-8.034,0.408,-1.347,-0.598,0.463
-18.919,-26.253,-7.082,-14.515,-1.293,-9.34,-2.98,-0.956
-23.107,-30.367,-8.148,-18.1,-5.537,-15.446,-5.152,-1.815
-20.944,-27.709,-6.775,-16.584,-6.225,-14.279,-3.149,-0.8
-11.733,-21.247,-0.293,-10.122,-1.403,-7.025,1.977,0.823
-4.939,-14.989,4.812,-6.165,1.071,-3.522,4.538,0.388
-10.082,-15.47,-0.41,-12.4,-6.689,-10.92,1.459,-3.346
-21.281,-22.459,-10.378,-23.471,-16.873,-22.157,-3.008,-6.628
-25.472,-26.869,-16.148,-26.5,-17.247,-24.561,-4.067,-5.953
-20.958,-23.097,-18.481,-18.989,-11.871,-16.781,-4.556,-5.393
-16.72,-15.683,-18.428,-10.878,-10.482,-9.602,-7.345,-8.606
-17.1,-11.317,-15.254,-9.996,-10.701,-11.298,-8.475,-11.299
-17.156,-10.388,-11.358,-11.797,-7.433,-16.166,-6.031,-9.895
-12.986,-10.024,-7.109,-6.694,-6.373,-12.254,-2.891,-6.485
-9.605,-10.632,-1.498,3.437,-13.781,-0.551,-0.776,-3.973
-14.303,-14.31,-0.146,5.8,-20.731,4.953,-0.492,-4.085
-25.851,-20.763,-7.388,-3.028,-15.796,-0.723,-1.377,-5.379
-34.939,-26.967,-13.998,-11.256,-4.485,-6.809,-0.301,-3.567
-34.322,-28.694,-9.707,-10.694,3.733,-5.892,3.637,1.298
-26.979,-25.288,0.789,-6.457,8.823,-3.664,7.776,4.297
-21.475,-22.311,7.351,-5.077,9.993,-6.07,9.688,3.821
-19.902,-23.599,9.023,-5.242,5.728,-9.268,9.059,3.685
-17.387,-25.379,10.085,-2.948,2.408,-6.624,7.004,6.127
-12.723,-24.023,10.078,0.565,5.746,0.198,5.819,7.614
-11.151,-21.167,5.908,-0.133,9.956,1.973,7.473,5.168
-15.798,-19.282,-1.739,-6.945,5.462,-5.716,9.083,1.02
-22.026,-20.198,-8.545,-14.543,-5.335,-14.568,6.103,-1.738
-23.157,-23.752,-10.829,-16.345,-9.913,-14.512,1.35,-1.608
-20.455,-26.223,-10.174,-14.396,-5.628,-9.802,-0.401,0.305
-21.891,-26.877,-11.537,-17.028,-3.714,-11.797,-1.672,-0.755
-26.311,-26.769,-13.52,-21.762,-7.774,-16.908,-3.67,-4.798
-22.06,-21.612,-8.525,-16.518,-6.94,-11.905,-0.865,-3.626
-12.087,-13.955,1.833,-4.98,1.7,-0.923,5.498,3.943
-13.822,-16.262,6.594,-2.749,6.614,1.11,5.97,8.282
-25.83,-26.915,4.752,-7.653,3.96,-3.049,0.111,5.398
-30.324,-30.868,4.512,-5.841,1.937,-0.984,-2.807,-0.361
-24.208,-25.355,7.358,1.732,4.456,4.427,0.835,-5.105
-16.673,-18.593,11.019,5.261,8.387,3.68,6.512,-6.143
-12.767,-14.356,16.203,4.41,8.341,-0.302,9.57,-3.309
-13.899,-13.087,20.893,4.042,2.231,-0.734,8.917,0.427
-17.019,-14.643,20.847,5.242,-1.687,1.272,6.88,3.835
-16.244,-17.101,16.343,6.55,1.571,2.756,5.389,5.871
-13.837,-19.125,10.377,5.556,0.681,2.348,2.724,3.678
-17.77,-20.818,3.962,1.59,-10.779,-1.148,-1.617,-1.247
-24.953,-21.289,-1.004,-0.905,-18.768,-3.863,-3.254,-2.3
-23.437,-18.678,-0.602,0.928,-12.103,-1.125,0.588,2.971
-18.015,-16.02,0.848,0.325,-3.088,0.888,4.241,7.309
-24.485,-19.34,-5.916,-7.541,-5.076,-4.158,1.404,4.15
-36.088,-27.518,-15.488,-14.148,-8.595,-9.342,-2.859,-0.6
-36.045,-34.865,-16.075,-12.646,-3.949,-8.577,-2.194,-0.121
-28.834,-37.129,-9.607,-7.001,0.602,-4.448,-0.996,1.066
-25.935,-31.676,-2.395,0.157,0.594,1.854,-2.536,-0.925
-26.721,-23.071,3.517,6.958,1.207,6.97,-3.031,-2.552
-26.5,-19.534,5.276,7.631,1.754,4.45,-1.604,-2.31
-21.993,-19.152,4.637,4.273,1.955,0.018,0.048,-1.223
-13.071,-15.833,7.78,5.058,5.773,3.938,2.37,1.84
-8.392,-13.201,12.245,8.006,7.693,10.662,4.048,5.955
-15.338,-15.377,9.95,6.977,2.093,10.731,2.861,7.044
-25.424,-16.841,1.28,4.648,-2.287,7.666,0.81,4.545
-27.383,-14.244,-7.052,4.254,-1.468,6.282,-0.544,1.462
-24.695,-12.429,-11.059,3.435,-5.539,4.072,-2.799,-0.546
-24.335,-14.071,-9.944,1.999,-15.537,0.755,-4.634,-1.2
-23.622,-16.462,-5.859,2.282,-18.4,0.337,-4.195,-1.542
-19.522,-17.092,-3.127,3.565,-9.784,3.052,-3.962,-3.223
-17.273,-16.56,-2.86,3.916,-1.791,4.721,-4.901,-4.663
-20.047,-15.728,-1.214,4.941,-2.487,4.621,-4.124,-2.538
-20.569,-11.995,3.85,9.089,-3.272,6.225,-1.015,2.875
-14.233,-5.351,7.036,12.391,3.001,8.623,1.52,6.826
-8.87,-2.948,3.772,9.412,8.612,7.808,1.618,5.182
-10.176,-6.497,-0.402,4.924,7.485,6.629,1.139,1.723
-11.743,-7.204,0.482,5.75,5.35,9.433,2.122,3.32
-9.702,-3.422,0.911,6.017,4.33,9.313,1.168,5.272
-10.45,-4.224,-5.964,-1.559,-1.577,-0.543,-5.555,-1.975
-15.262,-10.198,-14.743,-10.093,-11.443,-10.409,-13.42,-13.034
-16.318,-12.05,-16.302,-10.888,-16.225,-9.969,-15.553,-15.367
-11.989,-7.948,-11.514,-7.266,-11.754,-4.605,-12.195,-9.244
-8.479,-4.587,-6.949,-4.615,-3.818,-0.816,-7.26,-3.582
-7.827,-3.864,-4.887,-1.82,-1.273,3.027,-3.666,-1.507
-6.241,-1.423,-3.017,1.825,-4.06,6.466,-2.722,-0.403
-1.87,3.798,0.263,3.83,-3.911,5.834,-3.024,0.403
2.062,7.954,3.312,4.663,1.605,3.443,-2.358,-0.219
2.856,9.004,5.211,8.16,7.671,6.151,-0.194,-0.379
2.169,8.596,7.305,13.343,10.901,12.283,2.462,2.142
0.713,8.242,8.248,13.958,9.32,11.531,2.739,4.452
-2.672,6.504,5.554,9.405,3.459,2.567,-1.291,2.536
-6.375,0.518,0.503,5.077,-1.383,-5.176,-6.703,-2.725
-8.972,-7.674,-4.687,2.686,-3.056,-6.821,-9.023,-7.22
-9.864,-10.668,-7.832,1.461,-4.07,-3.341,-7.357,-6.934
-6.882,-5.992,-6.431,2.127,-3.974,3.156,-3.74,-0.771
-2.913,-0.421,-4.129,2.436,-2.835,6.529,-0.854,5.721
-5.353,-1.831,-8.522,-2.743,-6.453,1.236,-1.939,3.934
-12.348,-8.818,-16.83,-11.23,-15.528,-7.296,-7.21,-5.527
-12.375,-10.429,-16.915,-12.8,-18.872,-8.128,-10.457,-10.968
-2.716,-2.487,-7.622,-6.575,-11.865,-2.632,-8.098,-7.221
5.997,5.309,-1.649,-2.436,-6.198,-0.522,-5.048,-2.852
8.176,7.222,-3.583,-0.521,-8.227,0.116,-3.845,-2.814
8.11,7.882,-4.819,5.285,-9.762,4.716,-1.672,-2.051
6.126,7.895,-2.394,10.124,-6.638,7.384,-0.453,0.596
-0.619,3.381,-2.502,7.879,-5.32,4.759,-4.093,-0.147
-8.29,-3.345,-6.113,3.035,-7.889,2.527,-8.536,-4.273
-11.934,-7.713,-8.371,-0.151,-7.99,1.607,-8.072,-6.354
-11.503,-9.261,-7.628,-3.043,-4.135,-0.679,-5.048,-5.674
-8.273,-8.097,-4.51,-4.258,-1.695,-1.523,-3.36,-4.872
-5.046,-5.185,-0.179,-1.881,-2.666,0.751,-1.601,-3.793
-3.836,-2.073,2.742,0.597,-3.616,2.225,0.703,-2.396
-2.193,2.478,2.51,0.035,-2.325,1.038,0.037,-1.976
-0.039,6.969,-1.923,-2.429,-2.367,-0.57,-3.948,-1.333
-1.231,6.263,-10.172,-4.788,-7.581,-1.154,-7.264,0.021
-4.394,2.711,-16.615,-4.976,-13.949,-0.511,-7.964,-1.937
-3.757,5.382,-16.088,-1.341,-15.177,2.063,-6.983,-7.959
-0.003,13.38,-12.822,3.141,-13.64,5.349,-6.197,-12.554
0.037,14.344,-14.306,2.547,-16.246,4.901,-8.366,-14.531
-3.323,6.586,-18.613,-2.958,-21.653,-1.608,-13.714,-18.209
-0.881,5.159,-17.206,-5.232,-21.364,-7.963,-17.062,-21.306
8.485,15.26,-10.134,0.253,-14.173,-5.22,-13.991,-16.362
13.829,21.62,-6.047,5.986,-8.209,3.538,-7.71,-5.478
11.204,16.774,-5.94,4.485,-7.652,7.381,-3.884,1.532
9.457,13.775,-3.509,0.402,-9.823,5.566,-3.198,0.612
13.14,19.892,-0.114,0.29,-11.826,4.95,-3.939,-3.835
15.509,24.604,-1.5,2.049,-10.858,6.02,-4.417,-4.375
10.706,20.41,-6.433,0.063,-6.566,3.623,-3.064,-1.515
3.527,14.594,-9.761,-5.389,-2.657,-2.346,-0.452,-2.859
3.725,16.022,-7.568,-6.175,0.758,-3.939,3.271,-5.279
9.976,19.95,-2.357,-0.339,3.214,0.865,5.661,-2.347
10.047,15.296,-3.263,1.219,-1.737,2.003,-0.181,-0.979
2.502,4.789,-10.608,-6.15,-11.786,-5.277,-11.724,-6.828
-0.661,1.162,-14.182,-13.283,-14.92,-13.631,-16.771,-14.246
5.296,6.952,-11.341,-13.298,-10.004,-15.782,-14.526,-17.141
12.082,14.021,-9.268,-9.292,-7.394,-11.893,-15.695,-16.092
11.511,16.236,-11.27,-7.057,-10.833,-7.955,-20.864,-16.288
6.28,15.443,-13.383,-7.112,-14.197,-7.658,-21.879,-19.241
5.951,18.815,-11.998,-5.362,-12.585,-7.212,-18.638,-18.089
13.352,28.361,-7.414,-0.091,-6.623,-2.469,-14.161,-8.488
21.332,36.133,-2.629,5.235,-0.658,3.474,-8.633,-1.521
24.112,36.772,-0.386,7.676,0.894,5.873,-6.267,-7.409
25.175,36.419,1.009,10.546,0.513,7.923,-8.753,-13.529
28.651,39.86,3.644,16.41,3.117,13.679,-10.049,-7.577
29.981,40.815,4.285,19.117,5.414,16.722,-8.577,-1.508
26.79,36.025,2.428,14.64,3.935,11.758,-7.388,-5.419
26.994,33.273,3.759,9.732,3.336,6.328,-5.824,-10.091
34.66,37.059,8.443,10.228,5.774,7.277,-4.122,-8.661
43.668,43.127,10.829,13.899,7.246,10.895,-4.437,-5.757
48.39,47.185,10.228,17.121,5.759,12.916,-4.799,-4.087
49.2,48.296,9.914,18.938,2.226,14.771,-1.698,-0.306
50.477,49.344,11.609,20.803,-0.2,18.588,4.648,6.87
54.199,52.459,14.001,23.065,2.659,22.006,9.539,12.238
55.49,52.542,13.504,22.2,8.439,20.599,7.861,11.511
51.516,46.517,10.931,18.155,11.711,16.498,3.237,9.554
47.986,40.916,11.661,16.155,13.95,15.604,3.941,11.592
48.447,39.848,14.566,15.285,16.482,14.921,6.797,11.955
48.809,40.276,13.664,10.87,15.257,8.857,3.944,4.987
46.931,40.889,10.616,6.385,11.471,3.183,-0.161,-2.976
43.397,40.231,10.081,5.495,10.758,3.7,1.208,-4.801
36.939,35.062,9.611,4.132,12.24,5.352,4.62,-1.89
30.875,29.53,7.882,1.797,12.33,5.181,6.891,3.386
31.027,30.813,9.51,2.823,12.11,6.091,10.322,9.754
33.941,35.811,14.211,5.651,13.247,7.57,14.046,13.328
31.785,35.84,15.649,6.411,14.32,8.297,14.728,13.061
25.014,30.375,11.855,6.108,13.39,9.532,12.703,13.024
19.211,25.188,6.797,5.786,9.583,10.3,9.023,13.4
16.171,21.845,4.356,4.627,3.707,9.201,4.09,10.248
15.536,19.937,5.684,5.156,-0.961,9.578,0.431,5.585
17.183,21.182,8.628,9.767,-2.009,14.036,-0.948,4.826
18.488,23.255,8.529,13.301,-1.26,17.384,-2.218,6.158
17.975,22.49,4.792,10.568,-0.61,14.882,-3.082,4.949
20.104,22.921,3.848,6.933,1.654,12.289,-0.854,3.849
27.638,28.39,8.197,7.742,5.37,14.37,2.733,5.867
35.986,34.492,11.812,8.229,7.328,15.146,3.311,7.18
41.583,38.327,12.797,6.182,8.922,12.36,2.438,7.087
46.751,42.815,15.74,6.97,13.307,12.573,4.544,8.701
53.321,48.652,20.464,11.23,17.178,16.744,8.431,9.212
57.597,51.892,21.394,12.108,15.583,17.098,9.124,5.295
55.082,49.511,15.929,3.686,8.825,7.416,3.688,-1.788
49.022,44.126,8.639,-10.528,1.875,-7.765,-4.251,-9.549
46.582,40.612,6.5,-18.91,-0.194,-16.506,-7.097,-13.057
47.207,40.031,9.879,-15.975,0.018,-14.862,-4.798,-9.747
45.286,40.086,14.406,-7.587,-4.796,-8.588,-3.681,-4.522
40.573,38.88,18.691,0.497,-11.093,-0.263,-4.26,-1.197
35.969,36.524,20.662,8.053,-8.076,10.696,-2.825,1.644
29.684,32.652,16.544,13.985,1.707,19.56,0.035,3.864
18.977,26.357,10.532,14.956,6.739,20.607,1.165,2.945
7.646,19.85,9.351,11.374,5.913,16.432,0.648,-0.157
0.889,14.558,9.451,7.412,4.976,13.803,1.035,-1.375
-2.494,7.942,5.732,5.174,4.09,13.441,2.427,0.278
-5.991,0.652,0.694,2.917,-0.081,11.372,1.315,1.536
-8.204,-2.146,-3.742,-1.311,-6.65,6.996,-3.884,0.433
-6.609,0.323,-9.618,-7.016,-11.226,2.327,-9.255,-1.548
-4.295,2.614,-16.388,-12.529,-13.153,-3.032,-11.359,-4.3
-3.435,2.56,-18.895,-15.781,-14.53,-8.42,-11.249,-8.423
-1.295,3.337,-15.122,-15.909,-14.727,-10.057,-10.554,-10.093
0.052,3.981,-11.91,-15.988,-13.466,-8.286,-9.943,-6.862
-3.968,0.494,-14.772,-18.498,-12.467,-7.76,-9.611,-3.637
-9.522,-4.213,-18.495,-19.92,-11.382,-8.611,-8.229,-3.643
-10.77,-4.45,-17.513,-17.445,-9.667,-7.493,-5.735,-3.639
-9.346,-2.378,-15.346,-15.566,-9.584,-5.784,-5.528,-2.972
-8.233,-2.514,-15.924,-17.469,-11.232,-6.402,-7.994,-3.972
-5.269,-0.998,-16.873,-18.199,-10.983,-7.003,-8.33,-5.099
2.661,7.347,-15.202,-14.026,-8.353,-5.08,-5.544,-4.7
14.306,17.682,-10.963,-9.088,-6.624,-3.083,-3.544,-4.053
23.703,21.648,-6.188,-7.374,-6.888,-2.813,-3.2,-2.902
25.571,19.046,-3.461,-6.474,-7.323,-1.773,-2.407,-0.448
22.365,16.812,-2.783,-3.979,-6.321,0.66,-0.84,1.331
20.028,18.883,-2.112,-3.359,-4.731,-0.089,0.091,0.912
19.009,21.453,-0.289,-6.537,-3.907,-4.905,0.664,0.483
18.732,21.763,4.038,-8.306,-1.536,-7.066,3.037,2.864
20.922,22.142,10.149,-6.435,3.777,-4.404,6.08,6.853
22.217,21.687,12.861,-5.478,7.268,-2.657,6.176,8.583
17.89,18.65,10.324,-5.41,5.787,-2.679,4.366,6.842
12.289,18.23,8.413,-0.1,1.794,1.498,3.897,4.217
11.72,24.098,11.675,10.522,-5.141,9.925,3.496,2.772
12.036,27.554,15.612,16.344,-15.583,12.803,0.747,0.496
4.782,16.41,12.303,9.653,-20.878,3.986,-3.115,-4.779
-8.945,-5.607,2.668,-2.843,-17.098,-8.906,-7.362,-10.81
-19.571,-20.652,-3.657,-8.379,-15.631,-13.893,-13.034,-14.552
-23.94,-22.433,-4.36,-5.112,-22.021,-8.683,-16.723,-16.09
-29.085,-22.794,-6.84,-2.197,-27.358,-1.319,-14.691,-17.413
-36.534,-28.613,-11.505,-5.292,-28.021,0.827,-11.013,-18.547
-38.24,-33.01,-13.113,-9.837,-29.031,-1.018,-10.272,-16.652
-32.937,-30.909,-15.41,-9.813,-30.14,-1.551,-10.356,-12.176
-30.156,-27.151,-23.638,-8.336,-28.511,-1.114,-10.436,-11.153
-34.714,-28.657,-32.561,-13.494,-27.578,-5.83,-14.213,-16.164
-38.853,-33.858,-34.519,-22.353,-30.135,-14.134,-19.809,-20.543
-36.536,-35.394,-29.664,-22.694,-32.435,-14.693,-20.73,-18.6
-34.811,-34.087,-24.158,-14.275,-30.523,-6.064,-17.337,-14.265
-38.843,-36.256,-20.79,-7.382,-23.747,1.12,-13.848,-11.774
-42.782,-40.782,-16.842,-4.39,-14.518,2.954,-10.273,-8.993
-44.409,-43.527,-12.661,-2.637,-8.754,3.158,-6.595,-5.249
-47.213,-44.345,-11.071,-3.295,-9.156,2.8,-5.986,-4.101
-49.857,-43.486,-10.087,-7.171,-10.097,0.441,-8.506,-6.134
-50.109,-40.365,-6.534,-10.957,-6.124,-3.125,-9.184,-6.798
-50.282,-36.919,-2.162,-10.594,-0.145,-4.117,-6.089,-3.225
-51.868,-37.342,-0.926,-6.902,1.42,-1.509,-3.704,1.2
-52.588,-41.416,-3.393,-4.815,-2.275,0.483,-4.898,2.307
-51.071,-43.775,-6.518,-6.563,-5.942,-1.179,-6.509,0.859
-49.876,-43.91,-8.22,-11.246,-5.996,-6.394,-6.043,-1.047
-49.945,-45.336,-9.504,-16.889,-4.832,-13.306,-4.961,-2.804
-46.042,-44.112,-11.314,-17.989,-5.641,-15.582,-3.76,-2.502
-37.018,-36.266,-13.545,-13.424,-9.067,-11.24,-3.018,-0.719
-33.816,-31.501,-18.035,-14.649,-16.381,-11.464,-6.714,-3.61
-42.742,-38.936,-26.096,-28.136,-27.087,-22.546,-15.082,-11.646
-52.057,-49.655,-34.442,-41.516,-35.669,-33.419,-21.21,-16.296
-50.612,-50.361,-38.771,-41.597,-39.121,-32.865,-20.621,-14.28
-45.395,-43.877,-38.997,-32.295,-41.149,-24.09,-17.073,-10.872
-46.928,-42.226,-39.201,-25.221,-44.172,-17.587,-15.856,-8.947
-51.438,-45.891,-41.077,-21.274,-44.356,-15.603,-15.805,-6.475
-50.736,-46.318,-40.391,-14.065,-38.309,-12.453,-13.424,-3.583
-47.542,-43.869,-35.584,-5.924,-30.352,-8.279,-10.911,-3.106
-48.242,-44.93,-32.376,-3.711,-26.85,-7.395,-11.408,-4.536
-50.648,-47.373,-33.2,-5.095,-26.803,-7.182,-12.597,-5.427
-49.201,-44.518,-32.629,-3.975,-26.362,-3.039,-12.566,-6.201
-44.829,-37.709,-29.363,-1.746,-26.015,1.777,-12.881,-7.43
-42.32,-33.761,-28.652,-2.066,-25.606,2.174,-13.231,-7.995
-43.398,-34.828,-29.681,-4.286,-22.499,-1.515,-12.398,-8.493
-45.468,-37.256,-27.473,-7.807,-18.035,-7.289,-11.709,-9.793
-43.389,-36.971,-23.553,-11.107,-14.91,-11.667,-11.914,-9.282
-35.391,-32.626,-20.784,-8.013,-11.591,-8.763,-10.873,-4.192
-27.698,-25.611,-17.956,2.833,-7.383,1.227,-6.982,3.557
-27.154,-20.877,-15.744,10.613,-5.349,7.784,-3.051,8.356
-31.464,-22.816,-16.44,6.226,-6.422,2.592,-2.314,6.645
-32.925,-27.245,-19.074,-3.859,-8.38,-8.162,-2.851,1.699
-29.324,-26.646,-21.663,-8.842,-10.083,-13.011,-2.845,-1.304
-25.05,-21.231,-22.902,-9.164,-10.777,-11.037,-4.488,-3.408
-22.902,-16.13,-21.181,-10.479,-9.664,-8.86,-7.013,-6.737
-22.646,-14.609,-17.483,-12.861,-8.919,-9.402,-6.326,-7.704
-24.458,-16.591,-14.784,-13.527,-9.688,-11.006,-2.216,-3.452
-25.009,-17.169,-11.421,-10.993,-7.306,-10.657,3.338,3.459
-20.943,-12.687,-4.651,-5.857,-0.319,-7.301,8.392,7.932
-17.145,-7.91,1.906,-0.594,4.507,-3.288,9.363,8.291
-16.91,-7.151,4.685,5.398,4.914,1.687,7.12,10.189
-17.222,-8.886,3.666,12.754,5.787,8.489,6.694,13.984
-19.592,-12.828,-0.821,14.776,7.516,10.916,7.29,10.362
-25.01,-16.914,-3.701,9.586,9.211,7.531,6.389,3.029
-27.088,-16.027,-0.01,7.696,14.205,8.208,6.416,5.621
-26.217,-14.915,3.334,11.736,19.816,14.529,7.483,13.29
-30.264,-22.566,-0.65,11.198,19.591,16.275,6.643,12.43
-36.441,-32.528,-3.769,4.85,16.449,11.678,5.359,4.983
-36.129,-32.69,1.738,3.201,16.374,9.745,7.024,0.131
-30.79,-25.546,8.669,9.546,18.875,15.201,10.226,-0.253
-26.507,-20.055,9.97,15.949,20.498,22.202,10.77,1.068
-24.833,-17.288,8.516,14.324,17.613,20.919,8.002,3.005
-24.65,-14.674,5.63,6.203,9.178,11.607,3.893,4.964
-24.56,-12.626,-0.516,1.236,0.684,6.81,-0.125,4.744
-23.444,-12.013,-6.135,3.255,-0.623,10.829,-1.433,1.804
-20.78,-11.769,-6.397,6.47,5.664,13.962,1.315,-0.719
-16.343,-10.054,-1.669,8.67,11.349,13.534,4.904,1.786
-10.959,-5.951,5.465,13.439,8.299,16.444,6.64,11.168
-7.256,-1.889,10.661,18.279,1.16,20.461,6.956,20.808
-6.642,-1.022,9.287,15.242,1.594,15.128,6.354,18.522
-6.108,0.055,3.061,6.669,9.487,3.457,6.256,5.398
-5.053,4.856,-1.73,4.977,15.208,1.761,7.597,-1.22
-9.331,6.329,-4.068,10.917,14.538,11.025,6.633,3.512
-18.199,-0.156,-6.411,12.932,10.416,15.198,2.013,6.267
-22.069,-6.718,-6.227,8.799,7.152,10.077,0.236,3.529
-18.47,-7.707,-0.075,7.208,7.88,7.016,4.183,4.254
-12.894,-4.978,9.696,13.479,13.974,12.714,7.881,8.885
-8.702,-0.505,16.793,23.333,21.436,20.853,7.039,9.218
-6.935,2.981,16.794,27.517,21.604,21.965,3.515,4.463
-7.858,2.596,12.065,22.61,13.046,15.672,1.33,2.5
-9.92,-0.718,8.849,15.261,5.611,9.18,2.569,6.321
-10.495,-2.711,9.819,14.138,7.453,8.356,4.965,9.991
-8.713,-1.118,11.754,18.378,14.161,12.012,5.16,7.799
-7.802,-0.466,10.041,17.079,15.34,11.934,2.439,1.327
-9.303,-3.835,6.07,7.434,11.858,5.394,0.411,-0.908
-8.375,-4.412,6.162,2.269,13.592,2.074,3.804,5.67
-4.258,0.682,9.951,5.796,17.125,5.167,7.682,9.829
-3.273,3.449,10.969,6.909,11.043,5.816,5.031,2.2
-4.644,2.734,11.091,7.58,1.512,7.451,4.488,-0.246
-3.776,3.022,13.886,17.028,0.666,18.412,11.381,14.036
-5.439,-0.494,9.987,20.8,2.631,22.457,9.594,16.785
-12.562,-8.74,-5.171,5.19,-0.83,5.483,-6.788,-8.197
-16.735,-10.933,-16.685,-10.177,-3.14,-10.674,-18.686,-27.501
-13.59,-5.438,-14.229,-6.619,0.721,-6.148,-16.737,-19.773
-10.514,-2.845,-7.65,3.022,2.61,4.529,-11.488,-6.51
-11.88,-5.642,-5.821,3.74,-3.45,5.579,-8.046,-2.389
-12.709,-6.717,-5.326,0.683,-9.799,2.325,-2.531,1.514
-11.003,-5.027,-5.315,0.048,-8.061,-0.284,2.778,8.097
-10.89,-5.185,-7.982,-1.569,-4.318,-5.523,1.607,8.64
-13.283,-6.471,-10.015,-4.598,-8.183,-10.745,-4.231,0.21
-14.837,-5.435,-9.721,-4.778,-13.201,-9.542,-6.241,-6.819
-13.829,-2.998,-8.697,-2.417,-8.568,-3.276,-1.569,-1.78
-11.895,-2.008,-7.3,-2.214,-0.664,0.546,1.447,6.057
-11.002,-2.819,-7.713,-6.13,0.07,-2.527,-4.034,-0.449
-10.005,-2.683,-10.072,-9.068,-2.35,-7.465,-11.06,-15.997
-5.913,0.803,-9.182,-5.039,-1.435,-5.395,-11.132,-21.416
0.861,4.979,-4.331,3.349,1.498,3.438,-5.312,-10.749
5.334,5.072,-0.83,9.179,5.242,10.704,3.592,6.325
3.659,1.202,-0.73,9.521,8.856,10.944,10.469,14.131
-1.677,-2.079,-1.807,5.37,9.358,5.528,7.608,6.076
-4.776,-1.035,-2.878,1.131,6.684,0.62,-1.359,-3.571
-4.042,3.494,-5.496,0.85,1.29,-0.006,-6.392,-1.545
-2.589,7.035,-9.158,2.993,-5.909,0.845,-7.626,3.21
-0.782,8.678,-7.849,5.524,-7.915,1.639,-8.628,2.356
3.616,11.872,0.774,8.979,-2.808,3.641,-7.579,0.42
7.847,15.311,9.238,12.018,-0.797,4.458,-3.007,-2.041
7.143,14.003,10.917,12.427,-4.764,1.946,2.396,-6.257
2.443,8.227,5.101,8.475,-5.106,-2.615,3.248,-10.333
-1.187,3.416,-4.702,1.332,1.659,-6.118,-1.037,-12.406
-0.039,4.6,-8.663,0.014,9.559,-1.989,-3.462,-4.929
3.935,10.726,-1.119,10.107,13.568,11.62,0.917,14.289
5.718,14.915,10.571,21.908,14.2,24.142,10.721,28.536
5.516,14.331,18.743,25.026,14.034,26.587,22.222,26.858
7.796,13.651,23.133,21.891,13.702,22.534,31.421,21.48
12.143,15.052,21.387,16.241,13.379,15.824,29.47,17.318
12.688,13.965,9.374,6.055,11.478,4.123,8.409,1.512
8.054,8.769,-4.821,-4.004,7.386,-7.002,-13.961,-17.896
4.626,5.02,-7.125,-3.658,7.262,-5.57,-7.941,-13.66
7.22,6.565,0.184,3.979,11.644,4.266,17.373,9.35
12.992,10.563,3.503,6.077,10.312,6.757,25.811,19.92
16.259,12.611,0.584,1.518,2.867,1.257,12.662,13.485
14.785,11.415,-2.104,-2.167,-0.687,-2.368,-1.191,6.107
10.756,8.605,-5.131,-4.263,-0.666,-4.215,-13.378,-1.126
8.03,6.711,-10.032,-6.703,-1.618,-7.87,-25.407,-10.501
7.697,6.57,-11.726,-8.503,-1.044,-11.746,-23.992,-16.485
7.795,7.789,-9.385,-9.355,-0.412,-14.187,-11.68,-17.465
9.802,12.184,-5.93,-7.155,-2.965,-11.886,-5.304,-13.014
16.501,19.277,0.775,-1.06,-3.668,-4.311,-5.707,-5.153
22.002,21.022,8.584,1.768,-0.106,-0.846,-5.479,-1.14
19.551,13.805,9.891,-2.32,0.586,-5.661,-3.533,0.063
15.032,7.509,8.371,-4.156,-4.348,-7.905,1.841,6.903
15.39,9.492,9.802,1.396,-6.708,-2.764,9.431,14.276
15.512,12.901,4.979,4.95,-2.78,-1.713,8.492,5.749
10.991,11.206,-8.136,2.066,-0.677,-7.794,-1.29,-11.618
6.949,8.349,-13.316,1.309,-5.109,-7.99,-3.053,-9.806
7.576,8.936,-5.564,5.763,-7.808,1.706,7.431,9.267
12.618,12.452,2.718,7.952,-1.717,9.425,13.64,14.736
19.888,16.143,4.924,2.226,3.788,5.418,7.191,0.829
24.475,17.337,4.842,-6.09,-0.125,-4.005,-0.552,-8.567
25.966,18.64,6.527,-3.171,-0.817,-1.655,2.339,-1.623
30.715,25.59,11.857,13.425,12.829,15.197,13.353,10.288
38.658,34.334,19.999,24.855,26.712,25.28,21.088,16.332
41.128,35.074,23.693,18.221,25.509,16.59,19.925,18.07
35.332,28.413,18.534,6.528,17.323,6.437,16.14,18.885
28.374,23.787,13.082,4.504,16.226,8.138,18.513,18.996
24.804,23.112,12.602,7.256,19.037,11.438,24.134,18.505
21.869,20.385,10.372,6.054,16.139,9.253,21.911,16.356
19.379,16.701,6.154,4.136,10.48,8.798,13.528,12.623
20.375,18.297,5.639,4.778,10.916,10.427,11.089,7.728
22.812,22.239,4.479,1.865,15.525,4.562,11.841,0.149
23.851,21.614,-1.636,-6.452,13.682,-7.992,4.007,-7.115
26.366,18.836,-4.155,-11.21,5.086,-15.258,-6.638,-8.799
31.822,20.638,3.417,-6.012,0.692,-11.311,-5.788,-4.985
33.607,25.113,11.5,3.768,3.495,-1.129,3.833,2.409
26.565,24.96,9.835,7.841,8.604,5.227,10.403,10.522
18.835,21.92,5.335,4.934,14.489,3.399,12.777,13.694
20.888,23.832,9.067,3.829,18.403,1.526,15.289,10.598
27.468,28.353,17.743,6.837,13.948,4.27,15.61,5.789
27.044,26.377,20.1,6.024,3.263,2.537,10.582,3.12
22.034,19.027,13.906,0.464,-0.474,-5.157,5.658,4.935
21.934,14.49,8.477,-1.799,7.846,-6.531,7.018,10.996
25.001,13.123,8.253,-0.014,16.663,-0.485,12.702,15.415
24.56,11.172,7.431,-0.824,16.626,0.22,16.415,11.357
23.483,11.057,4.782,-4.388,12.264,-6.307,12.739,1.185
25.68,14.64,4.311,-6.004,9.311,-10.181,3.342,-5.089
25.602,16.476,4.116,-7.647,5.858,-11.309,-3.985,-6.13
20.797,14.554,1.335,-11.456,1.286,-14.874,-5.688,-7.728
19.195,15.648,1.04,-10.358,0.748,-14.431,-2.939,-5.52
24.306,22.441,8.391,-0.927,5.374,-4.514,2.822,6.028
31.036,29.615,18.627,9.44,10.197,6.849,9.83,18.258
36.106,33.973,23.538,15.237,11.798,11.923,15.703,21.249
38.138,35.232,21.666,15.599,8.729,9.533,16.973,15.155
36.521,33.307,17.716,9.843,2.691,0.153,12.547,4.692
35.184,31.068,17.262,2.982,-1.186,-9.113,6.293,-3.212
36.227,30.323,20.801,2.395,-3.705,-8.944,2.02,-3.86
35.648,28.727,23.23,5.846,-8.749,-1.861,0.857,-0.625
32.395,26.153,22.076,6.709,-11.309,3.688,2.413,2.475
29.097,23.819,17.263,4.123,-4.253,4.258,5.074,5.667
24.986,19.426,8.524,-0.808,8.185,-0.445,6.687,5.684
19.987,12.845,1.779,-7.499,14.856,-7.239,5.13,-2.122
17.152,8.647,1.272,-12.637,12.417,-10.673,0.145,-12.15
16.468,9.033,1.564,-12.535,8.541,-9.302,-4.193,-13.595
16.569,11.407,1.996,-6.788,10.805,-3.801,-1.614,-4.068
20.27,14.13,8.766,2.417,17.689,5.592,8.426,9.695
28.194,17.805,17.727,9.18,21.215,11.99,16.548,15.758
32.3,18.96,17.093,6.244,17.212,5.326,13.352,6.822
29.184,15.601,8.676,-1.805,12.354,-7.282,3.257,-5.263
28.031,15.013,5.743,-2.062,13.889,-8.128,-1.529,-4.113
32.099,20.335,9.708,3.566,16.242,-0.457,0.533,3.807
34.569,25.314,12.798,3.934,13.001,-0.409,2.829,3.631
35.617,28.419,16.146,1.095,9.376,-7.021,4.621,-0.722
38.268,32.008,20.74,0.939,6.697,-10.693,5.452,-1.232
39.221,34.696,19.329,0.249,-1.9,-10.521,-0.446,-3.894
38.89,36.508,12.471,-0.505,-10.226,-6.769,-10.216,-10.871
41.418,38.899,8.52,3.91,-4.954,0.912,-12.969,-13.761
44.164,39.384,7.897,9.507,7.993,6.309,-8.654,-11.585
42.221,35.697,6.746,9.811,13.742,4.896,-4.311,-8.204
37.473,30.5,7.287,8.153,11.187,2.357,0.229,-1.774
36.371,29.179,13.317,11.382,8.044,6.554,6.252,7.676
41.325,34.256,22.198,19.693,10.492,16.245,10.981,16.461
46.673,40.445,27.927,25.553,17.43,20.886,13.998,22.863
45.803,39.755,28.322,23.254,20.588,14.929,15.743,23.557
39.493,32.756,24.94,17.94,17.154,7.332,14.396,15.766
33.047,26.675,20.417,15.74,11.398,5.43,9.606,5.012
29.097,23.405,16.707,12.393,5.44,1.799,2.886,-1.393
26.392,19.338,13.162,4.773,1.46,-6.973,-3.426,-2.538
24.836,15.789,10.546,0.658,3.962,-9.1,-4.655,0.561
28.347,19.156,13.733,5.946,14.254,0.108,3.286,6.704
34.921,26.739,19.759,12.789,24.737,7.27,14.347,8.741
32.98,25.422,16.108,10.057,23.686,2.664,14.771,0.781
21.493,14.456,3.699,1.926,12.891,-4.191,4.203,-8.227
14.269,8.572,-2.884,0.894,6.41,-1.134,-2.702,-7.359
14.883,10.719,-2.25,5.771,7.207,7.013,-0.39,-1.247
13.959,9.946,-3.738,6.596,5.24,8.174,2.152,1.676
10.945,5.851,-6.3,3.291,-2.175,2.171,-0.653,1.659
13.32,7.717,-3.175,3.679,-6.143,-0.599,-2.462,3.183
19.605,14.865,4.053,9.498,-1.744,3.835,2.26,7.813
22.199,18.588,9.447,14.419,6.306,7.274,9.104,12.141
21.235,17.429,12.572,15.253,10.86,4.583,12.593,14.292
20.768,15.305,15.285,14.293,7.223,0.41,10.428,13.099
18.263,11.176,15.145,11.377,0.371,-2.416,3.116,4.411
11.213,3.382,10.174,5.76,1.036,-5.573,-2.822,-5.264
4.869,-3.494,3.22,0.568,7.599,-8.832,-2.57,-3.189
3.471,-5.506,-1.318,-2.257,9.434,-11.25,0.375,3.502
4.164,-4.691,-1.203,-4.026,5.401,-13.488,1.787,0.177
4.482,-3.037,1.909,-4.233,4.732,-14.986,2.438,-6.204
6.357,0.075,5.789,-1.06,11.146,-13.879,4.693,-2.417
11.604,4.344,11.6,5.072,15.33,-8.147,8.165,7.808
18.667,8.563,19.499,13.333,12.426,3.874,11.316,14.795
22.789,10.967,23.287,21.112,13.64,16.922,15.251,15.919
21.246,10.226,19.401,22.23,24.343,20.266,20.972,14.662
17.283,8.371,15.025,15.63,30.738,13.693,23.996,16.384
13.69,7.422,14.676,9.439,24.32,8.484,18.148,19.121
10.482,7.04,13.743,10.332,16.373,10.31,5.773,16.27
11.641,9.891,13.243,15.897,15.985,13.876,-1,10.232
19.753,17.762,18.585,18.104,16.306,11.321,4.107,4.969
25.318,21.716,22.261,10.143,10.626,0.89,9.055,-3.728
18.912,13.524,12.287,-5.512,3.964,-9.956,1.388,-15.416
8.647,3.026,-3.918,-14.895,4.242,-10.953,-9.321,-18.483
7.926,4.271,-6.781,-7.683,10.216,-0.434,-7.335,-6.35
16.239,15.219,7.037,9.9,12.803,12.694,3.952,9.042
24.698,25.305,20.915,26.678,8.764,21.462,11.539,13.002
26.257,26.042,20.384,33.641,1.487,22.246,10.092,6.242
22.388,18.181,12.687,24.913,-4.49,11.565,4.605,-0.195
26.265,17.607,18.462,15.158,-1.018,3.4,7.479,6.781
41.599,31.457,38.836,25.451,9.249,17.052,19.817,26.765
49.613,40.068,48.716,42.722,10.893,36.564,23.998,34.367
37.007,27.242,32.741,36.016,3.984,28.89,11.965,11.029
16.178,5.252,6.721,5.987,1.533,-1.622,-1.633,-19.56
2.352,-8.445,-11.564,-19.145,2.826,-19.359,-6.454,-25.236
-6.807,-15.975,-26.226,-26.454,-2.634,-12.539,-11.86,-16.562
-14.144,-22.978,-38.64,-26.783,-12.8,-4.893,-22.953,-18.631
-12.478,-22.659,-36.967,-26.509,-15.018,-8.711,-28.048,-24.803
-3.283,-13.124,-23.347,-19.767,-9.088,-7.632,-22.269,-20.315
0.391,-6.698,-15.176,-8.989,-7.357,3.72,-16.869,-12.294
-5.184,-10.202,-17.625,-5.414,-11.051,9.531,-18.398,-10.966
-9.278,-14.058,-18.774,-8.101,-8.39,6.171,-18.714,-11.868
-3.886,-8.498,-9.752,-6.406,3.072,4.192,-10.934,-8.495
5.135,1.224,2.803,-0.188,10.67,4.483,-2.225,-3.561
7.293,3.201,6.361,1.373,6.375,1.008,-1.483,-2.34
1.478,-4.007,-0.03,-3.712,-1.563,-4.765,-5.63,-5.818
-4.857,-10.768,-6.7,-8.048,-3.45,-8.004,-8.471,-10.194
-5.917,-10.123,-7.743,-6.207,-1.044,-8.17,-9.68,-10.2
-2.5,-5.671,-4.293,-1.113,1.91,-6.658,-9.489,-6.284
-0.753,-6.023,-1.386,0.125,5.448,-5.612,-7.995,-4.681
-4.241,-12.445,-2.148,-3.736,8.212,-6.254,-6.773,-5.388
-6.548,-15.779,0.055,-4.815,10.071,-4.371,-3.589,1.144
-1.342,-11.243,10.264,0.542,12.735,1.617,3.711,14.44
5.131,-7.498,17.499,2.923,14.408,2.077,9.081,17.242
3.969,-12.517,11.463,-5.307,12.891,-9.428,6.759,2.716
-1.375,-20.612,0.958,-16.599,9.135,-22.544,1.111,-12.761
-1.119,-21.5,-0.98,-20.015,3.391,-25.392,-2.208,-15.251
6.116,-14.226,5.67,-15.242,-2.762,-20.568,-2.901,-8.279
13.458,-5.807,14.731,-7.63,-5.454,-15.536,-0.27,1.608
15.601,-2.108,21.181,-3.151,-7.475,-14.451,3.1,7.512
13.76,-3.139,19.542,-6.397,-11.016,-18.801,0.692,1.565
12.595,-4.663,9.907,-12.106,-7.543,-21.348,-4.257,-8.391
12.993,-4.24,2.806,-11.397,4.379,-14.532,-2.54,-7.513
11.585,-3.627,4.78,-7.119,12.101,-6.104,2.883,-0.069
8.018,-4.195,7.833,-5.018,10.889,-4.354,1.897,0.974
7.274,-3.282,5.59,-1.467,11.142,-3.226,-2.044,-1.036
12.346,1.475,4.613,2.869,18.127,-1.161,1.295,3.325
17.804,5.983,8.477,-0.69,21.004,-6.457,5.72,6.556
16.791,4.739,9.399,-8.323,12.779,-13.649,1.258,-1.312
11.485,-0.111,4.581,-7.593,3.258,-9.325,-3.664,-9.35
8.099,-2.947,1.968,-1.532,0.659,-0.146,1.076,-2.574
6.137,-3.944,4.162,-1.821,1.21,-1.084,8.391,11.559
2.209,-5.591,4.215,-5.884,2.177,-6.633,8.305,14.522
-1.659,-6.62,-0.374,-5.022,6.087,-5.211,5.044,6.621
-4.32,-8.68,-5.237,-5.66,8.846,-5.475,4.554,0.727
-9.195,-16.206,-7.492,-16.059,2.084,-16.248,2.467,-2.049
-13.969,-24.256,-6.002,-24.473,-9.957,-22.601,-0.798,-3.442
-12.33,-23.353,-1.084,-16.886,-13.426,-11.067,3.03,3.585
-5.542,-13.913,4.237,0.511,-3.167,6.855,14.356,20.212
-0.809,-5.289,6.257,12.184,11.534,13.8,23.177,31.883
-4.098,-6.417,1.098,11.511,15.791,8.753,18.297,25.776
-15.375,-17.194,-10.492,3.439,4.045,0.531,0.708,10.371
-26.273,-27.523,-19.104,-4.7,-12.842,-8.52,-13.638,-0.922
-27.134,-28.303,-16.597,-9.049,-18.34,-16.561,-13.488,-7.762
-17.404,-19.854,-5.504,-6.76,-7.574,-13.897,-4.64,-9.323
-7.397,-10.723,3.65,0.244,7.115,-1.575,2.078,-3.77
-7.954,-10.667,2.848,1.714,11.165,3.522,3.705,1.014
-17.634,-20.962,-3.52,-9.048,4.495,-6.512,2.863,-0.25
-25.987,-32.998,-6.716,-23.749,-2.917,-20.526,0.391,-1.566
-25.63,-36.551,-5.712,-27.003,-2.856,-22.685,-0.617,5.821
-16.166,-28.542,-0.1,-15.038,5.807,-9.83,7.47,23.253
-4.237,-16.762,11.589,-0.635,17.078,4.527,23.759,36.751
1.173,-11.68,19.864,1.676,22.914,4.806,32.723,27.253
-3.366,-15.445,10.914,-11.385,16.038,-11.551,16.969,-3.819
-15.082,-23.713,-10.553,-31.352,-2.426,-33.636,-17.169,-30.974
-27.167,-31.719,-23.361,-44.365,-15.671,-46.338,-36.496,-33.727
-32.072,-35.445,-19.005,-42.823,-11.536,-42.914,-26.259,-20.294
-27.42,-32.076,-7.055,-30.069,0.446,-28.492,-7.919,-7.636
-17.705,-23.028,5.521,-13.77,7.334,-11.416,1.692,3.751
-11.368,-16.172,13.98,-4.44,6.391,-1.271,4.59,10.45
-11.798,-16.174,12.765,-8.04,0.029,-4.066,3.469,2.572
-11.686,-16.123,8.823,-13.701,-7.035,-9.429,-0.052,-6.008
-8.961,-14.286,8.056,-13.155,-13.115,-8.213,-5.187,-1.271
-12.99,-20.02,1.567,-15.807,-17.484,-10.095,-10.292,1.493
-20.373,-28.045,-7.941,-21.088,-11.932,-16.102,-5.884,-2.759
-17.914,-24.107,-6.564,-18.347,3.266,-15.613,6.991,-1.561
-12.009,-16.59,-1.866,-15.75,10.065,-14.817,8.5,-0.876
-17.619,-21.83,-9.252,-23.249,0.706,-21.357,-5.241,-7.233
-30.224,-34.362,-20.497,-31.1,-11.238,-26.535,-14.778,-9.4
-34.272,-38.707,-18.833,-30.838,-14.467,-26.559,-12.213,-5.526
-24.427,-30.681,-5.007,-25.797,-9.898,-26.788,-6.502,-4.546
-6.59,-15.028,9.786,-16.203,-1.076,-23.983,-0.931,-3.17
10.765,2.34,19.924,0.24,8.402,-11.116,7.788,7.212
20.072,13.143,23.538,14.636,11.064,5.094,16.545,20.859
19.337,11.741,20.037,14.993,0.807,10.593,16.927,22.605
16.848,6.034,15.776,6.662,-14.382,5.7,8.486,10.79
19.349,7.141,15.729,3.629,-17.323,2.848,2.085,0.719
19.928,11.416,13.894,5.067,-5.509,4.548,4.009,0.496
12.166,10.567,7.479,1.897,4.775,3.063,8.152,4.277
3.966,7.577,4.924,-3.619,4.083,-0.664,9.079,9.199
4.962,8.792,10.287,-3.02,2.933,1.306,9.49,15.764
11.527,12.188,16.429,1.36,8.521,6.212,11.104,17.402
12.222,10.529,15.767,-0.465,9.643,5.69,9.184,8.105
4.819,3.425,9.739,-6.664,0.527,3.279,3.347,-3.101
0.07,0.919,8.07,-4.55,-6.041,6.053,2.16,-3.266
3.85,7.507,14.813,5.232,-2.166,9.196,8.773,3.272
6.845,11.537,18.696,7.054,2.335,6.003,14.759,5.218
0.17,3.262,9.874,-2.803,-1.537,-0.201,11.848,2.376
-12.046,-9.979,-2.531,-11.262,-9.631,-4.189,1.815,-1.55
-23.041,-18.628,-6.427,-13.177,-15.927,-7.489,-7.534,-6.885
-31.389,-22.938,-6.101,-14.836,-19.169,-10.804,-11.45,-11.491
-35.288,-24.301,-8.47,-15.796,-19.004,-8.185,-9.996,-9.613
-33.881,-23.45,-9.36,-12.511,-19.211,0.505,-6.286,-0.817
-30.484,-23.167,-5.013,-8.768,-23.294,6.301,-2.21,9.32
-29.402,-25.224,-1.883,-11.552,-25.011,2.74,1.124,11.653
-36.238,-32.334,-8.969,-25.797,-21.741,-12.01,-2.795,-2.098
-50.137,-43.094,-21.286,-43.265,-20.977,-29.224,-13.531,-20.326
-57.142,-46.987,-21.635,-46.315,-22.316,-32.91,-16.919,-22.979
-48.809,-39.809,-7.561,-35.733,-19.927,-25.002,-10.245,-17.838
-35.908,-30.85,3.902,-26.025,-18.453,-18.934,-7.719,-20.354
-33.832,-29.419,0.882,-20.348,-24.672,-15.704,-15.364,-25.102
-44.407,-35.95,-11.972,-17.534,-33.054,-13.914,-24.782,-27.684
-53.544,-41.907,-19.62,-18.703,-30.585,-16.16,-25.343,-27.99
-50.135,-39.364,-14.028,-19.149,-16.103,-17.354,-15.466,-20.336
-43.854,-34.086,-7.431,-16.859,-5.996,-13.394,-6.889,-10.606
-48.245,-36.565,-12.133,-17.608,-10.491,-11.334,-9.651,-11.088
-56.819,-42.94,-19.398,-20.458,-18.653,-13.88,-17.177,-16.748
-55.511,-41.864,-17.463,-18.023,-18.578,-12.815,-18.063,-15.269
-45.937,-34.518,-11.097,-12.96,-15.025,-7.449,-12.519,-8.987
-39.382,-30.82,-9.091,-13.658,-16.605,-6.8,-7.853,-7.045
-36.288,-30.139,-7.189,-15.59,-17.849,-8.304,-5.377,-6.49
-27.697,-23.193,3.635,-7.812,-8.883,-1.107,-0.769,0.974
-18.034,-14.406,14.805,1.926,-0.146,6.972,1.86,7.981
-23.295,-19.201,7.345,-4.463,-9.38,-0.985,-7.175,-0.171
-38.649,-33.073,-14,-20.307,-25.156,-15.857,-21.092,-17.05
-41.495,-34.949,-24.061,-22.134,-24.807,-14.726,-23.231,-22.548
-27.42,-20.598,-13.063,-5.896,-14.442,1.875,-12.361,-12.8
-11.165,-3.776,5.516,13.471,-10.272,17.329,0.198,-0.535
-6.302,1.545,11.548,18.788,-9.972,20.052,3.908,2.077
-17.608,-10.758,-2.821,1.253,-10.481,4.346,-6.641,-8.82
-35.968,-31.591,-23.36,-25.219,-19.421,-19.87,-25.926,-27.26
-46.278,-43.79,-33.419,-36.329,-33.054,-30.541,-39.335,-40.937
-43.138,-39.897,-31.601,-26.636,-33.275,-21.235,-36.328,-40.385
-30.211,-24.522,-20.553,-7.585,-16.141,-3.382,-20.371,-26.745
-17.891,-10.363,-6.57,6.989,-0.869,9.578,-7.018,-12.604
-18.132,-9.671,-3.037,7.19,-2.582,9.88,-7.518,-10.012
-28.747,-19.474,-11.386,-3.774,-14.582,1.037,-16.781,-15.604
-36.286,-26.012,-18.897,-11.39,-24.606,-5.295,-24.44,-18.32
-33.946,-22.7,-17.566,-6.669,-28.683,-0.837,-25.873,-15.488
-26.518,-14.806,-9.994,4.182,-24.643,10.106,-19.168,-9.135
-22.268,-10.458,-3.607,9.422,-10.448,14.953,-5.964,-0.716
-24.104,-12.462,-3.3,4.603,5.53,8.233,4.036,2.344
-29.308,-18.704,-7.118,-6.7,6.596,-3.581,0.507,-6.852
-29.558,-20.19,-3.746,-8.743,-4.584,-3.93,-8.065,-14.111
-17.921,-8.301,13.611,11.678,-3.209,16.399,-1.198,-0.643
-10.913,-0.05,20.577,26.299,8.007,29.418,10.61,11.91
-31.015,-20.084,-9.496,-0.616,-2.025,4.645,-3.437,-9.385
-60.243,-50.686,-51.034,-41.28,-26.369,-31.615,-31.38,-42.273
-64.758,-56.293,-61.626,-48.351,-29.506,-38.139,-37.729,-47.44
-48.017,-40.048,-44.792,-29.155,-14.674,-21.502,-26.662,-33.162
-30.591,-23.764,-25.815,-11.71,-8.218,-6.105,-19.299,-21.185
-17.343,-11.212,-12.507,0.088,-10.021,3.682,-14.4,-10.763
-11.742,-3.59,-9.033,5.281,-8.242,6.254,-9.907,-4.448
-20.213,-9.259,-20.566,-3.692,-5.441,-4.077,-13.262,-11
-34.195,-23.478,-33.862,-18.262,-6.344,-17.476,-20.04,-20.106
-38.582,-30.341,-30.792,-20.324,-7.385,-17.55,-18.3,-15.656
-34.289,-27.235,-17.829,-11.092,-6.084,-7.458,-10.043,-3.817
-30.542,-23.189,-11.836,-5.213,-3.66,-1.228,-6.072,0.46
-27.558,-20.207,-13.142,-5.537,-0.729,-1.691,-8.101,-2.285
-23.711,-15.716,-16.089,-5.207,0.532,-3.647,-10.09,-3.257
-22.457,-11.766,-21.009,-2.313,-2.698,-3.564,-9.82,-0.841
-24.107,-10.679,-25.883,-0.507,-8.933,-1.242,-9.803,0.562
-24.729,-10.874,-27.197,-2.819,-14.104,-0.79,-9.787,-0.045
-23.58,-11.012,-27.11,-8.06,-16.433,-5.238,-8.404,-0.708
-23.747,-12.753,-29.294,-11.951,-18.639,-10.614,-9.367,-3.082
-24.565,-15.299,-29.889,-10.538,-23.379,-11.117,-13.382,-6.626
-21.594,-14.329,-21.452,-4.1,-25.781,-6.861,-13.037,-5.386
-16.042,-10.568,-7.037,1.63,-20.333,-3.052,-4.968,1.624
-9.856,-5.572,5.02,7.811,-8.937,4.046,7.452,11.269
-0.66,3.093,13.787,21.779,5.05,23.047,20.715,22.416
2.317,5.693,14.659,29.263,12.274,35.041,25.239,27.393
-14.179,-11.659,-2.098,10.001,0.034,14.324,11.401,15.751
-36.254,-34.336,-26.831,-16.131,-19.035,-15.393,-8.475,-3.811
-39.224,-36.632,-36.404,-18.097,-18.233,-16.121,-13.289,-11.537
-28.418,-24.237,-29.335,-7.117,-4.496,-1.536,-6.703,-7.883
-24.908,-18.895,-23.598,-7.886,-5.991,-1.518,-6.066,-7.071
-29.096,-21.294,-26.636,-14.956,-22.284,-8.271,-11.155,-9.454
-29.85,-20.196,-32.369,-14.651,-31.417,-5.736,-12.523,-7.54
-27.918,-15.829,-37.167,-12.079,-28.844,-2.906,-12.861,-2.868
-28.304,-13.76,-41.584,-14.098,-26.53,-8.596,-17.252,0.861
-25.185,-10.061,-40.157,-11.651,-25.304,-10.202,-17.633,7.023
-10.754,2.651,-25.858,4.632,-14.507,2.997,-5.322,16.322
5.47,16.576,-8.328,22.414,1.047,17.191,9.194,16.759
6.53,15.784,-4.56,21.627,2.793,14.201,10.292,1.781
-3.712,3.567,-11.502,4.241,-10.67,-3.023,2.764,-14.074
-10.318,-4.796,-16.117,-11.323,-24.232,-19.006,-2.984,-18.391
-12.341,-6.769,-17.835,-13.861,-25.657,-20.587,-7.862,-14.657
-14.285,-7.122,-18.786,-7.201,-11.118,-7.776,-9.209,-7.507
-16.598,-8.283,-16.419,-3.567,4.219,2.279,-5.317,-2.832
-19.067,-11.34,-12.781,-6.553,0.498,0.465,-5.59,-6.905
-16.072,-11.341,-10.432,-5.161,-8.741,0.626,-8.015,-10.309
-3.195,-3.019,-6.017,6.042,1.256,11.292,0.195,-0.324
8.965,5.314,-1.052,14.303,18.218,17.788,12.268,13.427
8.813,2.608,-2.986,8.929,17.893,8.2,12.465,14.438
3.03,-5.021,-8.907,-0.2,8.215,-4.864,6.845,6.935
3.425,-4.803,-8.785,0.966,7.916,-4.535,9.556,5.131
7.688,1.567,-3.258,9.004,12.672,4.548,15.637,10.435
9.426,6.296,0.782,14.505,11.79,9.789,14.835,16.904
11.881,11.547,2.788,20.28,10.295,14.635,12.67,23.717
13.12,15.762,0.318,25.156,9.928,21.399,11.546,24.22
3.299,8.521,-11.936,15.704,0.714,15.957,1.793,8.781
-10.708,-5.38,-24.962,-4.002,-13.738,-1.015,-12.288,-10.61
-15.507,-12.632,-27.263,-15.155,-21.943,-11.007,-19.919,-18.013
-13.791,-12.93,-23.159,-14.651,-23.529,-11.476,-23.132,-17.951
-7.711,-6.535,-15.876,-6.663,-15.287,-6.796,-18.542,-12.716
6.258,8.364,-1.075,7.349,6.319,6.649,0.115,1.884
20.301,21.842,16.419,18.149,26.786,21.55,20.123,16.339
22.245,22.181,22.078,16.598,28.625,22.582,25.047,18.247
12.086,10.587,10.182,5.745,14.094,9.701,16.902,10.745
-0.971,-3.575,-7.522,-6.255,-0.997,-4.902,6.179,3.231
-6.19,-9.402,-14.519,-11.394,-3.428,-11.42,-0.324,-0.747
4.256,1.164,-4.229,-2.694,9.648,-5.587,4.333,2.364
22.1,18.88,12.554,11.949,24.75,5.317,17.531,11.028
29.441,24.56,19.581,15.799,26.264,8.816,24.662,14.19
26.573,19.111,18.326,12.72,20.785,8.82,23.596,11.426
25.22,16.519,19.233,17.818,22.28,16.113,23.276,11.385
25.968,18.447,22.744,29.385,27.92,26.495,24.646,13.963
25.255,19.651,26.94,36.911,30.126,31.082,26.184,18.348
22.396,17.284,30.109,35.278,29.401,28.4,27.562,25.819
15.136,9.589,24.899,24.848,26.676,19.18,24.115,29.319
5.913,1.249,11.581,14.214,21.389,8.643,14.873,22.759
3.547,1.094,3.941,13.693,16.036,7.158,7.34,12.799
9.198,8.088,7.487,19.696,12.143,13.393,6.387,8.406
12.67,11.825,10.315,19.295,7.22,13.322,8.055,7.69
9.097,8.912,5.367,11.51,2.38,5.863,8.201,5.216
6.335,7.218,1.146,8.788,4.789,4.966,9.696,4.622
10.128,12.201,5.412,17.803,13.98,15.204,16.102,11.062
17.072,20.779,16.937,32.648,18.895,29.127,25.326,21.798
20.944,25.723,27.869,40.195,16.357,36.479,31.486,31.961
16.022,19.858,26.362,29.859,14.433,28.313,29.607,36.276
4.417,6.176,11.424,9.343,16.423,10.014,22.676,29.845
-3.326,-3.242,-2.379,-3.591,16.17,-2.458,17.794,15.654
-3.794,-5.738,-5.433,-6.618,6.369,-5.593,13.833,1.97
-2.868,-7.087,-1.5,-7.182,-11.289,-6.545,6.759,-5.788
-1.769,-5.864,3.714,-3.766,-23.446,-5.359,0.33,-6.342
3.615,2.18,8.069,6.201,-18.783,2.525,1.168,-1.036
10.433,10.844,8.915,12.596,-4.014,11.278,7.676,6.632
9.402,9.051,2.281,4.773,3.569,9.43,8.719,9.391
3.126,1.32,-6.473,-6.039,2.748,1.827,2.6,4.594
5.261,3.786,-4.379,-0.621,7.39,4.552,2.9,2.205
12.32,12.402,5.218,12.215,13.766,13.784,9.651,6.138
7.161,7.686,5.827,8.702,6.477,9.32,7.069,6.119
-5.132,-4.947,-0.448,-5.425,-4.39,-6.233,-2.594,1.597
-1.61,0.264,5.118,-2.534,2.775,-5.54,0.052,5.107
19.076,24.005,25.091,20.175,20.428,17.915,17.257,17.939
29.922,34.777,34.945,32.41,20.863,33.266,26.546,23.482
14.276,15.961,15.482,15.129,-0.796,17.824,13.665,10.903
-6.609,-5.687,-11.36,-7.634,-15.76,-5.941,-3.239,-4.824
-7.431,-3.703,-14.367,-7.186,-6.121,-8.53,-4.147,-6.25
2.899,8.124,-2.087,4.635,6.747,0.813,1.704,-0.658
7.334,10.642,4.568,6.415,3.559,2.348,2.219,1.75
9.408,10.736,7.513,5.244,-2.698,1.852,3.11,5.775
14.366,16.536,11.037,12.306,2.267,9.378,7.573,11.898
15.232,19.444,8.528,18.579,9.934,16.417,8.56,10.82
10.135,14.338,1.687,16.744,9.098,15.957,4.491,3.361
10.625,12.971,4.867,17.309,5.928,17.479,4.501,3.618
19.704,20.99,19.493,24.299,7.887,23.028,11.64,14.108
22.337,23.958,27.078,24.794,8.553,19.977,14.815,18.984
12.114,14.188,19.422,15.26,4.477,8.542,9.419,12.464
2.707,5.01,9.516,7.58,3.492,1.989,6.024,7.2
3.276,6.501,6.836,7.968,7.826,3.212,9.465,8.789
7.079,12.072,7.849,11.747,9.77,6.89,11.474,9.335
6.911,13.132,7.841,12.8,5.185,9.626,7.207,4.867
4.376,10.224,5.739,10.182,-2.732,8.635,1.571,0.012
5.283,9.361,4.125,9.318,-8.919,6.856,-0.119,0.201
12.302,14.14,5.283,14.245,-9.465,11.97,2.453,5.387
21.488,21.716,6.126,21.072,-6.5,21.644,6.47,10.448
27.088,26.313,4.275,24.433,-5.131,26.278,8.787,12.232
27.354,25.049,1.708,23.43,-4.019,23.94,7.645,10.054
25.091,20.645,2.512,20.978,-1.571,20.331,5.005,5.437
23.46,18.084,9.199,21.178,-0.135,20.088,5.065,4.042
19.268,15.299,13.785,20.826,2.049,18.796,5.075,3.93
9.956,7.555,8.894,14.11,7.186,10.71,-0.082,-2.869
3.267,0.335,2.926,6.663,12.119,2.775,-3.794,-11.019
5.561,1.165,4.852,5.635,16.123,2.272,2.007,-8.138
15.266,9.96,15.992,11.964,25.137,8.737,15.057,9.188
27.924,22.109,33.291,26.509,38.228,22.269,28.946,33.058
33.642,27.918,43.368,40.53,41.595,35.273,34.837,45.824
25.572,20.657,36.167,37.312,29.634,33.176,27.163,35.413
13.211,8.989,23.427,19.266,14.73,17.088,13.294,12.255
10.34,6.372,20.915,8.27,8.175,4.533,5.52,-1.84
16.191,12.255,24.787,11.848,7.207,4.147,6.647,0.068
20.833,16.592,23.068,17.127,3.762,9.499,9.957,6.278
21.192,16.653,16.602,17.715,-1.154,14.701,10.506,8.017
20.978,16.655,13.888,17.257,1.143,16.651,9.896,7.726
20.702,16.769,15.604,14.842,10.223,12.14,9.827,7.059
19.383,15.745,18.659,10.918,15.583,6.216,10.768,8.357
21.124,17.599,26.139,13.648,15.427,9.504,14.876,18.863
26.618,22.615,36.426,22.615,16.436,20.003,18.927,29.787
27.251,22.373,36.146,24.354,16.149,22.873,13.726,16.822
20.907,15.17,22.971,15.583,8.448,14.014,0.359,-14.064
18.397,11.601,15.357,8.644,0.898,5.026,-6.89,-25.131
22.412,14.796,20.345,7.689,3.129,2.279,-2.778,-9.738
22.422,15.113,23.089,5.887,10.678,2.369,1.254,1.485
19.028,12.57,22.356,5.685,18.58,5.679,1.677,2.311
20.815,14.7,28.691,11.335,25.391,12.926,5.218,8.841
21.151,14.838,32.984,12.611,22.096,15.686,5.181,10.719
16.688,9.405,29.605,6.994,8.044,12.121,-2.297,-2.473
22.711,13.753,34.934,11.178,0.442,14.895,0.714,-4.724
40.172,31.307,49.298,29.246,8.461,27.215,20.375,19.168
45.785,40.518,50.501,41.326,18.846,34.255,33.32,39.39
28.728,27.205,31.688,30.696,16.572,24.008,21.669,27.615
7.4,6.248,10.141,7.25,8.482,6.07,0.543,1.658
1.935,0.851,3,-2.106,9.993,3.629,-5.384,-1.985
7.545,10.051,7.97,7.952,16.031,18.388,-0.175,13.933
9.425,15.69,11.346,14.561,13.232,25.306,-3.089,14.466
9.064,14.982,10.736,9.313,7.768,16.06,-10.487,-3.796
14.456,18.255,14.176,8.091,10.439,9.039,-7.565,-10.379
19.892,23.116,21.324,14.061,10.742,10.552,-0.142,-1.934
15.421,18.847,22.808,15.002,-4.798,10.899,-3.514,-2.465
5.58,8.744,16.094,12.29,-20.685,11.541,-12.925,-8.34
3.876,6.008,11.132,13.399,-12.384,15.915,-9.318,3.031
11.321,11.505,16.02,11.569,7.695,13.021,7.213,18.925
17.572,16.501,28.311,4.765,7.715,1.914,16.918,13.65
20.323,20.184,38.878,5.411,-6.025,-0.05,15.403,2.555
20.146,21.353,33.765,10.259,-3.991,6.315,13.569,3.572
12.8,13.49,13.229,4.412,9.916,3.054,11.464,-1.15
3.619,2.293,-0.472,-4.048,14.989,-5.742,5.495,-15.425
2.672,-1.093,1.279,-0.998,15.619,-5.321,2.079,-15.257
8.635,2.207,7.016,6.021,20.924,-1.102,5.343,2.063
15.086,7.542,14.566,8.439,20.217,-1.897,8.731,13.37
17.123,13.242,22.215,9.863,5.814,-2.736,5.454,5.511
12.889,16.144,16.91,11.069,-6.14,-0.147,-0.971,-10.22
6.645,14.264,-0.878,6.585,0.09,-0.379,-3.562,-16.719
1.82,8.47,-12.382,-5.521,10.138,-7.792,-5.081,-15.13
-0.725,3.67,-6.891,-15.465,1.981,-13.856,-9.555,-15.694
3.413,8.319,6.757,-8.199,-17.726,-5.291,-9.793,-15.127
15.055,22.805,15.367,14.627,-24.765,13.987,-1.085,-7.645
24.325,34.818,15.99,30.171,-11.641,23.825,7.935,-1.423
20.229,32.177,8.69,21.654,4.036,13.939,8.575,-3.913
4.787,15.898,-5.781,-0.921,5.314,-4.712,1.793,-10.545
-6.017,0.946,-14.566,-15.13,-1.431,-12.915,-5.246,-14.355
-2.488,-0.625,-8.696,-12.874,-4.243,-4.467,-8.212,-14.392
5.075,5.105,-2.648,-5.971,-8.79,5.688,-10.99,-15.701
7.113,8.677,-7.073,-5.615,-18.788,3.375,-13.472,-18.71
8.438,11.861,-10.481,-8.852,-19.794,-6.206,-10.224,-16.953
10.375,14.815,-7.617,-11.873,-7.564,-13.803,-7.389,-12.828
8.891,13.311,-6.549,-15.617,1.616,-17.854,-12.443,-14.23
7.226,9.942,-7.369,-16.86,-1.099,-17.01,-18.192,-18.457
7.681,8.174,-5.713,-13.851,-9.83,-12.665,-17.339,-19.129
6.231,5.623,-5.313,-11.665,-16.067,-11.391,-12.903,-16.181
2.873,1.913,-10.199,-12.2,-14.529,-13.938,-9.193,-11.12
1.811,0.906,-15.344,-11.543,-8.657,-14.825,-6.903,-4.798
3.114,3.013,-14.787,-9.13,-8.595,-13.682,-7.337,-0.638
4.281,4.997,-11.306,-8.277,-18.371,-13.688,-11.942,-1.405
7.314,8.154,-8.525,-6.886,-27.228,-11.272,-16.09,-3.702
15.786,16.755,-2.836,1.35,-24.023,-0.966,-13.697,-2.364
25.072,26.708,5.848,12.843,-16.638,9.867,-8.059,1.452
24.807,26.624,6.662,12.198,-16.613,5.693,-7.722,1.86
14.709,14.854,-6.137,-5.302,-18.523,-12.187,-11.664,-1.603
7.648,4.914,-20.025,-19.927,-13.087,-21.386,-10.278,-2.38
8.225,4.346,-21.56,-16.768,-5.785,-12.505,-4.879,0.282
3.698,2.194,-18.69,-11.072,-7.486,-4.471,-7.369,-0.59
-10.779,-8.601,-25.327,-17.005,-13.132,-9.146,-17.596,-6.054
-21.078,-17.619,-34.432,-22.683,-12.022,-14.114,-24.687,-10.362
-18.523,-16.811,-32.382,-18.7,-9.276,-11.829,-25.094,-10.367
-9.439,-9.901,-22.198,-13.551,-9.979,-9.585,-20.384,-5.159
-0.059,-0.872,-13.512,-11.441,-5.443,-8.687,-10.269,5.636
5.314,5.832,-10.862,-8.873,3.15,-5.139,-1.517,14.441
1.187,3.187,-15.214,-9.249,-0.85,-4.068,-6.181,9.779
-7.987,-5.43,-21.524,-15.211,-17.621,-8.981,-19.758,-2.913
-10.54,-8.388,-22.668,-20.393,-27.539,-13.038,-25.54,-6.873
-5.998,-4.803,-18.199,-21.184,-25.385,-13.731,-23.084,-3.736
-2.929,-3.054,-13.797,-20.948,-23.125,-15.406,-23.218,-7.039
-5.01,-6.524,-17.798,-22.548,-22.45,-17.043,-25.621,-14.184
-10.663,-12.592,-32.05,-25.953,-16.89,-15.275,-25.552,-15.708
-17.179,-18.018,-45.274,-30.255,-10.651,-14.263,-24.999,-14.743
-20.921,-20.526,-47.644,-33.965,-9.893,-17.725,-24.451,-14.872
-18.076,-17.908,-41.822,-32.077,-8.504,-17.278,-20.168,-9.834
-8.79,-9.385,-32.569,-19.6,-0.183,-4.301,-12.688,1.95
-1.018,-0.85,-23.663,-5.222,6.289,10.224,-8.767,8.73
-2.275,-0.945,-21.943,-6.278,-0.62,6.997,-13.389,1.093
-8.423,-8.065,-27.531,-21.695,-14.171,-10.203,-21.301,-10.995
-11.353,-12.88,-31.904,-32.953,-18.605,-19.706,-23.327,-11.052
-11.103,-12.647,-31.338,-32.814,-13.334,-16.369,-21.086,-3.212
-12.799,-12.112,-30.011,-29.721,-10.438,-12.843,-22.627,-4.147
-18.203,-14.024,-32.888,-29.952,-14.074,-14.759,-26.965,-12.228
-23.425,-15.885,-40.18,-32.706,-17.467,-18.419,-28.829,-15.756
-24.949,-14.765,-46.868,-35.998,-18.032,-22.537,-30.292,-18.908
-23.382,-10.178,-47.229,-36.285,-19.396,-26.02,-32.629,-25.603
-18.979,-2.561,-39.734,-30.004,-21.166,-24.845,-29.955,-23.599
-13.346,4.504,-32.112,-22.248,-22.934,-19.365,-22.58,-12.351
-14.44,2.78,-36.643,-24.347,-28.822,-17.316,-21.443,-12.183
-26.746,-9.428,-51.757,-36.925,-36.766,-24.168,-30.235,-27.748
-40.478,-19.755,-61.394,-46.297,-38.664,-32.934,-38.541,-39.471
-43.739,-18.369,-57.745,-44.73,-35.169,-33.659,-39.323,-37.886
-39.047,-11.559,-48.079,-39.513,-34.607,-28.937,-36.738,-31.078
-34.979,-7.695,-39.462,-35.893,-38.27,-25.695,-34,-24.001
-31.397,-5.026,-31.656,-29.158,-39.287,-21.071,-29.208,-17.107
-26.741,-2.414,-27.493,-20.201,-34.148,-12.852,-24.128,-14.475
-26.966,-6.008,-34.519,-21.147,-27.549,-12.084,-24.199,-17.648
-32.313,-15.149,-46.628,-32.766,-24.558,-22.634,-27.202,-19.159
-31.053,-17.747,-46.11,-35.749,-21.982,-25.532,-23.237,-11.659
-19.778,-10.12,-32.989,-21.963,-14.322,-10.719,-12.061,-0.709
-11.51,-4.073,-25.601,-9.476,-6.047,3.138,-7.049,0.751
-13.98,-6.554,-29.906,-12.157,-5.752,0.346,-13.197,-8.082
-18.174,-9.854,-32.455,-19.86,-10.475,-9.406,-18.364,-13.238
-14.126,-5.798,-23.722,-17.425,-10.997,-9.048,-12.881,-4.784
-4.313,3.278,-11.048,-6.712,-8.187,1.231,-1.541,10.293
1.523,8.461,-6.012,-2.407,-10.725,4.244,4.257,13.818
-1.013,4.794,-11.225,-11.004,-20.87,-8.178,-2.301,-2.604
-7.512,-3.386,-22.342,-23.285,-28.659,-22.954,-16.307,-23.717
-12.361,-8.439,-31.535,-26.993,-23.374,-25.431,-24.761,-30.088
-12.751,-7.014,-30.637,-18.074,-9.665,-14.527,-20.971,-23.024
-8.394,-1.838,-19.718,-2.691,-0.855,0.373,-10.686,-14.562
-2.881,1.598,-6.402,8.957,-0.074,8.526,-2.526,-6.881
-0.841,0.898,2.356,13.701,-0.782,9.171,0.614,2.428
-3.206,-2.325,2.548,14.545,0.896,9.358,0.467,8.449
-7.461,-6.174,-3.998,11.214,2.57,9.22,-1.277,6.118
-9.405,-8.439,-8.819,3.905,1.685,4.217,-3.354,-0.404
-5.77,-6.04,-5.561,0.274,0.733,-0.464,-2.299,-3.768
-0.108,-0.758,2.489,4.438,1.749,2.523,1.925,-3.923
0.354,0.677,6.301,7.937,2.023,6.259,3.068,-6.082
-2.439,-1.969,4.04,4.694,3.009,2.659,1.096,-8.511
-0.51,-1.471,5.193,2.151,11.405,0.139,4.915,-2.825
4.726,2.744,14.118,7.328,24.9,8.008,15.735,10.189
6.529,4.329,21.261,16.652,31.64,20.272,23.098,18.798
7.453,4.196,21.268,24.002,26.607,26.192,22.528,18.392
10.887,5.553,19.179,24.351,15.127,21.651,19.141,14.454
9.373,2.451,14.843,14.797,4.897,10.758,13.884,9.269
1.253,-5.568,6.684,3.407,3.146,3.76,7.237,4.27
-2.572,-7.542,1.943,1.789,10.097,6.436,4.289,3.632
0.347,-2.42,3.786,6.362,15.764,12.102,2.874,3.754
2.468,0.483,6.125,6.316,13.115,11.219,-2.078,-2.389
3.571,1.15,8.238,3.904,7.452,5.836,-5.1,-9.086
8.431,5.797,14.396,8.753,7.127,6.303,0.431,-4.882
15.414,12.701,23.079,19.892,11.004,15.182,10.626,7.808
19.853,16.238,28.779,26.98,12.902,23.395,17.501,15.425
21.526,16.843,26.994,25.089,14.32,22.827,18.344,12.395
23.197,18.295,20.043,19.624,19.885,16.518,16.894,6.679
24.047,18.791,14.645,14.708,24.42,10.621,16.156,4.518
19.534,13.149,9.877,8.062,20.503,5.285,12.933,1.068
10.206,3.767,3.443,2.761,12.845,3.098,5.44,-6.265
2.713,-1.829,1.183,5.547,10.036,7.802,-0.462,-9.328
1.952,-1.075,7.856,14.393,10.106,13.499,1.402,-2.195
7.861,4.031,19.783,23.222,7.153,16.543,9.439,8.305
13.684,8.243,26.981,26.596,6.122,20.972,15.345,11.498
10.001,4.521,21.298,18.324,13.54,21.752,13.028,5.818
-0.931,-5.314,9,2.488,19.447,12.425,6.05,-1.206
-5.716,-9.707,5.988,-5.673,14.671,3.705,2.983,-1.894
0.268,-4.245,14.239,-0.28,12.284,6.982,7.227,3.436
8.794,3.543,20.889,9.823,23.936,15.063,15.059,8.903
13.465,7.49,21.991,16.505,36.365,17.265,20.762,12.545
15.318,8.938,24.319,20.183,35.732,17.467,22.492,17.404
17.085,11.177,27.905,23.978,31.179,23.405,23.315,24.268
17.468,12.747,26.173,25.475,33.432,28.968,24.085,26.059
14.653,10.549,20.212,21.106,36.534,24.248,23.01,17.336
15.124,10.24,22.371,18.588,34.168,16.542,24.227,9.204
23.264,17.333,35.266,25.996,26.561,19.018,29.167,10.941
27.103,21.383,37.64,31.998,13.246,25.705,25.619,8.642
17.495,12.53,18.504,22.084,0.01,20.081,8.187,-5.336
5.426,0.24,-0.193,4.11,-2.687,2.674,-6.82,-15.3
1.507,-3.855,-3.132,-4.197,4.639,-8.376,-5.725,-13.963
2.419,-1.501,-0.409,-0.224,12.499,-4.356,3.003,-9.211
5.677,3.729,3.243,7.69,16.897,5.705,6.551,-3.583
13.1,12.4,11.446,15.881,20.632,14.049,6.813,3.24
20.385,20.335,17.785,23.2,23.429,19.955,9.251,7.765
22.099,21.601,17.685,25.838,22.398,21.07,11.367,9.972
20.417,18.367,18.624,22.408,20.057,15.377,12.046,11.042
19.537,16.734,23.789,18.121,21.089,9.194,15.475,10.143
21.475,19.881,28.332,22.044,26.662,14.198,23.829,14.355
26.547,26.781,31.129,34.763,33.675,29.702,32.651,26.5
29.426,30.25,30.336,40.897,33.775,36.693,31.186,26.493
24.604,24.614,20.669,29.632,23.722,24.842,15.561,4.229
17.57,16.365,8.518,13.321,14.009,9.368,-0.375,-14.317
16.786,14.463,7.334,7.549,10.099,4.18,-3.017,-10.671
21.966,18.912,16.502,11.707,4.682,6.037,4.072,0.844
29.803,27.241,26.242,20.633,1.631,13.555,13.334,9.791
36.212,35.15,31.28,30.171,10.966,25.36,22.309,19.574
34.676,34.578,30.113,32.597,21.749,28.955,25.608,23.062
27.617,27.527,25.394,27.458,20.727,21.758,19.967,13.408
23.568,23.078,21.281,21.148,15.938,14.854,11.8,1.074
20.657,19.182,17.212,13.06,15.734,8.712,8.239,-3.405
15.853,12.708,13.777,4.354,17.129,0.376,10.85,-0.908
15.097,10.358,15.103,3.43,19.264,-2.016,15.328,1.736
18.659,13.655,18.784,9.82,22.509,4.293,14.636,-1.38
19.214,16.07,18.483,14.686,23.135,9.843,9.387,-6.937
16.346,15.651,16.372,15.833,20.547,9.302,6.835,-6.151
14.806,14.504,17.874,17.016,18.454,7.167,8.769,2.053
14.619,12.962,20.358,18.858,18.218,7.893,11.677,9.502
14.39,12.168,19.773,20.345,19.818,11.432,14.142,10.737
15.05,13.321,17.417,21.585,22.187,14.559,14.925,8.78
15.45,13.333,13.981,19.293,20.782,10.773,11.286,5.865
15.117,11.762,10.374,12.752,16.13,0.642,6.794,1.755
16.947,13.731,10.202,10.135,14.748,-3.511,8.837,0.248
19.328,18.2,11.948,13.931,14.725,1.567,13.895,2.261
18.014,19.292,10.841,16.384,10.355,4.581,12.514,2.638
16.54,19.138,10.118,16.626,7.427,3.285,8.025,2.182
21.012,23.608,16.004,21.589,13.314,7.468,11.116,8.378
28.647,30.646,24.73,30.521,21.919,17.575,21.109,21.466
32.301,33.359,27.363,33.665,22.164,20.908,26.822,27.194
31.863,30.768,22.105,26.681,13.965,11.819,19.997,13.187
32.946,29.019,15.146,18.577,7.064,3.071,5.701,-6.572
36.418,30.735,13.07,17.035,6.23,4.809,-0.93,-9.728
36.783,30.004,14.435,15.231,7.601,7.121,4.42,-1.108
32.503,23.784,13.858,7.424,7.766,1.197,9.969,1.596
28.688,18.215,11.911,1.023,5.273,-5.513,9.045,-3.614
27.844,17.988,11.4,3.062,-2.62,-4.761,5.468,-8.894
28.292,21.021,13.085,11.423,-16.381,3.065,0.428,-10.538
29.629,24.9,15.815,20.403,-26.111,11.924,-4.507,-6.668
32.888,29.671,16.37,26.795,-15.288,16.731,-1.237,8.094
37.749,34.556,15.916,30.917,13.836,20.205,11.495,31.883
39.936,35.419,16.761,31.754,34.903,24.097,21.268,47.456
35.827,29.524,15.03,26.905,33.724,22.441,19.545,41.691
31.671,22.8,12.051,19.75,24.413,15.627,13.557,25.56
36.009,23.406,16.759,19.062,21.618,14.384,12.916,20.294
46.926,30.945,31.17,29.623,23.975,24.477,19.62,29.779
55.443,37.456,44.057,40.26,23.53,33.511,29.332,36.753
51.169,32.215,37.289,28.788,13.167,18.563,27.881,22.375
32.507,13.366,10.362,-3.466,-3.251,-16.709,9.502,-9.466
14.005,-5.32,-13.183,-27.35,-10.589,-38.416,-4.668,-33.485
7.583,-12.614,-20.384,-31.419,-6.033,-36.374,0.541,-38.069
10.812,-10.452,-17.919,-28.486,1.363,-30.644,11.904,-32.623
17.259,-4.531,-11.225,-22.409,10.142,-26.74,15.693,-21.598
21.349,0.17,-3.158,-10.311,17.749,-17.161,12.957,-6.584
20.807,1.711,2.398,0.779,14.627,-6.38,8.958,3.718
16.572,0.683,2.434,1.463,1.834,-5.16,5.818,4.726
8.97,-3.791,-3.781,-7.34,-6.274,-14.858,2.288,0.565
1.338,-9.911,-11.705,-15.238,-1.458,-24.688,-0.712,-3.102
-1.138,-12.422,-15.149,-15.705,8.048,-25.445,-0.22,-5.447
0.679,-10.743,-12.543,-13.269,9.615,-21.948,1.424,-8.635
2.556,-9.211,-6.886,-13.208,2.018,-21.935,0.666,-10.26
3.623,-9.705,-2.428,-13.218,-5.397,-22.29,-0.023,-6.206
5.527,-9.246,-1.109,-9.248,-4.504,-17.063,2.525,1.999
10.425,-3.292,-0.258,-1.155,4.171,-7.627,8.123,11.427
18.247,7.274,3.823,7.224,12.497,-0.257,14.301,20.406
23.478,14.055,8.86,10.722,14.044,0.74,16.428,24.469
21.701,12.372,9.145,9.922,11.562,-1.216,14.097,22.674
17.741,8.474,6.047,10.655,11.194,-0.333,13.799,21.649
17.723,8.242,6.269,13.287,12.735,1.783,16.793,22.59
17.735,7.362,9.018,12.72,9.572,0.945,15.192,18.175
13.132,2.308,9.4,9.254,-3.612,-2.842,7.312,9.174
11.41,1.304,11.738,8.874,-22.336,-7.603,3.966,8.406
19.36,10.518,18.942,12.37,-27.352,-9.798,13.472,21.443
26.912,18.92,18.302,11.293,-6.106,-8.826,27.858,34.424
21.676,13.68,2.333,-0.767,17.543,-11.393,30.466,31.053
10.95,2.877,-13.082,-15.145,16.27,-17.835,20.144,17.723
11.605,4.414,-12.361,-16.432,6.887,-16.054,15.075,16.524
24.615,18.581,-1.971,-4.106,14.702,-3.014,22.978,30.058
35.142,29.131,3.488,6.244,25.13,5.508,29.078,35.768
32.353,25.661,-1.916,2.981,15.077,-3.178,21.817,21.57
19.381,12.662,-14.683,-9.216,-3.372,-20.774,7.741,0.886
6.96,0.32,-24.59,-17.533,-7.629,-28.938,-2.653,-11.024
1.304,-6.274,-23.147,-16.606,-2.523,-22.388,-6.561,-12.885
1.231,-7.37,-12.58,-10.912,-1.708,-12.982,-4.149,-8.488
3.87,-4.796,-1.271,-5.648,-3.603,-10.473,3.646,-0.313
6.561,-1.891,6.255,-2.7,-7.575,-11.186,10.096,5.804
7.072,-0.9,10.034,-2.023,-16.578,-9.415,8.533,3.988
5.05,-0.705,8.431,-1.85,-21.899,-7.081,2.405,-2.962
1.83,-0.188,1.748,0.162,-21.046,-7.247,-1.217,-7.449
-0.556,0.49,-3.022,3.972,-22.178,-7.058,-1.244,-6.626
-2.163,0.744,-4.003,6.231,-14.664,-3.634,1.526,-2.123
-5.114,-1.051,-6.207,3.511,9.656,-1.119,7.406,4.07
-9.186,-5.992,-8.598,-3.039,23.684,-2.285,11.902,6.671
-14.421,-14.99,-10.046,-11.271,7.268,-5.686,6.225,-1.384
-23.428,-28.34,-15.763,-22.166,-16.25,-13.963,-8.372,-14.951
-34.151,-40.611,-25.405,-31.297,-18.753,-23.924,-17.233,-19.869
-41.103,-45.891,-32.638,-31.374,-8.215,-25.152,-15.071,-17.457
-43.425,-46.105,-34.015,-26.739,-8.606,-20.965,-12.825,-20.74
-41.656,-43.645,-28.589,-24.808,-20.868,-20.836,-14.249,-26.682
-35.103,-36.69,-20.76,-23.35,-27.503,-21.602,-12.157,-22.615
-26.428,-26.768,-19.359,-20.124,-23.315,-19.385,-6.731,-12.296
-19.612,-18.816,-24.247,-17.991,-20.215,-18.162,-5.173,-8.231
-17.091,-15.758,-29.002,-18.61,-27.033,-20.606,-9.98,-12.029
-19.805,-16.749,-32.97,-21.221,-36.609,-24.962,-17.087,-17.277
-23.615,-17.159,-35.969,-23.28,-36.061,-27.166,-19.145,-18.507
-23.585,-15.007,-34.716,-22.27,-26.054,-24.721,-13.729,-16.432
-23.311,-15.83,-29.963,-21.447,-19.513,-22.203,-9.056,-17.509
-29.414,-24.896,-26.919,-29.558,-21.966,-28.719,-12.686,-22.381
-39.919,-38.466,-28.204,-45.9,-27.32,-42.668,-20.008,-23.2
-46.324,-46.541,-30.116,-53.929,-30.355,-46.785,-21.471,-17.535
-44.552,-44.073,-26.656,-44.336,-26.771,-32.796,-14.651,-11.507
-40.42,-38.042,-17.82,-28.926,-12.168,-15.228,-6.726,-8.265
-42.841,-39.108,-11.633,-19.727,4.148,-7.39,-7.349,-5.301
-51.654,-47.137,-13.576,-15.357,4.523,-6.554,-17.465,-5.567
-58.427,-53.068,-18.469,-13.959,-9.933,-9.667,-27.951,-18.524
-58.849,-52.96,-18.578,-18.637,-21.307,-20.269,-31.293,-39.479
-56.744,-50.594,-15.631,-26.853,-26.131,-34.083,-29.109,-49.714
-56.939,-49.755,-18.844,-31.727,-34.754,-38.555,-26.935,-46.188
-57.229,-49.213,-28.194,-32.219,-39.708,-31.998,-25.058,-38.77
-50.139,-43.519,-29.127,-29.03,-26.271,-23.19,-18.469,-26.894
-38.874,-34.199,-19.461,-22.413,-10.371,-17.936,-10.477,-13.853
-38.008,-32.57,-19.49,-18.756,-15.934,-19.842,-12.286,-15.523
-47.142,-39.874,-31.705,-23.077,-32.33,-27.876,-20.373,-29.307
-50.295,-44.518,-33.006,-30.287,-41.546,-33.925,-20.734,-32.746
-45.606,-43.328,-23.504,-32.761,-47.177,-33.881,-16.043,-21.192
-45.587,-43.314,-27.161,-30.707,-48.049,-31.286,-18.241,-11.851
-52.976,-47.121,-43.6,-31.116,-35.733,-29.862,-24.212,-14.789
