EEG 1,EEG 2,EEG 3,EEG 4,EEG 5,EEG 6,EEG 7,EEG 8
-1.603,0.422,-15.078,-6.019,5.867,5.734,18.512,6.731
-0.329,-0.223,-13.632,-3.182,8.882,8.557,15.207,1.837
1.672,2.114,-9.568,0.675,8.792,11.634,14.983,5.094
5.213,7.927,-5.096,3.549,11.319,13.699,20.708,13.436
7.778,12.163,-2.137,5.605,13.409,16.434,25.404,16.554
6.657,11.205,-1.256,7.186,10.484,19.051,22.677,11.674
3.171,7.197,-1.63,3.409,4.817,13.832,16.391,6.739
0.708,3.544,-3.141,-6.066,2.582,1.038,13.549,7.521
1.283,2.578,-4.497,-9.552,4.664,-3.291,14.92,11.178
4.734,5.765,-2.118,-1.875,6.473,6.685,16.764,13.661
8.578,10.281,2.93,5.553,4.827,14.605,16.561,13.206
10.334,11.355,5.726,4.752,1.476,10.729,14.727,9.221
11.252,10.527,7.497,3.168,1.73,6.719,13.836,5.416
13.818,12.898,12.197,7.839,7.731,11.25,16.438,6.815
16.566,17.696,17.037,12.916,14.879,15.976,20.482,11.005
14.805,18.768,14.914,10.567,16.414,13.85,19.312,10.801
7.558,13.952,5.859,4.365,11.121,10.758,11.5,5.987
1.067,8.914,-0.867,3.206,5.642,12.936,5.095,3.325
-0.004,8.452,-1.893,6.858,4.716,16.891,5.128,4.307
0.458,9.663,-3.223,7.571,4.173,16.515,5.109,2.297
-1.577,8.576,-5.995,3.347,-0.097,11.91,-0.841,-5.647
-2.52,7.367,-4.637,0.342,-4.063,8.388,-6.036,-11.132
1.216,9.053,2.056,2.616,-2.721,9.725,-2.906,-7.267
5.157,10.316,7.568,5.325,2.447,12.19,2.923,-1.542
3.908,6.946,6.807,1.573,7.008,8.787,3.557,-1.918
0.108,1.844,4.266,-5.562,8.623,1.81,1.751,-3.451
-0.504,0.797,7.16,-6.004,8.417,1.015,2.763,-0.627
0.937,2.725,11.939,-0.061,7.877,5.894,4.896,2.222
-1.017,1.311,8.996,0.859,5.979,5.441,4.496,-0.126
-5.521,-3.883,0.331,-5.649,2.356,-1.812,2.318,-4.921
-8.297,-7.931,-4.856,-10.657,-2.061,-6.615,-0.599,-7.768
-11.549,-10.81,-7.118,-11.801,-7.603,-7.061,-7.037,-11.357
-18.524,-15.402,-11.781,-14.438,-13.862,-9.103,-17.173,-19.349
-23.955,-18.555,-16.326,-17.844,-18.292,-12.717,-24.238,-26.484
-21.378,-15.379,-14.893,-15.79,-19.461,-12.151,-23.313,-24.838
-12.731,-7.225,-8.057,-7.175,-17.073,-5.74,-17.049,-15.712
-2.762,2.631,-0.432,3.118,-9.205,2.624,-8.655,-6.781
6.255,12.114,6.295,9.877,2.628,7.943,0.547,-1.987
10.934,16.519,11.184,10.806,9.815,7.842,6.403,-0.853
10.828,15.087,13.882,9.757,8.949,6.452,7.496,-0.126
14.626,17.721,21.581,16.3,9.463,13.191,12.059,7.547
26.684,28.765,38.551,31.968,17.487,28.54,24.137,22.955
35.408,35.473,51.063,42.023,24.661,36.967,32.365,32.524
30.787,28.396,45.599,35.87,23.285,29.459,27.511,27.418
20.001,16.733,30.734,24.214,19.483,19.853,16.928,17.598
13.805,12.009,21.885,20.397,21.355,20.857,11.244,13.377
12.461,13.191,21.317,21.89,25.489,25.222,10.585,11.383
12.415,14.851,24.79,22.779,25.799,25.251,10.204,8.824
13.041,15.194,30.055,23.928,23.527,24.731,8.675,9.845
14.004,13.567,32.92,23.976,20.989,24.604,7.326,12.289
14.865,10.545,29.676,19.194,16.937,20.497,7.022,9.689
16.024,8.695,24.538,13.032,12.128,14.443,6.655,5.051
17.625,9.065,24.567,12.324,10.487,12.914,5.824,4.548
19.561,10.018,30.507,16.703,11.419,15.892,6.727,4.917
22.215,10.3,37.622,20.514,12.356,17.815,11.782,2.128
25.893,10.754,40.564,21.625,16.755,17.034,20.536,2.77
29.818,12.151,38.586,21.933,24.321,16.996,26.692,11.855
32.88,13.643,37.126,22.03,27.227,18.363,24.288,18.949
35.325,14.793,40.388,21.544,24.476,18.29,17.682,14.631
37.668,15.869,45.158,21.992,21.192,17.374,13.419,8.792
37.549,14.422,43.434,22.01,19.34,16.279,10.167,10.771
33.188,8.329,34.029,17.338,19.325,11.882,7.497,11.7
29.495,2.809,27.837,12.425,21.329,7.862,9.547,7.124
30.281,3.311,30.079,15.005,23.313,11.272,14.188,5.283
30.001,5.42,31.833,18.152,21.636,14.278,13.251,3.379
23.903,2.76,28.451,11.455,15.917,5.693,5.463,-7.051
15.768,-3.681,24.798,1.018,9.998,-7.045,-1.387,-17.947
11.166,-8.83,22.3,-2.163,6.802,-11.555,-1.476,-17.697
12.372,-8.497,19.66,1.91,6.337,-8.317,2.842,-10.123
17.804,-3.255,20.065,7.016,7.282,-3.191,6.249,-4.814
22.919,1.381,25.26,9.444,10.391,1.18,7.523,-2.642
25.001,2.754,30.706,10.729,16.569,5.704,8.514,0.462
25.01,3.407,31.488,12.835,21.558,10.616,9.439,3.856
24.077,4.495,27.823,13.321,23.048,11.481,10.039,4.57
22.966,5.126,25.521,10.886,24.918,6.741,10.776,3.269
23.279,6.055,28.833,9.449,27.308,3.419,10.481,1.795
24.754,7.529,32.545,10.818,26.165,5.693,8.264,0.306
24.814,7.792,29.789,10.515,20.795,7.214,6.196,-1.026
24.04,7.944,25.662,7.354,14.32,4.069,6.422,-1.242
26.039,11.669,29.643,8.35,10.911,3.211,8.962,0.823
29.152,16.495,36.017,14.621,11.666,6.983,12.09,4.635
26.448,14.273,31.554,15.736,12.811,7.163,11.826,6.721
17.616,4.886,20.747,8.642,10.434,3.37,6.595,6.678
12.039,-0.859,19.232,4.1,7.856,4.199,2.691,9.007
14.454,2.215,26.518,7.061,12.317,8.781,4.456,12.006
18.516,6.639,29.593,10.358,19.761,8.739,4.874,7.084
19.733,6.963,26.889,9.081,18.478,2.774,-2.392,-7.129
20.325,6.116,25.014,3.725,10.336,-5.898,-11.818,-22.837
20.185,4.929,22.623,-4.877,6.427,-15.324,-13.249,-30.547
16.817,0.504,16.813,-12.035,5.018,-20.03,-4.618,-24.862
11.848,-5.399,10.772,-12.554,-1.769,-16.254,5.062,-12.98
9.253,-7.5,7.053,-9.248,-8.103,-10.087,8.224,-8.134
9.831,-4.87,5.309,-6.64,-4.849,-7.051,7.43,-10.173
11.317,-1.073,5.589,-4.158,4.096,-5.092,6.962,-8.974
11.695,1.114,8.215,-1.61,10.586,-3.27,5.895,-4.012
10.164,1.251,11.839,-1.29,12.793,-4.158,2.573,-3.491
7.197,-0.186,13.012,-3.148,11.636,-7.419,0.311,-7.531
4.03,-2.662,10.039,-4.394,7.144,-9.157,2.491,-8.213
0.611,-5.82,6.389,-3.712,1.046,-7.307,3.82,-4.816
-3.845,-9.654,5.023,-3.077,-4.553,-4.642,-1.829,-4.873
-8.151,-13.572,4.076,-4.347,-9.283,-4.689,-7.915,-9.328
-9.065,-14.046,4.25,-3.739,-9.831,-4.211,-3.703,-9.019
-5.814,-8.575,9.519,3.304,-2.906,2.254,7.766,-0.774
-3.944,-3.727,15.088,10.149,5.557,8.599,13.006,5.318
-8.296,-7.421,11.392,7.332,7.431,5.033,7.502,2.318
-14.273,-14.53,3.314,0.178,4.81,-3.125,1.305,-2.318
-14.409,-15.041,4.609,-0.699,3.209,-4.709,3.015,0.177
-8.882,-9.729,14.307,3.601,1.229,-0.353,7.869,6.631
-2.952,-4.851,19.629,7.131,-3.06,4.001,7.861,10.072
0.104,-2.018,15.606,8.331,-6.42,6.655,3.733,9.686
-0.96,-1.669,6.597,5.124,-7.291,4.523,-0.19,4.198
-5.697,-5.153,-1.149,-3.989,-7.813,-5.692,-3.338,-8.644
-9.734,-9.91,-2.525,-12.917,-7.895,-17.281,-6.176,-20.431
-8.876,-11.451,1.307,-14.522,-6.196,-20.392,-7.686,-20.35
-4.118,-8.658,4.761,-9.906,-4.654,-15.445,-6.612,-12.042
2.172,-2.862,8.521,-3.171,-5.743,-8.276,-2.425,-4.407
8.178,2.802,14.761,3.574,-6.723,-2.967,2.802,0.356
9.266,3.153,16.327,5.238,-2.767,-4.764,4.899,0.438
2.771,-3.054,8.96,-2.908,1.479,-14.74,1.859,-6.357
-6.072,-10.076,1.518,-14.744,-4.259,-22.708,-4.509,-15.142
-10.397,-12.157,1.055,-18.364,-15.601,-18.64,-9.592,-16.325
-8.991,-9.18,3.143,-11.896,-17.91,-6.704,-9.598,-7.693
-7.129,-6.808,-0.406,-7.454,-13.947,-2.13,-9.28,-2.724
-10.262,-10.063,-11.022,-13.935,-17.387,-12.027,-15.756,-13.837
-12.797,-12.809,-17.319,-20.852,-21.717,-22.655,-20.856,-27.847
-6.713,-6.826,-10.106,-16.582,-14.102,-20.677,-14.346,-26.633
1.086,1.584,-0.081,-9.024,-4.999,-13.125,-6.021,-16.589
2.334,4.422,1.751,-5.928,-6.402,-7.775,-5.032,-8.299
2.356,5.832,2.2,-1.729,-9.976,-2.836,-3.793,-1.154
4.866,8.678,6.217,3.377,-8.244,-2.6,-0.173,1.655
4.698,8.563,7.53,2.407,-6.315,-9.527,-2.041,-2.867
0.577,4.3,4.379,-2.732,-9.995,-13.575,-8.049,-8.535
-3.462,-0.747,0.914,-6.233,-17.753,-11.661,-9.743,-11.013
-5.956,-3.311,-1.825,-6.498,-21.525,-10.506,-5.911,-10.456
-7.15,-1.81,-3.55,-3.361,-18.354,-9.259,-2.284,-7.149
-6.233,2.096,-2.284,0.67,-14.831,-6.239,-3.17,-4.922
-3.688,5.169,1.339,2.156,-13.212,-6.127,-6.724,-6.434
-2.736,5.296,2.978,2.167,-10.685,-7.783,-8.008,-8.16
-5.062,2.244,-0.53,2.17,-9.932,-6.496,-6.027,-8.024
-7.309,-1.4,-6.737,0.297,-11.991,-5.737,-3.974,-7.317
-6.973,-3.26,-11.025,-3.8,-11.059,-9.739,-3.847,-5.461
-6.892,-4.387,-12.104,-7.107,-6.886,-14.395,-5.246,-2.271
-9.124,-6.019,-10.79,-8.368,-6.184,-15.425,-7.261,-1.269
-12.131,-7.801,-9.199,-9.698,-10.6,-14.404,-8.919,-5.083
-15.348,-10.151,-11.295,-11.991,-16.177,-13.418,-10.375,-10.683
-18.444,-12.591,-16.64,-12.913,-19.568,-12.385,-11.948,-12.176
-18.653,-12.004,-18.104,-11.089,-20.39,-11.778,-11.999,-9.091
-15.593,-8.289,-13.767,-9.497,-20.904,-13.223,-10.442,-7.788
-12.74,-5.871,-10.82,-9.548,-19.914,-14.432,-9.079,-9.439
-11.87,-6.664,-11.885,-7.4,-14.387,-10.23,-7.847,-8.155
-13.868,-9.896,-14.736,-5.262,-11.965,-6.097,-7.908,-6.141
-19.771,-15.408,-21.226,-12.143,-21.546,-14.187,-12.11,-10.824
-25.319,-19.808,-28.453,-24.264,-32.035,-28.19,-18.457,-18.585
-24.123,-17.621,-27.318,-26.126,-28.279,-28.519,-21.033,-20.703
-16.685,-9.546,-18.555,-14.993,-16.456,-14.322,-16.938,-15.089
-9.842,-2.739,-12.123,-3.624,-11.87,-2.429,-9.611,-4.494
-8.62,-1.897,-11.046,-0.833,-19.483,-1.577,-6.493,3.402
-10.11,-3.419,-9.747,-3.115,-29.164,-6.536,-9.183,1.683
-8.808,-1.9,-6.783,-3.542,-26.988,-9.21,-10.367,-3.554
-6.719,0.195,-7.774,-2.584,-18.698,-8.918,-7.86,-5.492
-9.504,-3.139,-15.225,-6.412,-18.545,-11.331,-9.134,-11.063
-15.297,-9.906,-23.732,-15.461,-20.227,-17.29,-15.453,-20.523
-15.735,-11.002,-25.289,-20.487,-12.67,-19.395,-17.347,-19.271
-7.579,-2.835,-17.293,-14.226,-3.218,-12.841,-10.772,-6.177
0.729,6.079,-8.004,-4.483,-2.042,-5.574,-4.281,1.337
-0.688,6.185,-7.586,-3.647,-5.071,-6.998,-5.091,-3.695
-8.658,0.504,-13.389,-8.32,-5.046,-10.786,-9.335,-9.978
-13.235,-2.302,-16.742,-7.676,-5.855,-7.514,-11.612,-9.39
-12.747,-1.503,-16.516,-3.587,-13.644,-3.025,-12.674,-6.192
-11.577,-1.232,-15.738,-4.544,-22.753,-6.165,-14.046,-5.89
-11.227,-2.2,-15.244,-9.266,-22.104,-12.463,-14.3,-8.057
-10.828,-3.087,-14.459,-10.085,-11.402,-12.849,-12.409,-10.307
-10.629,-3.831,-13.839,-6.632,-3.492,-8.521,-10.577,-12.046
-11.731,-4.666,-14.697,-5.593,-8.504,-7.462,-11.766,-12.631
-14.021,-5.49,-16.15,-9.505,-22.269,-11.766,-15.482,-11.691
-14.558,-4.992,-15.797,-12.945,-33.462,-15.463,-17.566,-10.687
-10.762,-1.582,-14.68,-10.248,-33.583,-12.949,-14.464,-9.28
-6.492,1.538,-16.062,-4.074,-21.827,-6.732,-8.236,-5.859
-7.885,-0.525,-18.499,-2.023,-8.765,-4.541,-5.367,-3.383
-13.148,-5.523,-18.428,-5.78,-6.702,-8.763,-8.4,-5.96
-15.8,-7.972,-18.663,-10.7,-11.941,-14.17,-12.338,-10.485
-15.226,-7.881,-22.687,-13.701,-12.165,-15.672,-12.619,-10.755
-14.907,-7.701,-25.18,-14.332,-7.635,-13.125,-11.378,-6.958
-15.411,-7.604,-20.979,-12.753,-6.306,-10.167,-11.671,-3.765
-16.454,-8.592,-16.309,-11.542,-9.524,-10.669,-12.409,-3.255
-18.431,-11.171,-17.955,-12.271,-14.479,-13.697,-11.713,-3.511
-19.259,-11.445,-20.279,-11.245,-18.854,-14.197,-9.361,-2.26
-18.417,-9.109,-16.795,-7.714,-21.915,-11.517,-7.439,-0.614
-19.242,-10.558,-12.216,-7.739,-23.995,-10.084,-8.924,-1.128
-22.055,-16.462,-13.299,-13.739,-23.508,-12.303,-12.069,-4.046
-24.204,-20.147,-19.779,-20.575,-19.57,-16.542,-12.208,-8.256
-25.033,-18.857,-26.348,-22.551,-14.824,-18.581,-9.384,-11.585
-25.039,-16.112,-28.718,-19.827,-12.55,-16.945,-7.978,-11.323
-24.922,-15.691,-28.68,-17.933,-14.316,-16.494,-10.755,-10.227
-25.528,-17.378,-30.014,-19.894,-17.98,-20.236,-14.854,-13.465
-25.908,-17.978,-30.71,-21.356,-18.638,-22.274,-15.311,-16.883
-24.006,-15.39,-26.703,-17.201,-16.571,-17.283,-12.58,-13.677
-20.161,-10.96,-20.376,-10.184,-18.436,-11.384,-10.58,-8.28
-16.822,-7.985,-17.846,-7.13,-24.057,-12.196,-9.424,-7.086
-15.262,-7.992,-19.715,-8.776,-24.175,-15.357,-7.234,-6.81
-16.031,-9.491,-20.875,-10.259,-17.192,-13.6,-5.725,-3.713
-19.401,-10.165,-19.995,-10.14,-13.339,-10.091,-7.311,-1.014
-23.249,-9.441,-21.739,-11.92,-19.26,-11.673,-10.604,-2.37
-25.762,-9.255,-27.545,-15.636,-27.244,-16.189,-12.74,-6.018
-27.789,-10.818,-31.439,-15.199,-24.714,-15.729,-12.154,-6.247
-29.456,-12.867,-28.212,-8.996,-13.863,-9.96,-9.942,-1.686
-29.593,-14.995,-21.401,-4.656,-10.152,-6.548,-9,1.273
-28.168,-17.605,-18.266,-6.831,-18.041,-7.954,-9.293,-1.421
-26.671,-19.27,-19.487,-10.683,-23.114,-9.665,-8.38,-5.645
-25.558,-17.799,-19.161,-10.621,-15.086,-9.44,-5.607,-5.499
-22.173,-12.671,-13.775,-5.967,-3.66,-6.999,-1.933,0.126
-14.749,-5.908,-6.86,0.937,-0.181,-1.285,1.407,7.263
-6.234,0.51,-2.935,6.991,-0.156,5.622,4.006,13.186
-1.471,6.057,-1.749,10.053,2.618,9.621,5.557,18.041
-2.912,8.506,-2.935,9.649,2.523,9.694,3.864,19.323
-7.87,6.275,-7.457,6.85,-4.777,7.127,-1.5,14.904
-10.79,3.024,-11.917,2.994,-12.741,2.196,-6.116,7.041
-11.02,1.535,-13.314,-1.963,-14.365,-5.238,-6.399,-1.632
-13.252,-0.853,-15.739,-7.289,-10.739,-12.303,-4.593,-7.974
-18.169,-4.722,-21.178,-9.728,-9.528,-14.493,-4.913,-8.814
-20.877,-6.702,-23.627,-8.387,-15.585,-11.869,-7.464,-6.044
-19.909,-6.74,-20.804,-6.842,-22.218,-8.53,-8.423,-3.506
-18.59,-7.12,-18.224,-6.588,-19.663,-6.04,-5.444,-1.162
-18.311,-7.727,-17.99,-5.688,-10.829,-3.762,-1.447,1.435
-17.537,-7.364,-15.849,-3.659,-7.028,-1.611,-0.335,2.727
-15.82,-5.733,-9.812,-0.368,-9.704,2.16,-1.036,3.194
-16.202,-5.135,-5.834,3.73,-10.845,7.018,-1.64,3.924
-20.739,-7.954,-10.279,5.047,-7.844,7.215,-2.633,4.497
-24.372,-10.815,-17.809,3.083,-4.597,3.156,-2.651,5.268
-21.103,-8.916,-17.826,2.722,-3.022,2.882,-0.217,5.885
-12.92,-3.638,-9.871,6.179,-0.577,7.705,3.007,6.556
-6.184,0.294,-1.537,10.491,4.486,11.698,4.444,9.206
-4.862,-0.038,1.977,11.083,7.383,10.881,2.339,11.205
-8.641,-4.308,0.003,6.283,3.245,5.77,-1.042,9.005
-12.351,-7.983,-4.271,1.421,-2.414,2.006,0.122,7.101
-10.654,-6.475,-6.012,1.852,-2.531,3.833,5.915,10.481
-6.599,-3.119,-5.477,3.314,-1.263,6.317,9.084,14.878
-7.443,-4.885,-7.566,-0.057,-4.704,4.088,6.481,14.14
-12.096,-9.429,-11.959,-4.758,-11.034,0.818,3.492,10.278
-14.665,-9.374,-13.302,-6.089,-18.829,-0.164,3.817,6.883
-16.695,-7.01,-13.157,-7.578,-29.398,-4.34,2.517,0.849
-21.772,-8.907,-18.019,-11.979,-34.527,-13.659,-4.18,-7.241
-24.139,-11.367,-22.982,-13.367,-22.829,-16.743,-9.118,-7.613
-17.719,-7.2,-17.124,-7.467,-2.623,-6.345,-6.137,0.885
-9.369,-0.344,-5.86,-0.83,6.36,5.314,-2.046,5.248
-8.454,1.092,-3.45,-0.737,1.904,5.681,-2.861,0.206
-12.159,-1.635,-9.15,-4.152,-2.948,0.66,-3.503,-4.826
-13.095,-3.265,-12.073,-4.711,-3.244,0.112,-0.695,-4.059
-10.436,-3.416,-8.5,-2.37,-3.411,2.369,1.452,-1.024
-7.18,-3.754,-2.921,-1.549,-2.509,1.248,1.06,1.197
-5.8,-5.063,-0.014,-4.799,2.094,-3.726,0.235,2.013
-7.425,-7.383,-0.421,-9.395,3.363,-8.003,0.103,1.302
-10.532,-8.614,-3.001,-10.128,-3.74,-8.084,0.798,0.849
-12.305,-6.673,-6.31,-5.485,-10.691,-4.09,1.861,3.307
-12.45,-4.06,-8.443,0.004,-9.296,0.759,2.047,8.406
-12.942,-4.81,-9.926,1.187,-3.203,2.882,2.001,13.062
-13.928,-7.663,-12.457,-1.058,-0.429,2.345,3.024,14.51
-13.406,-8.649,-15.114,-4.161,-3.516,-0.787,2.519,9.365
-10.618,-7.689,-16.275,-8.804,-8.6,-7.299,-2.306,-2.933
-7.24,-7.077,-16.243,-12.941,-12.207,-11.511,-7.779,-12.869
-6.476,-7.914,-16.98,-13.749,-13.698,-9.942,-8.464,-12.108
-9.927,-10.095,-18.632,-14.815,-12.623,-10.194,-5.852,-7.327
-13.836,-11.741,-16.997,-17.412,-10.458,-14.369,-4.734,-6.787
-13.183,-10.694,-10.97,-16.259,-8.359,-13.946,-4.493,-5.915
-9.976,-8.846,-8.753,-13.139,-5.11,-9.554,-3.059,-1.789
-9.093,-9.165,-15.004,-15.265,-2.549,-10.039,-2.595,-1.87
-8.376,-8.932,-19.914,-19.28,-2.449,-13.324,-2.891,-5.06
-4.447,-5.392,-15.553,-18.021,-2.816,-12.325,-1.124,-2.129
-1.173,-2.684,-9.484,-14.835,-3.827,-9.896,0.051,2.686
-1.897,-3.788,-9.815,-15.466,-5.791,-11.225,-2.665,-0.194
-3.27,-4.74,-11.801,-17.405,-6.156,-13.551,-6.024,-5.999
-2.209,-2.241,-8.194,-15.701,-8.249,-12.041,-6.332,-5.86
-0.734,0.688,-2.686,-11.81,-19.206,-8.454,-5.059,-2.938
-2.222,-0.592,-4.123,-10.6,-32.255,-7.623,-4.944,-3.458
-6.063,-5.213,-12.555,-11.929,-29.628,-9.09,-4.631,-4.407
-8.588,-8.78,-19.945,-12.566,-10.85,-9.427,-1.181,-2.062
-9.453,-11.098,-20.982,-13.013,3.273,-8.634,2.605,-0.862
-11.878,-14.415,-18.044,-15.318,1.804,-9.07,1.534,-4.664
-16.722,-17.206,-16.603,-17.878,-4.65,-10.951,-2.324,-8.473
-20.247,-16.141,-16.347,-16.486,-5.253,-10.653,-2.67,-5.495
-18.232,-10.819,-12.554,-9.904,-0.82,-5.179,1.257,2.306
-12.605,-5.136,-6.547,-3.301,3.892,1.798,4.289,7.411
-8.74,-2.911,-2.963,-1.535,7.737,4.346,3.842,9.06
-6.292,-2.175,-0.783,-1.223,10.334,3.619,3.552,12.175
-3.132,-0.43,1.709,0.697,6.143,2.845,4.565,14.11
-2.64,-0.738,1.1,-1.092,-6.562,-0.608,2.686,8.446
-6.46,-4.709,-5.63,-8.098,-15.382,-6.331,-1.294,-0.183
-10.097,-8.557,-14.128,-12.541,-10.334,-7.795,-2.321,-3.552
-11.638,-10.282,-16.285,-11.673,-1.401,-5.48,-1.592,-3.767
-13.42,-11.474,-12.12,-10.814,-0.973,-5.702,-3.108,-4.819
-14.059,-11.435,-8.634,-10.528,-3.918,-6.559,-4.831,-2.927
-10.388,-7.678,-7.445,-7.109,-1.772,-2.614,-3.474,1.988
-4.911,-1.955,-5.769,-3.927,0.437,0.966,-1.628,-0.02
-1.633,1.092,-2.476,-6.754,-5.278,-3.12,-2.039,-8.881
-0.504,-0.245,1.837,-12.767,-15.386,-9.818,-2.732,-10.738
-1.319,-4.147,2.327,-15.829,-19.905,-11.48,-2.158,-4.599
-4.384,-7.19,-3.901,-14.063,-14.108,-8.286,-1.038,-1.327
-7.11,-7.096,-9.166,-8.438,-2.365,-2.37,0.284,-0.384
-7.343,-5.72,-7.589,-3.01,6.089,2.684,1.27,2.844
-5.548,-5.388,-3.113,-2.01,7.542,2.239,0.861,4.2
-0.615,-3.477,3.523,-1.974,6.164,-0.172,-0.226,3.74
7.431,2.16,13.943,2.331,3.465,2.248,-0.694,7.865
11.683,6.255,19.169,5.778,-2.493,5.523,-1.552,12.383
7.68,4.554,12.071,1.751,-6.577,2.573,-2.391,8.693
2.672,2.352,3.326,-3.749,-2.328,-1.701,-0.599,0.984
3.86,4.66,3.979,-2.904,4.197,-0.487,1.454,-3.978
8.27,8.492,9.427,0.57,5.137,1.675,0.479,-6.226
11.077,10.647,13.105,1.805,5.965,1.081,0.602,-3.423
12.187,11.619,15.919,3.678,11.542,3.182,4.534,4.705
12.093,10.923,17.204,6.925,12.858,8.607,7.027,9.756
9.341,7.163,13.108,6.48,3.751,9.917,4.681,7.171
4.716,2.426,6.744,2.606,-5.958,6.217,1.117,2.585
2.682,1.111,5.959,1.698,-4.804,4.154,-0.235,1.426
5.321,4.268,9.21,4.624,5.303,5.799,0.176,3.511
10.497,9.342,10.721,7.445,13.087,8.532,2.582,8.907
15.782,13.716,14.038,9.536,12.409,11.187,6.732,14.922
17.382,14.146,19.41,9.555,7.653,11.281,7.689,11.331
12.37,8.938,16.426,5.296,4.281,7.384,3.66,-0.736
6.537,4.103,6.794,3.938,5.091,7.639,2.365,-1.194
7.289,6.448,6,12.978,12.506,18.081,8.614,14.998
10.936,11.619,15.491,23.347,22.031,27.463,15.219,26.23
10.36,11.615,21.307,22.988,24.321,24.46,15.354,22.966
6.171,7.192,17.233,15.658,19.334,16.424,11.068,16.691
2.032,3.282,9.72,10.027,14.036,12.996,5.646,9.322
-0.694,1.445,6.727,6.751,8.903,10.604,0.267,-3.047
-1.1,1.751,10.773,5.083,0.329,5.824,-2.814,-10.487
2.654,5.619,18.218,8.051,-7.025,5.355,-0.643,-2.749
9.78,12.12,22.02,14.973,-3.21,12.328,6.422,12.729
13.93,15.189,16.605,16.961,8.592,16.169,11.397,17.402
11.597,12.481,5.078,10.182,13.823,10.793,8.524,6.333
8.157,9.648,-2.037,5.294,10.179,8.327,2.347,-1.444
8.003,9.333,-0.766,9.323,7.892,15.58,0.001,6.729
9.669,8.967,5.158,13.354,9.974,19.535,3.201,15.602
11.26,8.149,12.274,10.082,8.7,12.134,7.868,9.838
10.584,6.555,13.052,3.78,-1.04,2.1,4.928,-3.653
6.506,3.509,3.035,-0.756,-11.06,-2.542,-5.572,-11.352
3.545,2.938,-6.434,-1.609,-7.979,-0.274,-8.235,-8.499
6.204,7.447,-4.4,3.104,7.709,8.319,2.714,3.211
11.41,12.029,4.859,10.47,20.846,17.342,12.995,17.859
13.637,11.986,12.52,13.678,22.356,19.73,12.641,23.829
12.8,9.779,14.35,11.812,19.315,16.661,8.036,15.133
12.528,9.631,10.626,9.825,18.843,12.963,7.289,2.377
14.491,12.029,6.309,9.938,15.122,9.536,9.045,-2.627
17.092,15.599,7.682,11.02,4.389,7.08,8.765,-0.784
17.335,18.019,13.785,11.627,-1.523,7.688,7.671,3.111
13.792,16.137,16.3,9.868,7.016,9.621,8.951,6.012
9.004,10.63,11.893,6.129,19.94,9.086,10.222,4.503
6.95,6.518,6.925,4.194,22.717,6.841,7.402,-0.712
8.143,6.604,6.342,5.825,17.33,6.732,2.98,-2.274
10.171,8.989,7.669,8.745,15.507,9.434,3.326,3.525
11.451,10.83,8.365,10.283,19.199,11.442,8.278,9.776
11.841,11.474,9.015,9.914,19.27,10.966,10.149,10.245
12.48,12.708,10.308,10.671,12.514,12.49,6.492,10.011
14.448,15.25,11.76,14.566,7.981,17.571,4.404,13.611
15.577,15.86,11.52,16.103,10.465,17.091,6.678,13.201
13.212,12.188,9.656,10.866,12.331,7.238,7.384,4.28
8.013,6.245,8.531,3.474,5.852,-1.824,2.587,-4.862
2.789,1.539,7.97,-1.259,-6.926,-4.13,-4.782,-9.252
1.786,1.766,6.793,-1.957,-13.266,-2.523,-7.63,-9.386
6.05,6.687,4.83,2.285,-4.136,2.557,-2.66,-3.095
10.728,10.501,2.238,7.757,9.5,8.579,3.724,4.662
13.772,11.523,1.617,8.469,12.793,8.412,3.643,1.672
17.074,13.192,3.738,5.751,6.593,3.493,-2.423,-9.587
17.554,13.792,3.574,4.672,-1.802,2.249,-9.316,-13.669
12.422,10.288,-0.617,4.199,-6.3,3.542,-13.794,-8.891
9.448,8.751,-1.405,3.438,-1.511,2.688,-12.618,-5.005
15.597,14.934,6.339,8.064,9.247,6.28,-4.273,-1.842
23.44,21.794,15.263,17.965,14.909,17.647,4.15,4.252
24.465,21.749,17.068,23.3,11.848,24.356,5.371,8.155
22.688,19.535,14.86,20.2,7.392,19.164,3.386,6.851
22.971,20.712,13.845,16.303,7.26,13.382,4.03,5.886
22.323,22.05,13.664,17.667,7.266,16.054,4.786,8.417
19.22,21,14.845,20.871,2.129,19.429,2.743,10.097
16.548,20.731,16.598,21.268,-1.845,16.499,1.349,7.179
14.996,22.382,13.694,20.694,4.052,14.591,4.021,5.376
12.776,22.166,6.492,21.822,13.559,19.863,7.946,11.692
8.892,16.735,0.05,20.251,15.033,22.964,7.637,17.404
4.491,7.896,-3.68,12.663,11.447,15.955,3.584,12.168
2.034,0.859,-2.525,6.897,11.123,8.934,1.741,4.418
1.76,-2.036,3.895,8.889,9.177,10.415,3.466,1.554
1.203,-2.734,9.123,11.708,0.349,12.171,4.357,-1.175
-1.616,-3.998,6.148,7.911,-6.64,6.633,1.645,-4.181
-6.556,-6.936,-4.405,-0.848,-5.19,-2.533,-3.539,-7.235
-10.818,-9.53,-12.846,-7.02,-1.809,-7.266,-8.763,-14.013
-9.577,-7.361,-8.827,-3.399,-2.077,-1.298,-10.223,-17.034
-0.705,1.44,5.041,8.419,-0.176,11.611,-3.012,-4.8
10.43,11.799,15.589,18.659,10.738,19.313,11.497,16.862
15.58,15.853,17.191,21.585,25.164,18.743,23.261,32.215
13.657,11.812,15.169,18.192,29.473,16.343,24.305,33.161
11.014,5.936,13.997,12.375,19.477,14.895,17.365,23.549
10.947,4.414,12.529,9,7.43,13.537,10.856,12.698
9.601,5.3,8.01,6.187,4.81,8.44,7.405,2.074
6.22,4.742,3.173,1.079,8.974,-0.039,5.288,-6.531
6.657,5.875,4.66,1.987,14.527,1.131,7.718,-0.148
11.009,10.264,10.532,10.176,18.554,12.735,12.649,15.372
12.193,11.588,11.75,10.849,15.79,14.242,7.523,13.776
9.427,8.093,8.248,2.94,7.595,4.309,-5.449,-1.068
8.702,6.757,8.485,1.291,1.733,3.161,-9.576,-4.189
9.866,8.735,12.489,3.696,-1.045,7.796,-5.379,-0.163
6.695,6.466,9.805,-3.687,-2.621,-1.149,-3.694,-6.408
0.832,0.037,-0.679,-15.524,-1.553,-17.577,-2.409,-16.448
-0.205,-2.447,-5.793,-17.704,-0.165,-21.696,0.306,-17.648
1.273,-2.424,-1.985,-13.503,-1.478,-15.085,-2.46,-12.985
-0.981,-5.767,-0.833,-11.844,-1.994,-10.386,-8.281,-8.351
-2.121,-6.827,-4.81,-7.759,0.234,-6.304,-7.116,-1.782
3.03,-0.773,-4.009,3.519,-0.707,2.347,-0.945,6.738
5.887,2.373,0.763,10.169,-7.047,6.354,0.472,8.723
-1.129,-4.515,-2.198,2.654,-10.388,-2.891,-2.03,2.741
-8.655,-11.082,-11.095,-7.06,-4.229,-13.549,-0.096,1.775
-4.841,-6.969,-11.057,-4.114,8.46,-9.645,7.961,11.539
5.862,1.925,0.233,6.628,19.973,4.165,16.326,19.76
10.781,4.713,8.071,10.415,22.346,10.502,16.398,12.829
9.084,2.758,6.541,5.9,17.587,6.082,7.714,-3.791
8.718,2.284,6.921,2.547,16.206,1.81,3.063,-9.783
7.059,-1.469,10.689,-0.018,15.305,-0.746,6.33,-1.219
-0.656,-10.431,8.193,-5.207,5.775,-5.122,7.555,6.95
-3.767,-11.31,5.367,-4.705,-2.494,-3.401,8.046,11.224
5.033,0.887,10.735,5.618,2.798,8.852,16.668,18.576
14.488,12.611,14.094,15.592,13.463,20.116,26.963,25.428
13.599,12.887,7.098,15.526,15.074,18.848,24.342,22.673
3.97,2.89,-1.894,6.437,4.906,8.128,9.586,11.774
-4.849,-8.067,-3.028,-0.955,-5.981,1.44,-0.226,3.39
-4.845,-9.896,2.456,1.106,-3.619,4.239,4.63,2.967
0.63,-3.87,7.742,5.83,9.149,6.2,14.423,5.727
3.527,0.812,10.34,5.938,14.511,1.346,16.15,6.28
2.943,1.321,9.771,6.176,8.674,-0.548,10.388,6.305
1.637,0.684,5.678,8.942,6.528,4.902,6.899,9.061
2.179,1.438,3.805,9.27,12.702,8.771,9.829,12.095
8.267,6.046,11.102,9.621,18.536,10.293,14.815,12.731
19.1,14.047,24.01,15.149,21.739,15.243,16.795,11.968
26.141,18.993,31.292,19.085,22.251,17.292,14.144,10.235
24.929,18.345,29.356,17.486,18.602,13.1,11.653,11.499
22.572,18.55,25.713,20.165,17.279,14.465,15.897,21.149
23.193,20.112,23.655,26.087,21.906,20.974,21.457,28.2
20.575,15.239,18.109,20.83,22.961,16.537,17.278,14.983
14.158,6.408,10.961,8.437,16.027,4.228,7.559,-6.848
12.503,4.397,10.593,6.1,11.706,1.907,5.719,-9.902
17.046,8.72,15.917,12.823,15.798,7.875,11.688,2.337
19.937,10.44,19.456,17.412,19.201,10.193,14.409,8.546
19.491,10.535,22.298,21.539,17.045,12.523,12.229,8.305
21.946,15.91,29.437,28.847,18.782,19.933,13.705,12.683
24.864,20.045,32.999,29.387,26.448,22.365,18.457,18.202
19.548,12.037,22.617,18.435,25.035,15.076,16.22,12.762
10.197,-0.853,8.955,9.483,12.679,9.461,9.498,2.438
5.912,-6.264,7.241,9.986,9.746,10.971,11.677,6.011
2.529,-8.348,10.656,10.528,20.617,12.249,19.36,18.751
-5.184,-13.904,7.726,5.442,23.597,8.507,17.087,18.017
-9.941,-16.67,2.734,0.252,8.707,2.18,5.698,2.918
-6.048,-11.44,1.971,-0.39,-6.109,-1.453,-1.638,-7.108
0.654,-4.859,3.104,2.05,-3.314,0.69,-0.217,-3.583
2.893,-4.075,2.092,3.303,9.371,3.698,6.465,5.487
-0.348,-8.335,-1.572,0.608,14.443,0.598,12.618,9.728
-4.549,-12.293,-3.356,-2.952,9.548,-5.366,12.343,5.245
-4.21,-11.2,0.793,-2.181,3.24,-6.403,7.121,-2.317
-0.704,-6.538,4.873,0.044,1.776,-4.447,4.286,-3.673
-0.152,-4.612,1.049,-2.729,6.072,-5.193,6.163,2.345
-0.674,-5.341,-3.406,-6.526,12.545,-5.488,9.287,7.995
4.31,-2.76,2.418,-4.203,16.561,-3.05,10.407,7.448
10.957,1.691,10.333,-0.66,14.932,-4.542,8.851,2.932
12.148,2.437,7.922,-2.334,8.451,-9.452,8.051,1.669
11.536,1.935,3.224,-3.862,3.976,-8.089,12.239,8.317
11.754,1.915,6.213,-1.992,5.698,-2.045,16.564,16.248
5.425,-4.186,6.637,-4.851,7.604,-1.41,13.023,14.591
-7.963,-15.56,-3.962,-13.864,5.18,-5.238,6.476,5.448
-15.462,-19.556,-13.471,-17.278,4.161,-5.262,5.6,-1.482
-9.16,-10.791,-10.731,-9.155,8.644,0.451,8.148,-3.728
2.829,1.088,-1.646,2.269,13.377,7.275,9.771,-2.677
8.984,5.896,5.336,5.806,12.749,7.97,11.246,1.159
8.002,4.233,8.142,-0.313,9.082,0.72,11.887,4.123
5.007,1.549,5.04,-7.612,7.931,-4.899,8.836,2.032
3.833,0.427,-1.978,-9.091,9.398,-2.618,3.484,-2.986
5.78,1.746,-4.898,-6.154,10.866,0.64,1.64,-5.09
7.639,3.902,-2.727,-4.247,12.295,-1.145,4.835,-3.747
4.952,2.708,-2.314,-6.166,12.905,-4.426,7.631,-2.621
1.343,-0.164,-2.366,-7.018,11.595,-2.438,8.097,-0.056
3.037,1.14,3.64,-1.22,10.949,5.092,10.133,6.744
7.932,5.179,13.641,6.982,12.748,10.593,13.675,13.187
11.706,6.841,20.555,11.466,14.229,11.703,14.737,14.342
12.83,5.494,18.263,11.606,12.847,11.781,12.397,11.721
9.465,2.527,5.742,6.642,8.487,8.024,8.537,8.732
4.386,1.154,-6.081,0.255,4.432,1.362,5.933,5.895
4.49,5.27,-6.514,1.56,6.975,1.942,7.226,2.735
7.873,10.692,-1.916,7.275,12.629,7.783,9.287,1.362
5.658,9.001,-3.378,5.868,8.232,7.419,4.342,2.882
-1.468,1.967,-9.117,-0.777,-4.777,2.365,-6.912,2.217
-4.228,-2.288,-11.69,-5.722,-10.663,-2.28,-13.919,-4.937
0.662,-1.163,-8.723,-7.825,-6.214,-5.896,-11.806,-10.47
7.613,3.697,-1.756,-3.689,-0.671,-2.749,-6.401,-4.488
9.541,8.365,4.827,5.286,2.759,5.072,-2.731,4.004
6.402,8.439,7.221,9.378,5.036,4.615,-0.202,1.034
3.857,4.781,5.075,5.857,2.821,-5.413,-0.46,-9.435
3.239,1.491,-2.546,-0.721,-5.6,-14.308,-6.654,-16.664
5.287,3.191,-10.18,-3.679,-13.216,-11.395,-11.583,-14.326
15.186,13.312,-4.921,3.452,-11.638,4.732,-6.236,-2.581
29.306,24.454,9.133,11.272,-4.054,16.124,0.349,4.402
32.996,23.3,11.766,3.505,-0.88,7.39,-3.911,-3.146
19.649,10.518,-2.475,-11.79,-2.939,-7.563,-12.193,-12.322
0.282,-1.718,-19.951,-16.63,-3.203,-11.199,-14.698,-13.202
-9.911,-7.532,-26.572,-13.858,-1.562,-8.751,-14.172,-13.89
-9.907,-8.587,-19.861,-11.42,-3.078,-6.936,-14.863,-17.211
-7.044,-5.25,-7.467,-4.356,-6.806,0.062,-14.408,-14.131
-1.094,2.737,3.191,7.244,-5.346,10.7,-8.225,-2.984
7.768,10.336,9.089,10.986,4.296,11.586,2.673,5.289
11.03,10.917,9.352,3.384,13.782,0.298,8.028,1.645
6.592,5.928,7.179,-4.123,15.354,-9.705,2.124,-8.099
3.693,3.533,8.044,-3.905,12.852,-9.164,-5.27,-11.131
6.806,6.402,10.003,-0.495,10.784,-2.766,-7.121,-7.267
10.524,9.514,7.785,0.696,6.732,1.249,-8.883,-4.89
11.577,11.009,6.228,1.335,0.885,2.594,-10.449,-4.317
12.336,13.659,11.445,4.2,-1.072,5.219,-4.601,-1.708
13.274,16.029,16.249,6.578,2.182,7.497,4.288,2.278
11.837,13.464,11.397,3.917,4.652,4.396,2.487,2.544
7.555,6.17,0.28,-3.577,2.788,-3.878,-11.133,-6.287
2.857,-1.023,-7.637,-10.519,0.03,-10.293,-22.245,-18.944
0.544,-4.002,-7.502,-10.267,0.592,-7.84,-21.527,-21.118
1.778,-1.852,-0.604,-1.043,3.407,2.053,-13.981,-10.047
3.902,1.946,6.807,8.935,2.935,9.43,-7.551,1.451
3.56,2.159,9.265,9.216,-0.347,7.271,-4.286,3.247
3.304,-0.749,8.72,2.931,2.27,1.366,-2.834,-1.778
6.754,-1.345,8.605,1.337,11.644,0.11,-2.484,-3.971
10.224,1.167,8.071,4.519,17.955,1.415,-3.566,0.053
9.167,2.724,7.933,4.989,16.943,0.912,-5.437,2.448
6.101,2.509,9.812,1.635,13.034,-1.511,-7.589,-3.187
4.749,2.752,10.174,-1.681,9.745,-5.366,-10.611,-10.056
2.679,2.357,6.804,-2.882,6.209,-7.829,-12.417,-9.763
-3.727,-1.655,4.668,-3.11,-0.818,-6.635,-10.909,-7.394
-10.53,-7.219,7.336,-3.019,-10.081,-4.488,-9.234,-9.93
-11.514,-9.651,10.025,-1.62,-12.73,-3.516,-10.368,-12.548
-9.137,-9.84,6.851,-1.266,-6.758,-3.742,-12.987,-10.748
-8.707,-11.263,0.104,-5.04,-2.237,-5.864,-15.296,-8.951
-7.513,-11.451,-1.45,-7.821,-1.38,-6.373,-14.916,-9.182
-1.625,-6.527,6.463,-2.263,5.066,0.271,-9.489,-5.622
4.606,-0.711,16.539,6.856,15.079,8.274,-3.152,3.662
4.814,-1.024,17.827,7.792,13.334,5.627,-3.748,6.923
1.311,-4.609,10.862,1.601,0.285,-4.037,-10.353,-4.249
2.721,-2.259,8.508,1.355,-3.243,-4.454,-13.076,-15.937
8.531,3.991,15.325,7.619,7.614,4.016,-9.532,-14.925
7.06,2.137,17.708,5.627,12.709,2.761,-8.816,-10.451
-3.831,-7.502,8.601,-5.303,3.181,-9.228,-13.631,-10.63
-10.511,-10.356,2.119,-7.41,-5.98,-10.902,-15.226,-8.293
-5.486,-1.433,7.748,3.173,-5.538,1.487,-9.848,-1.776
0.824,6.718,14.529,9.701,-6.002,6.3,-5.803,-1.231
-2.743,4.065,11.935,4.157,-14.464,-6.696,-10.05,-9.06
-12.778,-4.467,4.059,-2.968,-21.55,-19.291,-17.049,-14.585
-21.076,-12.086,-2.672,-5.912,-20.188,-16.049,-19.007,-12.972
-26.966,-19.739,-9.916,-12.761,-16.227,-10.157,-19.02,-12.294
-31.346,-26.835,-18.801,-23.823,-15.368,-15.286,-22.171,-17.107
-28.984,-26.34,-20.659,-24.961,-14.654,-18.53,-22.729,-19.83
-16.875,-15.615,-9.227,-11.259,-9.049,-7.057,-15.024,-13.912
-4.668,-4.228,3.847,2.952,-2.334,6.401,-8.18,-7.078
-4.429,-3.318,1.522,2.665,-3.92,2.674,-12.912,-11.024
-12.352,-10.549,-11.913,-10.152,-11.529,-15.397,-22.25,-20.481
-13.89,-13.464,-13.359,-17.929,-13.9,-24.889,-21.98,-19.69
-5.641,-7.028,3.332,-9.235,-8.887,-15.056,-11.425,-7.626
0.176,-1.743,13.848,1.887,-2.287,-3.704,-2.76,0.554
-5.102,-8.038,2.254,-2.312,0.058,-6.123,-5.02,-4.083
-13.753,-17.906,-12.221,-11.791,-4.759,-10.109,-12.838,-12.307
-15.866,-18.4,-11.259,-9.534,-11.189,-2.658,-15.124,-12.938
-14.499,-13.751,-5.726,-2.846,-11.247,4.882,-11.266,-9.134
-15.691,-14.246,-7.082,-5.361,-6.71,-1.473,-8.227,-7.171
-17.16,-18.126,-8.764,-12.697,-4.744,-13.879,-9.669,-6.189
-15.594,-19.067,-6.764,-14.661,-6.757,-16.842,-14.231,-6.127
-13.5,-17.53,-8.151,-11.997,-8.739,-10.521,-17.406,-8.717
-13.623,-16.695,-14.13,-10.262,-8.755,-6.439,-16.173,-11.003
-14.607,-16.387,-15.879,-10.55,-8.724,-10.049,-12.898,-9.604
-14.992,-15.277,-11.957,-11.762,-9.059,-16.44,-12.161,-8.544
-14.934,-12.959,-10.432,-11.642,-7.665,-16.744,-14.454,-11.277
-11.885,-7.041,-10.58,-4.579,-4.02,-5.872,-14.301,-10.73
-1.375,5.022,-4.123,10.47,0.507,10.915,-7.718,-2.181
11.533,16.375,4.201,19.607,1.796,17.127,-1.179,4.425
11.935,14.17,0.287,8.433,-5.055,1.941,-5.293,-2.538
-1.671,0.324,-12.308,-12.282,-16.467,-18.527,-17.778,-17.945
-11.445,-8.153,-14.959,-19.447,-23.196,-20.97,-24.481,-24.363
-8.181,-4.852,-7.04,-10.895,-22.293,-10.173,-19.827,-17.075
-2.75,-0.199,-4.771,-0.818,-15.764,-3.119,-11.791,-8.35
-4.402,-1.681,-9.404,3.651,-5.534,-0.121,-5.336,-3.364
-8.328,-5.437,-10.093,3.33,3.9,3.211,1.765,2.556
-7.778,-6.351,-8.828,-0.987,5.908,3.159,4.019,3.543
-3.383,-3.456,-13.755,-6.713,-0.352,-1.054,-7.86,-9.288
1.152,2.345,-19.219,-7.135,-6.863,-3.366,-24.661,-24.254
3.414,8.049,-15.594,0.643,-6.743,-1.037,-27.672,-24.292
3.792,10.82,-7.574,9.53,-1.853,2.721,-17.133,-14.735
4.704,11.672,-3.637,12.679,3.771,6.152,-7.038,-9.585
4.941,10.655,-2.356,10.577,7.962,8.74,-4,-9.489
0.528,4.64,-2.529,3.467,5.347,5.504,-7.939,-10.099
-5.208,-2.74,-7.588,-5.629,-4.792,-3.659,-15.578,-11.387
-5.374,-2.94,-15.079,-7.846,-10.384,-7.929,-18.426,-12.235
-4.057,0.574,-18.589,-4.907,-5.656,-4.309,-13.254,-10.252
-8.921,-2.707,-16.278,-7.257,-1.972,-2.163,-7.436,-6.352
-15.161,-10.754,-10.792,-12.842,-7.701,-3.732,-6.555,-4.41
-13.199,-13.09,-6.38,-11.159,-13.634,-1.97,-6.356,-6.005
-4.631,-8.81,-5.549,-2.552,-7.673,4.033,-1.84,-6.802
-0.52,-7.508,-8.436,1.452,3.561,4.718,1.206,-4.52
-3.889,-11.844,-11.99,-3.973,5.972,-3.643,-2.551,-2.657
-4.636,-12.731,-8.775,-8.814,2.48,-9.255,-3.675,-0.948
1.493,-7.184,2.26,-3.963,4.264,-4.053,4.565,3.258
6.318,-2.528,10.415,6.664,11.231,5.064,12.629,7.679
3.889,-2.965,7.919,13.272,15.28,9.872,12.634,9.488
-4.868,-8.09,-1.898,8.465,12.411,6.27,8.077,9.026
-13.73,-13.951,-9.71,-4.136,6.638,-3.273,5.241,8.068
-13.758,-12.682,-8.695,-8.837,3.094,-6.395,6.425,7.276
-7.077,-6.273,-4.913,-2.342,-1.324,-0.752,5.786,4.022
-6.207,-7.157,-9.94,-1.63,-10.971,-2.086,-2.111,-2.538
-12.167,-14.896,-21.123,-11.01,-17.749,-14.331,-9.233,-6.921
-13.495,-16.319,-25.154,-14.998,-12.785,-20.379,-7.413,-6.146
-7.658,-9.921,-17.565,-9.778,-4.072,-11.398,-3.688,-4.728
-3.121,-5.582,-7.338,-5.837,-1.732,1.027,-4.523,-4.62
-4.208,-7.213,-5.277,-6.623,-1.323,3.782,-4.378,-3.377
-7.161,-10.838,-9.44,-7.047,4.219,-1.029,0.561,-1.559
-5.931,-10.703,-7.596,-2.004,11.735,-0.914,6.249,1.245
1.542,-4.079,2.51,8.788,12.226,8.357,10.205,9.394
9.049,3.433,9.3,16.747,3.894,14.761,12.859,19.231
6.984,1.094,3.847,10.323,-4.643,5.513,10.519,16.328
-4.054,-11.571,-9.005,-6.394,-6.779,-11.088,1.268,-1.066
-12.292,-21.521,-16.07,-14.975,-4.261,-14.982,-6.779,-13.314
-11.879,-20.618,-12.464,-9.962,-1.261,-5.906,-6.455,-9.36
-7.618,-13.464,-4.469,-2.616,0.232,-0.051,-1.244,-1.201
-3.08,-6.722,3.093,-0.004,-0.703,-2.531,2.36,-0.711
1.445,-3.423,8.257,0.821,-4.693,-5.246,2.911,-4.667
2.488,-5.459,7.231,1.756,-9.325,-4.648,1.386,-7.237
-2.776,-12.587,-0.37,-2.45,-10.342,-7.957,-2.213,-9.844
-7.368,-17.467,-7.327,-10.626,-5.42,-14.756,-3.983,-10.46
-2.123,-11.359,-5.637,-8.467,3.661,-9.268,1.34,-2.375
8.254,1.604,2.667,7.247,9.133,10.582,9.009,9.005
11.406,7.817,6.73,18.15,3.938,22.186,10.087,10.472
6.884,3.953,2.779,13.263,-7.136,13.88,5.936,3.271
5.321,0.322,-0.687,5.109,-10.364,2.492,4.623,0.766
10.386,3.172,2.497,6.393,-1.531,3.391,8.423,6.871
15.511,7.762,7.662,12.711,7.115,10.145,12.158,12.799
17.996,10.583,8.96,15.617,8.017,12.149,11.875,12.6
22.18,14.02,8.723,15.712,9.571,11.118,10.393,10.906
28.456,18.27,12.392,17.687,16.073,13.459,11.043,14.324
31.501,20.394,19.008,21.042,18.401,18.443,11.677,19.921
28.372,19.527,21.909,19.92,10.796,18.944,10.091,17.9
19.957,15.913,17.171,11.223,-1.098,10.565,7.131,5.295
9.429,10.297,6.535,-0.008,-8.571,-1.663,3.665,-8.922
2.893,6.61,-4.865,-6.081,-7.271,-8.722,1.271,-14.267
3.765,7.537,-9.777,-5.249,-0.598,-8.536,1.026,-10.966
8.282,10.058,-5.493,-0.885,6.46,-4.587,2.513,-4.592
11.41,10.554,0.812,3.643,14.038,0.103,6.332,3.85
11.801,8.982,2.188,6.028,18.817,2.733,10.204,10.194
10.67,7.537,1.13,5.727,12.887,1.992,9.197,7.611
9.204,7.411,1.467,3.522,-0.983,-1.587,4.686,1.198
6.706,6.272,0.334,-0.362,-9.379,-6.385,1.346,-1.503
3.715,3.197,-3.41,-3.695,-6.773,-7.567,-0.348,-3.552
4.143,2.673,-2.532,-2.161,-0.336,-1.782,-0.366,-5.68
8.722,6.211,4.928,2.919,2.932,5.391,1.792,-3.976
12.735,8.609,9.284,4.681,2.518,5.876,4.116,-0.722
13,7.328,6.753,1.343,1.71,0.355,5.33,1.417
10.785,5.504,5.075,-1.826,4.776,-4.202,6.178,4.022
8.453,5.031,7.878,-1.255,10.357,-4.173,6.258,5.575
6.841,4.718,10.195,0.295,9.293,-2.546,5.257,3.115
7.537,5.694,11.176,0.07,0.846,-3.002,6.007,0.695
13.409,11.966,15.379,2.592,0.07,-1.446,10.865,4.854
20.243,20.277,19.031,9.71,10.34,6.004,15.762,12.328
16.824,17.94,13.565,9.097,11.716,8.29,13.017,11.414
2.321,1.792,2.045,-6.519,-2.885,-4.7,2.992,-0.702
-9.109,-12.741,-4.307,-21.418,-13.14,-19.499,-3.793,-10.345
-7.487,-11.99,-0.507,-19.56,-7.288,-17.767,-1.215,-6.358
2.469,-0.127,9.08,-6.858,3.597,-3.698,6.24,4.895
9.77,9.324,15.18,1.242,9.701,5.023,11.659,11.188
6.159,7.324,10.988,-2.578,9.121,-0.76,9.696,7.182
-7.152,-4.021,-0.405,-14.347,0.753,-15.461,0.064,-3.826
-17.616,-12.952,-8.474,-22.593,-10.332,-25.191,-8.928,-11.546
-15.564,-11.208,-7.231,-19.566,-17.461,-22.253,-10.234,-9.32
-7.269,-4.514,-1.588,-10.558,-21.489,-13.468,-6.734,-3.179
-3.451,-1.806,0.974,-4.424,-21.784,-7.311,-3.66,-1.556
-3.876,-1.715,1.912,-1.317,-17.625,-2.711,-2.437,-3.837
-4.562,-0.949,5.235,-0.329,-17.925,-0.517,-3.634,-6.313
-7.997,-3.805,3.423,-6.355,-24.774,-6.855,-6.588,-8.32
-13.544,-9.984,-8.694,-15.547,-24.916,-15.596,-7.223,-8.324
-14.212,-11.284,-18.146,-16.206,-14.919,-15.355,-4.314,-5.784
-11.12,-8.864,-16.078,-12.574,-8.06,-12.382,-2.751,-4.956
-9.835,-9.806,-10.728,-15.633,-8.182,-15.084,-3.581,-6.469
-7.265,-10.323,-7.123,-18.311,-4.804,-15.129,-2.218,-5.274
-1.373,-4.911,-1.923,-11.336,3.55,-8.067,1.453,-0.962
1.474,0.588,4.456,-2.772,6.986,-4.176,3.656,2.603
-0.097,1.175,8.581,-0.785,3.744,-7.209,3.829,3.85
0.422,2.064,9.498,-0.303,0.827,-7.986,3.742,2.288
4.176,6.389,9.113,2.917,-0.543,-2.398,3.597,-0.17
8.142,11.924,12.755,7.529,-4.24,4.832,4.148,3.409
11.966,17.957,20.416,13.013,-8.4,9.609,7.318,12.929
9.827,17.188,17.191,11.294,-7.872,5.642,8.794,13.846
-3.11,1.805,-4.057,-5.296,-5.459,-9.407,2.712,0.45
-14.986,-15.088,-23.187,-22.216,-7.848,-21.64,-5.496,-11.054
-17.055,-18.691,-24.902,-24.271,-14.19,-21.419,-8.757,-11.047
-18.615,-17.5,-19.76,-19.867,-19.097,-17.448,-9.902,-9.688
-22.921,-20.22,-16.639,-17.465,-20.373,-14.211,-11.442,-12.522
-22.904,-20.899,-13.556,-12.925,-20.028,-8.876,-10.584,-13.029
-20.314,-17.753,-13.095,-7.06,-19.762,-7.207,-7.394,-10.461
-20.626,-16.106,-15.681,-6.588,-17.169,-13.482,-6.032,-11.256
-20.18,-14.571,-12.165,-9.999,-10.105,-17.437,-6.426,-12.387
-13.181,-7.474,0.484,-7.355,-2.692,-8.438,-2.787,-4.553
-2.884,2.483,12.145,4.158,-1.204,7.147,5.277,8.231
1.413,5.929,13.308,12.928,-3.719,13.697,9.968,13.125
-3.742,0.186,5.549,9.211,-3.941,7.221,6.813,7.35
-11.643,-7.278,-3.387,0.276,-3.656,-0.703,-0.072,-1.678
-14.893,-9.141,-9.13,-1.945,-6.594,-1.747,-4.536,-6.667
-14.764,-6.885,-11.677,0.019,-9,-2.456,-5.361,-6.317
-16.174,-7.074,-12.341,-3.546,-8.668,-8.09,-5.697,-5.341
-18.13,-10.949,-12.462,-11.049,-9.179,-11.765,-6.87,-6.6
-16.189,-12.582,-11.395,-11.879,-9.87,-7.386,-5.957,-5.897
-9.463,-7.225,-5.541,-1.233,-6.437,3.545,0.012,0.807
-0.673,2.372,7.303,12.429,-1.985,13.759,8.763,9.163
4.832,7.912,18.507,15.221,-2.856,13.497,13.252,10.749
2.11,4.95,13.814,6.484,-5.246,3.656,10.822,5.907
-5.36,-1.141,-2.131,0.154,-0.757,-2.011,7.22,4.226
-8.804,-3.531,-9.277,3.158,8.167,3.226,6.333,8.552
-7.32,-2.648,-4.508,8.215,11.787,10.234,4.944,10.145
-5.566,-0.684,0.526,9.835,7.439,10.837,1.346,4.484
-3.955,2.662,2.23,9.972,0.323,7.849,-1.222,-1.237
-3.204,4.94,1.095,8.364,-5.644,4.463,-1.59,-1.669
-7.14,1.867,-4.695,2.908,-9.171,1.04,-2.845,-0.828
-14.512,-5.523,-12.436,-3.495,-8.41,-0.374,-6.141,-2.569
-18.226,-10.261,-14.559,-6.249,-5.443,0.109,-8.063,-4.763
-14.23,-7.198,-7.347,-4.455,-5.514,0.852,-6.167,-4.234
-6.273,0.114,0.975,-0.74,-6.98,2.267,-2.694,-2.358
-1.337,4.414,-0.926,1.323,-5.589,3.04,-0.567,-2.412
-1.958,3.895,-9.09,0.97,-4.867,0.68,0.475,-2.855
-4.6,1.49,-10.946,0.332,-9.062,-3.283,1.011,-0.925
-5.293,-0.834,-6.191,-1.059,-14.664,-5.813,-0.455,0.36
-3.912,-2.991,-2.307,-5.286,-15.692,-6.484,-2.96,-1.42
-2.746,-4.093,0.246,-8.545,-10.99,-4.899,-2.718,-2.601
-3.858,-3.039,2.539,-6.153,-2.661,-1.439,0.435,-1.075
-6.465,-0.97,2.293,-1.492,8.278,1.145,3.559,1.316
-6.805,0.585,2.122,1.124,17.144,2.624,4.871,3.228
-3.539,2.03,5.504,2.566,15.679,3.716,3.588,2.964
-0.999,2.944,6.712,1.487,5.538,0.86,-0.171,-0.987
-3.582,0.79,-0.711,-5.044,-1.986,-6.881,-4.456,-5.56
-8.112,-3.067,-10.595,-10.332,-1.509,-10.043,-5.32,-4.756
-7.83,-2.829,-11.835,-5.482,2.068,-1.65,-0.817,1.684
-3.909,1.061,-6.079,2.864,0.933,7.832,3.973,6.192
-2.496,2.093,-2.505,3.133,-7.107,5.883,3.247,4.002
-2.325,1.325,-0.201,-0.669,-15.512,-2.153,-0.385,-0.045
0.888,4.194,4.589,1.072,-17.061,-4.109,-1.762,-0.404
2.78,6.324,4.301,4.996,-12.633,-0.794,-1.985,0.097
-1.745,1.927,-6.098,2.562,-7.352,-1.763,-2.991,-1.911
-6.547,-2.549,-15.72,-3.455,-2.262,-5.982,-1.885,-1.304
-4.714,-0.131,-15.114,-3.646,3.839,-2.456,2.149,6.183
-0.74,4.35,-9.593,1.868,7.317,8.513,4.083,14.339
0.11,5.397,-4.861,5.075,3.361,14.383,1.729,15.585
1.527,5.902,0.713,4.715,-4.34,11.338,-0.039,10.534
5.036,7.534,5.359,4.506,-6.996,6.077,1.233,2.261
3.26,5.507,2.759,2.253,-3.52,-0.199,0.863,-7.525
-5.394,-0.732,-5.502,-3.336,-0.959,-9.49,-2.735,-13.852
-10.403,-4.181,-8.878,-4.98,-2.286,-14.385,-4.181,-12.446
-8.332,-4.304,-5.492,-2.228,-4.448,-10.283,-1.998,-6.363
-7.701,-7.149,-4.935,-4.823,-6.533,-6.28,-1.049,-1.437
-8.899,-9.493,-8.898,-10.981,-8.806,-5.791,-2.798,-0.268
-5.673,-5.951,-10.491,-11.748,-10.777,-3.545,-4.189,-2.249
-1.912,-3.075,-9.836,-10.563,-14.103,-2.568,-4.197,-4.993
-3.109,-5.343,-12.478,-12.622,-16.252,-6.386,-3.218,-4.743
-4.43,-5.738,-17.917,-13.937,-11.974,-9.408,-1.202,-0.372
-1.643,-1.717,-20.367,-12.385,-6.433,-8.374,-0.519,2.164
1.881,1.262,-18.29,-11.096,-6.02,-6.556,-2.732,-1.462
4.014,3.365,-15.719,-10.054,-5.903,-5.177,-4.306,-4.877
5.717,8.032,-15.89,-6.279,-3.666,-2.138,-3.274,-2.778
5.647,11.644,-17.67,-0.302,-4.979,2.039,-3.258,-0.329
3.374,10.363,-16.797,4.817,-9.251,4.832,-4.948,-0.481
2.015,7.667,-12.172,7.671,-9.197,5.934,-3.592,1.254
3.181,7.353,-7.564,8.746,-4.075,6.41,1.214,5.158
6.053,9.184,-3.535,9.747,-0.361,6.857,4.268,7.206
9.232,11.221,1.627,10.659,-1.631,6.378,3.226,6.781
10.964,11.481,3.243,8.845,-3.818,3.452,0.489,4.417
11.44,10.422,-3.118,4.417,-1.85,-0.609,-1.088,0.48
11.507,9.673,-11.447,0.298,0.01,-3.464,-1.784,-2.511
10.303,8.733,-12.612,-1.642,-6.235,-4.545,-3.333,-2.567
9.59,8.537,-5.683,1.189,-13.821,-1.249,-3.359,0.71
11.23,11.198,1.115,7.962,-8.486,6.723,0.893,5.525
10.255,12.962,-0.401,9.142,3.583,9.433,4.087,5.791
3.598,9.083,-8.115,1.238,4.799,1.664,0.559,0.15
-2.135,3.221,-14.043,-3.865,-3.644,-4.837,-4.907,-3.199
-1.167,2.272,-14.48,0.876,-8.578,-2.163,-5.568,-1.25
2.203,5.382,-11.871,5.231,-8.523,0.738,-3.703,-0.993
1.116,5.553,-10.599,1.311,-11.323,-1.674,-4.933,-4.928
-2.143,2.793,-9.796,-2.326,-15.39,-1.733,-7.717,-6.956
-0.902,4.232,-6.296,1.061,-11.21,2.285,-6.303,-3.777
4.017,9.957,-2.498,4.239,-2.459,2.515,-0.606,0.938
7.502,13.148,-1.204,3.171,-3.626,0.359,4.048,4.043
8.741,12.537,-1.138,3.552,-13.032,3.346,5.197,6.503
8.546,12.36,-1.905,6.196,-13.17,8.362,5.697,9.288
4.988,12.69,-4.808,5.706,-1.139,8.285,6.598,10.312
-1.373,10.447,-8.612,1.951,6.649,4.581,4.356,7.504
-5.016,7.074,-9.695,-0.865,1.636,1.544,-1.876,3.009
-3.529,6.013,-6.749,-2.017,-6.223,-1.088,-7.128,0.854
-0.752,6.752,-2.758,-2.67,-6.72,-3.725,-7.549,1.081
-0.168,7.098,-1.505,-2.277,-2.584,-3.938,-6.349,-1.011
-1.131,6.909,-3.327,-0.797,-0.679,-1.667,-8.209,-7.157
-1.271,6.971,-4.822,0.866,-1.255,0.097,-10.719,-10.547
-1.141,6.034,-3.945,2.336,-2.125,0.112,-9.646,-6.997
-3.449,2.702,-2.261,3.788,-5.641,-0.417,-6.876,-2.608
-5.003,1.075,1.287,7.987,-11.376,2.38,-4.184,1.051
-1.99,3.566,6.537,14.222,-13.269,8.36,-0.971,6.435
-0.787,2.181,5.71,12.316,-11.901,7.065,-0.325,4.798
-4.53,-5.617,-0.472,1.212,-9.614,-3.353,-2.705,-5.788
-4.913,-8.558,0.099,-3.576,-0.338,-7.467,-2.182,-9.162
-0.406,-2.683,7.205,3.187,14.481,0.11,1.769,-2.063
0.452,2.601,9.566,8.902,20.533,6.071,2.607,0.525
-3.736,3.096,7.045,5.77,12.033,2.688,-1.096,-3.948
-5.36,3.861,8.247,-0.266,-2.372,-2.405,-3.91,-4.811
-1.638,6.544,11.886,-2.28,-12.395,-1.933,-4.063,-1.47
2.041,7.479,8.918,-2.219,-11.449,0.215,-4.671,-2.065
2.665,7.003,1.502,-2.31,0.46,0.33,-4.604,-5.137
3.094,8.405,0.752,1.383,12.748,2.61,-0.634,-1.888
4.021,9.302,6.006,6.516,14.539,6.097,3.437,4.882
2.998,6.201,7.733,3.811,8.104,3.341,1.376,3.011
1.191,2.81,6.2,-5.196,2.974,-3.807,-4.763,-6.758
2.023,3.511,7.56,-9.039,3.36,-6.238,-6.866,-10.504
5.76,6.843,12.094,-2.688,6.791,-0.788,-2.236,-4.006
10.687,10.516,16.915,8.036,8.893,7.737,3.597,2.85
15.178,14.022,19.256,12.705,9.02,10.604,5.73,4.336
16.768,15.957,17.289,7.208,10.037,4.666,5.126,4.056
13.762,14.115,13.026,-0.818,10.494,-2.573,3.201,2.879
9.522,9.993,11.467,-2.493,8.002,-3.904,-0.47,-0.789
9.874,9.733,14.768,2.514,7.966,0.349,-2.635,-2.616
13.04,13.651,17.162,8.068,12.887,5.544,0.428,0.248
11.777,13.418,13.542,8.48,14.568,6.53,4.755,2.776
6.944,7.592,10.127,4.954,10.086,3.586,4.841,2.187
4.754,3.884,11.759,2.73,7.522,2.1,2.547,1.706
4.243,3.619,11.944,3.157,9.321,4.039,1.359,2.022
1.955,2.053,8.527,3.982,8.508,5.52,0.533,0.886
1.771,1.053,10.076,4.16,4.031,3.259,0.61,-0.061
6.996,5.212,17.662,5.078,2.588,1.033,3.721,1.791
10.345,9.679,18.455,6.424,3.336,3.275,6.247,3.521
5.225,7.367,7.397,4.983,-1.078,5.099,3.573,1.555
-1.773,1.87,-3.105,1.14,-8.87,1.76,-0.857,-2.131
-2.564,-1.257,-3.732,-1.612,-11.713,-1.637,-1.97,-3.753
0.606,-3.357,1.176,-2.673,-7.233,-0.337,-0.385,-1.883
3.321,-4.585,6.233,-2.025,1.455,3.535,2.447,3.423
5.24,-3.046,10.991,1.228,10.657,7,6.794,10.441
6.382,-0.905,14.909,5.551,17.074,8.97,11.033,14.486
6.566,-0.625,16.814,8.35,18.061,8.614,12.041,11.875
5.934,-2.281,16.743,7.939,12.652,5.188,8.732,5.277
3.06,-6.929,14.578,2.54,3.994,-1.676,2.616,-1.298
-2.777,-13.994,10.24,-5.466,-0.368,-8.983,-2.884,-7.768
-7.429,-17.412,6.944,-6.793,3.007,-8.405,-3.628,-11.238
-6.12,-13.27,8.719,1.417,5.112,1.488,-0.028,-6.87
-1.721,-7.136,13.561,7.416,-1.771,7.723,2.424,1.444
-0.408,-4.471,16.76,4.493,-6.732,4.095,2.976,6.047
-1.606,-2.619,18.011,2.46,1.416,2.117,6.108,6.919
-1.813,0.256,19.241,7.375,12.779,7.991,10.244,7.379
-1.107,1.775,21.278,12.746,15.198,13.922,10.621,7.379
0.479,2.35,23.821,14.822,12.572,15.351,9.121,6.657
3.35,3.347,25.152,15.41,11.166,14.348,8.603,6.502
4.846,3.245,23.639,14.153,8.448,11.1,7.145,7.241
2.682,1.586,19.682,10.947,1.74,6.788,3.918,8.016
-1.466,-0.603,15.41,8.682,-5.807,6.626,1.442,8.169
-4.145,-2.949,12.853,8.895,-10.389,11.329,1.202,7.652
-2.515,-2.78,12.192,10.87,-10.369,14.816,2.249,7.196
3.317,2.534,13.221,14.202,-5.28,14.33,3.506,7.897
8.684,8.369,15.453,17.342,1.868,12.755,4.525,8.79
8.879,8.175,15.964,17.501,6.094,11.493,4.64,7.755
4.411,3.503,13.273,14.069,6.439,9.198,3.201,5.302
-1.819,-1.601,9.29,7.577,3.762,4.241,-0.312,2.015
-8.236,-7.852,6.039,-0.403,-2.316,-2.375,-5.218,-2.53
-12.386,-13.396,6.008,-3.943,-7.174,-4.326,-7.807,-4.918
-12.434,-13.262,8.318,0.038,-4.287,1.274,-5.614,-2.642
-11.088,-9.236,7.299,6.402,2.417,7.688,-1.933,0.107
-9.294,-4.452,5.207,13.693,5.484,13.068,1.261,2.058
-3.8,2.371,10.118,22.224,5.664,20.007,6.389,7.377
1.584,6.165,16.476,21.281,3.647,18.684,10.164,12.983
-1.7,-0.438,12.82,7.04,-1.743,4.769,6.573,11.576
-10.699,-11.332,4.329,-4.477,-5.119,-3.911,-0.15,5.847
-14.213,-14.786,3.507,-3.066,-2.176,2.871,-1.798,3.709
-10.561,-10.889,9.377,2.941,3.556,11.983,0.848,5.537
-7.845,-8.469,12.727,4.618,8.679,12.079,2.314,6.416
-8.34,-9.306,12.166,3.06,13.094,7.478,2.265,5.52
-6.681,-7.395,13.132,2.424,15.756,5.154,3.26,5.511
-2.389,-2.226,16.309,3.257,14.144,4.965,5.173,6.211
0.945,1.714,19.09,5.293,9.084,5.439,7.055,6.292
3.772,4.145,21.71,9.537,5.946,7.804,7.652,6.736
6.672,6.053,21.926,14.337,7.617,11.153,4.976,7.398
8.093,5.808,16.963,15.321,11.49,11.379,1.017,6.701
8.562,3.488,11.787,10.547,14.156,6.393,-0.213,6.458
9.347,2.604,11.93,5.044,14.497,2.378,1.39,11.029
9.9,5.083,15.753,6.492,14.456,7.987,3.746,19.426
9.683,7.804,19.682,12.802,14.173,17.872,4.654,22.784
9.868,8.014,22.041,15.622,8.342,20.35,4.001,17.488
10.298,6.985,19.983,13.326,-1.048,15.448,3.541,9.846
7.599,4.536,10.631,6.305,-3.092,5.727,1.115,-0.638
1.925,-0.22,-0.934,-4.433,2.039,-7.006,-3.833,-15.461
-1.366,-4.047,-5.003,-9.886,4.582,-11.837,-4.639,-20.298
-0.97,-4.824,-1.164,-5.232,1.693,-4.929,-0.727,-10.408
-0.004,-4.39,3.337,0.507,-3.248,0.165,0.023,-4.546
0.484,-4.046,4.257,-0.674,-6.078,-3.395,-2.451,-9.043
-0.89,-5.085,-0.088,-6.047,-5.238,-6.728,-3.077,-10.963
-5.403,-7.891,-8.362,-9.392,-3.166,-5.218,-3.204,-7.803
-8.7,-8.548,-12.446,-7.746,0.355,-3.184,-3.59,-5.937
-6.574,-5.036,-7.412,-2.578,6.436,-0.739,-2.278,-4.767
-2.218,-1.729,-1.637,1.147,8.985,3.24,-1.833,-2.546
-0.267,-1.593,-3.612,-0.326,4.432,2.881,-4.244,-2.222
-0.316,-2.5,-7.859,-5.115,0.112,-3.703,-6.796,-5.438
-1.818,-4.425,-7.768,-10.895,-0.228,-10.248,-8.465,-9.539
-5.945,-9.05,-6.776,-17.854,-4.396,-14.001,-9.997,-10.952
-7.905,-10.843,-4.844,-19.887,-14.795,-12.954,-9.039,-7.657
-1.926,-3.353,3.152,-10.457,-18.241,-3.722,-3.414,-0.677
6.339,7.099,10.505,0.196,-5.776,5.063,4.194,5.547
8.275,9.709,7.464,-1.413,10.996,1.784,8.794,7.67
5.858,5.857,-0.018,-8.649,18.17,-6.98,8.459,7.335
4.457,3.986,-3.21,-8.576,17.748,-7.628,6.041,7.174
2.747,4.699,-4.232,-4.557,14.817,-1.989,3.924,5.436
-1.63,2.556,-5.704,-7.292,8.152,-2.438,1.016,0.157
-5.669,-2.51,-5.85,-14.956,1.898,-9.511,-1.965,-4.17
-6.743,-6.157,-5.447,-16.643,2.902,-10.812,-2.816,-2.683
-7.575,-8.602,-7.906,-11.775,5.525,-5.223,-3.51,0.21
-9.507,-12.186,-11.96,-10.762,-0.019,-5.487,-5.809,-2.211
-8.288,-13.679,-11.388,-15.766,-9.884,-12.943,-6.04,-6.524
-2.553,-8.917,-4.802,-16.998,-11.742,-14.184,-2.128,-4.427
2.245,-0.703,0.504,-9.53,-2.735,-4.762,2.074,4.137
2.037,3.826,-2.422,-1.655,3.629,2.864,2.493,10.535
-1.835,1.057,-11.737,-3.863,-6.664,-1.763,-2.625,6.574
-6.864,-5.481,-21.191,-15.398,-26.165,-13.323,-11.761,-7.392
-11.956,-10.067,-27.881,-26.323,-34.499,-21.345,-18.141,-21.217
-16.069,-11.334,-30.648,-29.272,-25.782,-22.774,-16.03,-24.603
-17.881,-11.588,-28.216,-25.176,-14.085,-20.102,-8.88,-18.277
-16.946,-12.011,-21.961,-20.114,-13.137,-16.719,-4.652,-10.021
-13.199,-10.027,-16.515,-16.213,-17.374,-12.502,-3.982,-2.746
-8.042,-4.147,-15.629,-10.594,-14.106,-5.254,-2.1,3.792
-5.664,0.152,-17.825,-6.491,-6.078,0.118,-0.636,5.307
-7.071,-1.908,-18.208,-9.414,-1.571,-2.007,-3.458,-0.374
-7.895,-6.616,-15.043,-14.911,0.303,-7.414,-6.848,-6.575
-6.986,-9.617,-13.27,-16.337,0.111,-10.355,-6.115,-6.579
-5.95,-9.928,-14.523,-11.933,-3.037,-7.148,-1.112,1.661
-2.271,-6.033,-11.331,-1.199,-3.857,5.032,7.079,16.405
4.125,-0.249,-4.887,8.781,-0.948,16.561,12.746,23.728
6.314,0.119,-7.385,5.159,-1.376,11.084,7.557,9.65
1.467,-5.839,-17.283,-9.019,-6.248,-6.691,-4.679,-10.855
-4.142,-10.013,-21.294,-16.351,-9.767,-16.09,-11.322,-14.129
-5.371,-8.352,-18.784,-12.671,-12.695,-13.329,-10.846,-7.005
-4.497,-5.479,-16.892,-7.834,-18.844,-9.353,-10.839,-6.798
-5.367,-4.844,-14.091,-5.923,-22.243,-7.211,-11.469,-8.987
-6.641,-3.753,-7.758,-3.963,-15.563,-3.515,-7.097,-3.156
-4.82,0.235,-3.613,-1.035,-6.593,2.027,0.487,4.267
-2.25,3.1,-8.339,-1.575,-6.955,4.818,3.321,2.54
-3.482,1.168,-18.493,-7.494,-11.232,2.034,0.535,-2.961
-7.312,-1.691,-24.012,-10.319,-8.977,0.534,-2.099,-1.165
-11.942,-3.437,-23.788,-5.058,-6.591,4.802,-3.933,3.124
-17.373,-7.729,-23.811,-1.685,-14.299,5.882,-8.115,-1.479
-19.965,-13.593,-24.217,-8.115,-24.466,-2.376,-12.305,-10.318
-17.674,-16.336,-23.054,-16.145,-24.352,-10.538,-11.364,-10.03
-14.123,-15.024,-20.174,-15.334,-15.98,-8.763,-6.149,-0.324
-10.469,-10.407,-14.141,-8.189,-7.914,-1.842,-1.881,7.938
-6.108,-4.859,-8.916,-3.238,-3.292,0.886,-0.988,7.584
-5.709,-4.143,-11.719,-4.219,-2.354,-2.232,-2.93,0.046
-10.889,-8.985,-17.488,-8.49,-3.256,-6.882,-5.626,-6.004
-13.532,-11.589,-16.144,-8.887,-2.133,-5.978,-5.063,-2.222
-9.203,-8.281,-10.911,-2.922,0.606,1.569,-0.461,7.282
-5.215,-6.219,-10.554,0.571,-0.829,4.547,2.321,9.345
-7.016,-10.006,-14.487,-4.851,-7.308,-2.868,-0.633,1.205
-7.563,-10.76,-15.333,-9.844,-8.159,-7.305,-2.884,-3.68
0.348,-0.618,-9.598,-3.64,3.472,2.526,2.945,4.067
9.64,10.92,-3.137,6.325,14.756,14.168,10.152,13.741
9.447,10.728,-3.376,4.684,11.152,8.962,7.102,10.986
1.56,1.329,-8.886,-8.333,-1.237,-9.122,-3.276,-1.019
-5.545,-6.829,-13.449,-17.779,-9.161,-20.047,-9.622,-9.83
-7.694,-8.943,-14.031,-13.891,-9.503,-14.753,-8.41,-10.578
-4.587,-5.794,-11.793,-3.303,-3.745,-3.162,-3.412,-6.609
0.273,-1.71,-9.602,0.473,4.146,0.969,1.319,-1.842
3.089,0.538,-5.683,-1.998,8.077,-0.031,5.588,3.973
6.431,4.236,3.542,1.959,9.164,6.067,12.469,12.278
11.944,9.316,10.266,10.598,10.332,15.015,19.987,19.419
13.388,8.719,3.43,9.187,6.885,12.297,19.753,19.129
8.142,2.494,-9.882,-0.288,-1.053,2.153,10.787,12.297
4.024,0,-13.547,-1.582,-2.869,0.752,3.863,7.248
5.249,2.791,-9.001,3.994,3.438,5.981,5.139,7.152
4.897,2.146,-9.832,0.724,5.202,2.17,7.88,6.097
-0.405,-3.466,-15.587,-9.568,-3.139,-8.686,4.804,1.117
-3.875,-6.521,-16.137,-12.794,-10.113,-11.618,-2.287,-3.604
-2.163,-4.949,-13.286,-9.447,-7.305,-7.5,-7.198,-5.64
-0.685,-2.822,-14.447,-7.81,-1.509,-6.405,-8.127,-6.693
-3.008,-2.279,-17.88,-7.827,-0.133,-7.702,-8.701,-8.109
-4.881,-2.443,-18.217,-5.747,-1.438,-6.041,-9.521,-8.933
-2.305,-1.358,-15.174,-1.326,-2.049,-1.99,-6.902,-7.753
-0.028,0.548,-13.885,1.359,-3.186,0.266,-3.044,-6.763
-3.308,0.359,-18.174,-1.172,-6.992,-0.402,-4.062,-8.535
-5.545,0.008,-20.891,-4.616,-10.453,-1.437,-6.977,-8.369
2.553,6.068,-11.478,-0.997,-6.935,-0.391,-2.343,-0.486
14.573,15.497,3.289,6.562,4.156,1.426,8.997,9.626
15.52,14.955,5.165,4.557,11.882,-0.85,14.071,11.58
7.19,4.439,-5.932,-7.013,8.349,-5.701,8.866,6.785
4.387,-0.767,-12.809,-12.456,2.138,-5.203,4.672,4.456
8.094,2.672,-10.216,-7.235,1.978,0.736,6.316,5.43
9.165,5.33,-5.856,-0.912,1.695,5.635,7.155,5.127
8.234,5.371,-2.064,1.222,-4.633,6.674,6.495,4.925
8.084,5.344,-0.367,0.26,-6.895,4.027,8.742,7.428
2.057,0.937,-6.79,-3.918,2.734,-1.842,10.195,7.722
-11.672,-9.214,-17.626,-10.373,11.277,-7.529,5.952,2.206
-20.408,-14.666,-20.326,-11.952,8.869,-6.606,2.018,-0.99
-16.524,-9.424,-13.16,-4.076,4.74,1.356,5.331,4.724
-10.663,-4.161,-5.979,5.586,5.118,7.428,10.859,11.139
-13.827,-9.527,-6.064,5.9,4.295,4.156,9.065,7.709
-22.062,-20.556,-14.035,-5.567,-1.669,-7.498,0.645,-2.719
-26.595,-26.728,-24.109,-20.681,-9.64,-19.845,-4.997,-8.723
-25.516,-25.895,-27.253,-26.499,-14.234,-23.385,-4.725,-6.699
-20.405,-20.956,-20.89,-19.107,-12.917,-16.6,-3.034,-2.918
-13.068,-13.944,-11.119,-10.227,-9.866,-8.377,-1.82,-1.373
-7.733,-8.674,-6.558,-9.767,-10.798,-5.493,-0.398,-1.12
-7.895,-9.236,-12.3,-12.331,-11.69,-5.51,0.881,-1.479
-11.689,-14.574,-22.488,-11.553,-5.953,-5.863,2.773,-2.25
-13.97,-19.033,-24.297,-9.985,0.966,-7.503,6.701,-2.849
-12.928,-18.504,-17.298,-9.681,0.885,-8.386,8.096,-4.48
-11.331,-14.869,-12.733,-9.353,-3.276,-6.537,1.012,-7.842
-9.487,-11.652,-12.107,-8.457,-3.379,-4.513,-6.002,-6.897
-5.468,-9.647,-9.526,-6.941,2.033,-4.102,-1.694,2.19
-1.607,-9.317,-7.14,-5.538,5.946,-4.418,5.923,9.587
-0.599,-10.149,-7.715,-4.561,4.095,-3.4,7.518,8.713
-0.37,-8.813,-5.42,-1.172,3.095,1.711,9.912,9.184
1.521,-3.79,3.342,5.834,8.049,9.302,15.507,15.086
3.946,1.918,11.404,11.253,11.453,12.666,14.219,15.661
3.351,4.963,9.621,10.399,6.164,8.893,5.582,8.338
-1.887,4.083,-0.003,5.613,-3.361,1.788,2.066,3.617
-7.308,0.732,-5.662,2.508,-7.528,-2.045,7.948,5.538
-7.668,-0.408,-3.356,3.839,-1.141,1.781,13.862,8.684
-4.554,3.032,-1.276,5.998,9.344,7.687,11.755,8.404
-0.36,8.323,-0.682,4.607,15.084,7.09,9.417,7.162
6.939,12.919,7.1,4.163,19.623,4.335,20.713,13.247
16.044,16.43,20.728,10.846,24.259,8.044,36.466,25.855
21.479,18.784,27.643,19.979,18.841,14.743,35.558,31.866
20.271,17.63,20.486,19.956,2.731,13.522,19.558,21.624
12.575,9.808,2.204,3.992,-12.945,-1.254,-1.111,-1.985
2.859,-0.245,-15.982,-18.805,-20.778,-20.479,-22.296,-22.201
-1.722,-3.888,-22.014,-28.431,-18.118,-26.587,-31.402,-24.355
1.081,-0.245,-15.017,-18.404,-7.66,-15.353,-20.684,-14.709
8.697,6.982,-1.384,-1.067,0.36,0.864,-4.408,-5.327
17.428,15.206,13.427,10.624,-2.223,9.011,2.206,2.099
21.867,19.547,20.425,12.176,-11.29,5.111,0.649,6.198
18.054,15.377,13.304,6.534,-14.704,-3.943,-1.833,2.784
8.976,6.318,1.587,1.645,-7.607,-7.152,-2.644,-4.102
1.404,0.929,-1.9,2.429,1.822,-2.025,-1.127,-4.583
-2.384,0.152,0.341,5.349,5.364,4.19,1.743,1.883
-3.972,-1.517,2.265,6.524,4.877,6.511,3.301,6.639
-3.694,-4,7.006,7.749,5.172,6.359,4.003,5.943
-2.685,-3.527,12.423,9.614,6.82,5.517,6.033,4.21
-2.593,-0.762,11.627,10.504,8.186,5.916,8.129,5.626
-1.003,2.036,10.359,11.932,8.267,8.609,7.873,8.777
4.404,5.238,15.257,15.501,8.09,11.003,6.647,9.554
9.968,8.098,18.848,17.816,7.447,11.206,6.313,6.317
9.954,5.918,14.219,11.666,3.479,7.025,5.056,1.103
4.06,-2.433,6.558,-3.165,-0.321,-3.074,2.886,-1.751
-1.275,-8.446,2.993,-13.013,3.492,-10.592,2.876,0.043
-0.249,-4.513,3.059,-7.36,10.631,-6.113,4.345,3.277
4.771,4.026,3.216,4.792,9.414,3.866,4.22,3.322
5.881,5.307,2.799,7.269,-0.395,5.502,1.764,-0.747
0.069,-3.396,1.621,-1.974,-7.699,-2.907,-2.163,-5.38
-6.581,-12.501,-0.403,-9.701,-6.232,-9.284,-4.706,-5.734
-9.61,-14.715,-1.672,-7.602,-0.866,-5.648,-3.36,-2.518
-12.696,-14.171,-2.114,-2.935,1.115,0.577,-1.419,-1.758
-16.36,-14.788,-1.082,-1.864,-0.437,1.72,-2.241,-4.112
-15.861,-13.906,4.12,0.205,-0.366,1.859,-2.505,-3.607
-12.663,-11.076,9.793,4.735,3.254,4.697,0.185,0.913
-11.383,-8.548,8.699,6.014,7.764,6.983,2.77,4.463
-11.289,-6.341,3.75,2.556,9.182,5.497,3.215,4.749
-9.279,-3.813,3.965,-0.255,5.173,1.121,3.597,3.884
-3.999,-0.523,9.255,2.123,0.65,-1.275,6.188,4.066
3.441,4.364,13.173,8.006,3.905,2.105,9.329,5.459
10.238,10.02,15.403,12.027,11.962,7.854,8.795,6.194
14.448,13.71,17.033,11.081,11.988,8.99,3.464,3.38
16.133,14.659,13.895,7.644,0.569,5.44,-1.892,-3.083
14.975,14.062,6.869,6.117,-11.412,2.609,-3.001,-9.236
9.996,11.52,2.675,5.127,-13.892,-0.713,-2.889,-11.87
3.796,6.921,1.023,1.127,-6.69,-7.011,-4.508,-10.776
0.706,2.175,-2.244,-2.967,3.323,-10.114,-5.024,-7.687
0.162,-1.725,-5.395,-3.849,7.468,-8.088,-4.366,-5.533
-0.195,-3.814,-5.019,-3.132,3.452,-6.877,-4.304,-4.545
0.892,-2.269,-2.176,-1.105,-1.475,-5.877,-1.463,-2.405
2.917,0.32,-0.787,1.615,-1.526,-2.689,3.495,-0.941
1.681,-1.07,-2.345,0.816,1.123,-2.178,3.473,-2.796
-2.447,-4.771,-3.258,-3.143,3.453,-5.9,-1.663,-4.671
-4.601,-5.707,-0.961,-3.573,3.699,-6.878,-5.607,-3.749
-2.905,-3.756,2.201,3.417,1.233,0.292,-4.913,-1.553
1.948,-0.385,7.042,13.79,-1.086,11.674,-0.145,0.791
8.268,4.412,14.934,18.74,-1.066,17.422,4.613,2.633
10.716,7.759,15.93,13.977,1.029,13.202,5.068,3.322
5.986,6.768,4.406,5.561,4.685,5.836,1.884,3.481
-0.011,4.401,-5.319,2.289,8.118,3.828,-0.517,3.154
-0.63,3.986,-2.794,4.905,8.875,6.152,0.708,2.343
3.058,5.19,4.136,8.621,7.606,7.446,4.101,3.211
7.999,8.245,9.034,11.458,8.083,8.185,6.437,6.537
12.31,12.2,12.574,13.333,10.299,10.796,6.134,8.876
12.291,12.218,11.033,13.501,8.988,14.412,5.081,9.384
6.732,7.087,3.547,12.515,4.132,17.108,7.222,13.343
1.617,4.311,-0.621,12.085,4.231,16.96,11.269,20.572
3.369,10.461,2.693,13.384,9.716,13.157,10.818,21.818
8.77,18.784,6.522,13.247,4.221,5.112,3.531,11.173
7.827,15.952,4.46,4.57,-15.932,-6.754,-7.113,-7.689
-0.596,2.76,-3.051,-10.54,-24.077,-15.768,-14.582,-21.035
-6.304,-6.403,-11.076,-18.958,-7.84,-15.235,-15.174,-17.969
-5.198,-6.521,-15.011,-15.768,7.822,-8.019,-13.115,-9.115
-4.121,-5.633,-13.928,-9.051,8.1,-1.176,-11.671,-8.645
-5.971,-6.395,-10.45,-4.366,5.814,2.051,-8.488,-11.125
-5.856,-3.516,-6.565,0.151,6.684,2.212,-4.628,-8.817
-1.792,3.102,-1.791,6.09,5.37,2.555,-3.03,-5.192
4.023,9.38,3.103,12.9,5.372,7.201,0.305,-0.423
10.18,14.376,6.284,19.022,11.477,14.887,8.099,9.41
14.505,17.169,8.384,21.479,14.298,18.576,11.728,17.378
15.157,17.307,12.093,20.931,2.273,15.931,4.99,13.238
12.445,15.79,15.329,20.84,-16.226,11.532,-3.513,1.439
6.071,10.012,10.961,18.238,-20.117,7.505,-4.038,-4.214
-1.283,0.86,2.266,10.872,-3.473,4.89,2.033,2.46
-3.491,-2.909,-0.424,7.017,17.579,8.292,8.808,15.01
-1.221,-0.31,-0.622,10.245,24.856,15.378,11.731,21.289
-1.059,-0.237,-6.263,10.577,17.916,15.201,8.089,14.298
-3.671,-4.13,-11.192,4.201,10.192,7.039,1.083,1.032
-4.225,-5.319,-6.794,1.391,8.774,2.683,-2.335,-4.185
-2.134,-2.883,2.286,6.144,9.481,4.987,-0.892,-0.888
-0.508,-0.921,6.817,10.105,9.657,5.779,1.905,-0.171
1.716,1.327,7.584,10.463,10.682,4.763,3.77,-1.643
6.328,5.548,9.836,11.275,10.128,6.883,1.746,0.126
8.267,7.25,11.613,11.096,5.76,8.202,-4.287,0.167
4.379,3.62,10.3,8.298,2.007,5.003,-6.512,-2.917
1.535,0.222,10.696,7.826,2.522,3.735,-1.434,-1.478
3.736,1.748,14.3,11.999,5.416,8.941,3.716,5.351
4.53,3.71,14.419,16.647,9.092,15.501,5.302,11.981
0.545,0.853,10.015,18.585,13.462,17.644,6.881,15.631
-2.185,-2.468,8.193,18.017,16.604,14.928,8.316,13.518
0.39,0.013,11.431,16.486,17.136,10.659,7.116,5.98
4.255,4.798,15.535,16.577,17.864,9.555,5.969,3.618
4.997,5.315,17.474,19.278,21.189,13.452,8.226,12.652
4.216,2.5,17.763,21.038,22.865,17.727,10.813,20.526
5.542,0.016,16.989,16.728,17.601,14.444,7.681,12.825
7.572,-2.406,12.858,6.33,7.444,2.115,-0.77,-4.772
5.883,-5.046,5.199,-2.828,-1.985,-9.447,-6.255,-14.262
2.171,-4.658,2.184,-2.98,-4.963,-9.714,-2.902,-9.104
3.61,1.239,10.251,6.008,4.575,0.771,8.202,4.395
11.4,10.032,22.348,17.603,22.267,13.25,21.872,21.808
17.399,15.338,26.689,23.516,29.548,17.723,25.87,34.539
13.852,11.827,20.828,17.318,14.062,8.339,11.182,25.997
3.464,1.879,11.339,2.345,-12.86,-7.934,-9.564,-1.744
-2.901,-4.161,2.755,-7.317,-25.285,-15.438,-17.633,-22.893
-0.918,-1.037,-4.31,-4.796,-11.553,-10.607,-13.21,-22.711
1.074,3.491,-5.83,0.682,11.223,-5.058,-6.428,-10.931
-2.76,1.438,0.101,1.729,22.708,-4.354,-0.285,-1.216
-5.278,-3.615,8.406,2.876,22.703,-2.566,5.663,2.345
-0.312,-4.257,16.162,7.04,17.093,2.018,7.423,1.934
6.164,-0.074,21.755,10.255,8.147,5.529,3.268,1.053
6.582,3.055,20.357,10.56,3.999,7.31,-0.114,2.167
2.36,0.794,12.301,8.947,10.813,7.443,2.631,5.062
-0.298,-3.35,4.449,5.777,19.34,4.614,7.033,6.546
0.171,-3.29,0.733,1.478,16.937,-0.727,5.891,3.712
0.192,-0.304,0.826,-1.787,5.374,-5.063,0.457,0.465
-1.025,0.644,4.962,-0.199,-2.28,-2.83,-1.163,4.473
-1.794,-1.163,11.699,5.592,0.247,5.296,3.714,13.321
-3.61,-4.241,15.479,8.139,5.919,9.099,10.603,17.322
-7.269,-7.159,13.138,4.087,5.77,3.613,16.417,15.577
-9.607,-8.149,7.61,-1.177,-1.151,-3.76,19.691,13.243
-7.868,-6.241,3.776,-2.839,-7.89,-6.452,18.035,11.885
-2.933,-2.313,4.027,-3.628,-14.206,-8.459,7.787,8.206
0.478,0.299,4.267,-8.741,-24.939,-15.615,-10.338,-2.535
-2.02,-1.449,-3.9,-15.575,-27.25,-22.804,-22.425,-14.579
-9.49,-7.424,-19.17,-18.245,-13.833,-22.689,-20.142,-17.063
-16.717,-14.835,-27.669,-18.257,-4.427,-19.118,-15.28,-13.367
-17.462,-17.9,-22.335,-17.05,-4.075,-15.978,-12.405,-10.558
-10.572,-12.987,-10.799,-11.308,2.185,-10.279,-4.355,-5.778
-4.339,-6.126,-2.117,-4.668,7.98,-5.259,1.594,-0.138
-5.576,-5.187,0.962,-5.455,-1.203,-7.922,-3.974,-1.143
-10.443,-9.209,-1.47,-12.292,-13.89,-14.855,-10.351,-7.467
-13.159,-12.58,-7.506,-16.585,-12.114,-17.437,-6.234,-10.408
-11.698,-11.296,-11.37,-14.173,-0.879,-13.603,1.579,-7.069
-5.633,-5.218,-9.082,-8.499,3.198,-8.168,2.556,-2.907
0.892,0.559,-4.457,-6.597,-3.73,-7.746,-2.525,-3.042
0.483,0.31,-3.092,-11.006,-10.129,-13.185,-5.695,-5.406
-6.591,-5.324,-5.311,-15.648,-6.282,-16.952,-2.931,-5.481
-11.426,-10.323,-7.278,-14.377,2.826,-14.08,1.986,-2.865
-10.282,-11.525,-5.355,-9.974,6.254,-9.856,3.718,-0.145
-8.535,-11.284,-0.426,-8.713,2.52,-10.163,1.872,0.134
-9.176,-11.336,1.954,-10.708,-1.367,-12.26,0.051,-0.729
-8.933,-10.478,-1.353,-11.735,-1.661,-11.293,0.676,1.24
-6.27,-8.658,-6.136,-11.416,-0.808,-9.644,2.009,3.042
-4.751,-8.101,-6.652,-12.747,-1.058,-12.082,1.071,-1.302
-6.943,-9.817,-3.442,-15.065,-1.895,-15.961,-1.83,-7.328
-9.663,-11.261,-1.438,-15.143,-2.06,-16.261,-3.79,-9.046
-8.916,-9.245,-2.137,-13.21,-0.157,-14.749,-2.639,-9.9
-6.345,-5.227,-2.745,-12.118,3.13,-15.308,0.403,-11.448
-5.415,-3.381,-1.807,-12.507,4.271,-16.764,1.651,-9.735
-4.293,-2.908,0.557,-11.377,3.233,-15.145,1.274,-5.303
-0.526,-0.597,3.386,-7.768,3.017,-10.706,1.848,-3.045
1.856,1.393,2.938,-6.487,2.124,-8.8,1.203,-4.92
-0.263,0.467,-1.436,-9.692,-0.82,-11.11,-1.812,-7.164
-2.109,-0.252,-3.687,-12.177,-1.603,-12.89,-2.553,-6.015
0.958,2.785,-0.456,-10.383,1.342,-11.367,0.279,-4.333
6.357,8.458,4.28,-6.922,4.247,-8.756,2.756,-5.592
9.993,13.317,7.332,-3.717,6.696,-6.288,4.523,-5.703
12.369,15.832,10.232,0.435,10.911,-2.61,7.745,-0.406
14.722,16.579,13.196,4.12,14.299,0.95,9.736,4.935
15.727,15.543,13.169,3.558,13.135,0.533,6.742,2.804
14.999,12.364,9.549,-0.681,8.778,-3.517,1.227,-4.512
14.831,9.854,6.566,-3.153,5.45,-5.68,-1.096,-8.068
17.577,12.57,7.711,-0.831,5.573,-3.187,1.03,-4.761
22.751,19.225,10.513,2.455,7.414,-0.514,2.887,-1.433
28.556,24.657,12.125,3.393,9.068,-0.624,2.05,-3.314
35.756,29.947,16.021,6.307,12.875,1.909,3.558,-4.363
44.047,37.556,23.825,13.805,18.742,9.769,9.762,1.227
48.255,42.119,28.562,19.126,20.259,15.214,13.667,7.154
47.281,41.042,26.553,18.178,16.077,13.798,10.966,7.08
47.956,41.737,24.21,16.456,13.608,11.662,6.955,4.943
53.185,47.771,25.795,17.562,15.855,12.628,5.834,3.66
58.078,53.228,27.673,18.784,17.542,13.52,5.416,0.246
59.512,54.442,27.6,19.271,16.002,13.552,4.347,-3.907
59.506,54.588,28.151,21.434,14.276,15.804,4.274,-3.683
59.771,56.224,30.012,24.953,12.855,20.02,4.525,-0.849
59.766,58.044,30.89,26.96,8.163,22.361,2.462,-1.541
58.743,58.41,30.316,26.462,0.33,20.805,-1.256,-5.469
55.596,56.654,28.883,23.888,-4.581,16.086,-3.214,-6.872
49.861,52.945,25.759,20.719,-2.233,11.831,-2.121,-3.999
43.524,48.358,20.759,19.404,2.784,12.184,-0.407,-1.69
38.234,43.408,15.733,18.25,1.239,13.409,-1.551,-4.718
34.146,38.685,13.226,13.633,-9.645,8.543,-5.904,-10.591
33.348,37.325,15.011,9.954,-23.317,2.482,-9.199,-12.142
35.151,40.266,17.897,12.674,-30.526,3.69,-8.726,-9.581
31.468,40.627,14.14,15.064,-27.299,7.053,-8.15,-10.458
20.974,34.171,4.514,11.11,-18.779,6.753,-9.599,-13.731
14.745,28.877,-0.386,8.216,-14.271,8.767,-10.053,-12.12
17.005,31.267,1.848,10.038,-15.953,13.492,-9.293,-9.036
19.081,33.363,2.657,7.591,-17.465,10.963,-9.836,-11.941
15.408,26.253,-2.378,-1.926,-16.929,1.191,-11.835,-17.879
10.439,16.691,-8.654,-8.462,-17.29,-4.675,-13.869,-19.868
8.621,14.761,-11.162,-6.736,-15.678,-3.407,-15.443,-18.195
8.253,17.119,-10.546,-3.225,-11.481,-1.386,-18.049,-18.632
8.938,17.544,-8.243,-2.429,-10.794,-1.137,-20.827,-21.778
12.339,16.229,-3.313,-1.26,-13.45,-0.412,-19.28,-21.465
12.149,10.748,0.853,0.098,-15.233,-0.84,-14.827,-17.045
1.205,-1.328,-1.632,-3.049,-16.586,-4.979,-14.145,-15.242
-12.084,-11.574,-8.12,-8.664,-17.235,-8.619,-16.522,-17.086
-15.154,-11.073,-11.322,-10.539,-16.35,-7.68,-16.872,-16.942
-10.168,-4.323,-10.439,-9.474,-18.766,-6.205,-16.597,-14.849
-4.823,-0.186,-8.012,-9.617,-26.39,-8.584,-18.141,-16.787
-2.587,-0.883,-3.86,-10.168,-31.442,-11.808,-18.547,-21.95
-7.058,-5.232,1.295,-8.382,-30.152,-11.221,-15.852,-22.245
-16.332,-10.535,3.618,-4.199,-25.801,-7.28,-11.553,-15.183
-20.015,-11.382,1.384,0.149,-17.544,-3.649,-8.214,-7.091
-15.345,-6.563,-3.159,-0.125,-8.431,-4.504,-9.965,-5.91
-13.1,-4.144,-8.359,-8.536,-7.814,-11.828,-16.963,-13.567
-19.159,-9.832,-13.745,-19.976,-14.22,-20.831,-22.784,-23.626
-26.386,-17.014,-17.585,-26.121,-20.192,-24.71,-24.871,-30.734
-29.427,-18.278,-18.339,-25.66,-25.615,-23.226,-26.447,-35.482
-30.695,-16.74,-17.096,-21.523,-28.9,-20.158,-26.541,-35.358
-31.502,-18.8,-16.953,-16.337,-25.295,-17.873,-22.667,-27.287
-30.611,-24.574,-18.931,-12.528,-18.843,-15.999,-18.706,-17.744
-29.364,-29.446,-19.844,-9.768,-17.252,-12.272,-17.399,-12.868
-30.455,-30.37,-16.721,-6.36,-19.594,-7.62,-15.391,-9.722
-32.944,-27.588,-10.641,-3.596,-20.213,-6.124,-11.509,-7.411
-32.329,-22.085,-5.156,-3.149,-18.049,-7.215,-8.3,-9.262
-28.376,-17.891,-5.208,-6.314,-17.265,-9.106,-8.462,-15.01
-28.581,-23.027,-12.799,-15.74,-21.28,-16.16,-14.07,-22.936
-34.595,-35.601,-18.985,-26.588,-27.745,-26.662,-20.831,-28.916
-36.535,-40.598,-13.925,-26.148,-29.866,-27.205,-19.892,-25.276
-32.39,-34.013,-4.404,-13.869,-23.093,-15.15,-12.45,-13.615
-32.302,-29.447,-1.853,-3.502,-10.728,-4.829,-8.347,-6.105
-37.72,-32.66,-3.283,-0.489,-0.892,-3.114,-9.004,-7.298
-40.082,-34.053,-1.414,1.991,1.769,-2.655,-7.955,-9.918
-37.231,-28.776,2.043,6.722,-1.811,0.605,-5.084,-9.246
-33.469,-23.671,2.273,9.27,-7.16,2.83,-5.455,-8.565
-31.181,-24.416,-1.873,7.035,-9.087,1.884,-8.952,-11.053
-29.982,-27.67,-7.068,3.007,-6.477,0.308,-10.669,-13.676
-28.136,-27.017,-7.76,2.781,-1.336,1.961,-6.654,-9.55
-24.992,-23.006,-3.912,7.471,4.649,7.239,0.996,1.605
-23.023,-21.959,-2.257,10.258,8.081,9.787,3.192,8.516
-25.025,-25.431,-6.321,4.961,4.472,3.36,-5.356,1.362
-30.113,-29.192,-12.708,-5.163,-5.17,-8.315,-17.354,-15.869
-33.487,-30.471,-17.159,-12.246,-13.204,-15.659,-21.927,-29.444
-31.439,-29.521,-17.582,-13.525,-14.35,-15.059,-18.508,-30.078
-25.25,-26.561,-12.926,-11.75,-10.411,-11.038,-14.893,-22.931
-18.986,-21.796,-5.646,-9.202,-5.682,-8.506,-14.316,-18.179
-16.83,-18.863,-2.85,-6.747,-3.691,-7.889,-13.673,-17.329
-19.847,-21.68,-6.113,-6.063,-4.458,-8.275,-12.362,-17.393
-22.688,-25.97,-7.06,-7.2,-3.392,-9.495,-12.475,-17.641
-19.737,-23.821,-2.258,-6.878,1.798,-9.659,-12.01,-16.515
-14.34,-17,0.174,-3.754,5.173,-6.778,-8.65,-12.816
-14.261,-15.17,-4.887,-1.765,0.084,-3.729,-6.637,-10.255
-19.168,-20.648,-11.666,-3.439,-7.756,-4.308,-8.961,-11.485
-22.149,-25.314,-14.848,-5.28,-7.081,-6.121,-11.454,-13.411
-21.877,-24.584,-16.851,-5.035,-1.786,-6.061,-12.018,-14.361
-20.553,-21.74,-17.562,-4.085,-3.056,-5.07,-12.028,-14.324
-15.846,-17.368,-11.153,-0.425,-4.273,-1.634,-8.39,-8.799
-8.57,-10.288,-0.247,7.614,6.104,6.053,0.239,3.671
-6.501,-5.811,3.185,13.622,17.034,12.011,5.397,13.544
-11.377,-8.196,-3.984,11.474,11.94,10.4,0.312,11.545
-15.933,-12.916,-12.184,4.606,-1.793,5.076,-8.937,1.214
-16.653,-16.029,-15.282,-1.697,-7.588,0.659,-13.622,-8.742
-17.205,-19.806,-16.45,-7.658,-5.539,-4.943,-14.154,-15.078
-19.37,-24.801,-18.162,-13.474,-3.378,-12.255,-14.028,-17.169
-19.731,-26.727,-18.185,-15.458,-2.006,-15.587,-12.427,-14.557
-16.01,-23.341,-14.307,-11.186,-0.232,-11.104,-7.909,-8.55
-11.403,-18.611,-8.231,-4.568,1.013,-3.68,-3.268,-2.785
-10.408,-17.721,-5.907,-2.246,-0.271,-1.183,-4.032,-2.696
-12.675,-20.791,-10.264,-5.019,-4.972,-3.838,-10.22,-9.41
-12.893,-23.007,-14.184,-6.477,-7.826,-4.933,-12.991,-14.674
-7.35,-19.863,-9.896,-1.761,-2.625,-1.32,-6.503,-9.603
1.055,-12.017,-0.866,6.236,5.863,4.119,2.896,2.302
6.308,-4.72,4.084,11.351,9.15,8.46,6.265,8.926
5.088,-3.47,1.382,9.915,7.886,9.144,3.325,4.966
0.219,-7.715,-4.472,4.062,5.995,5.604,-0.237,-2.878
-1.258,-9.607,-5.222,2.085,4.769,3.923,-0.618,-4.4
2.811,-4.888,1.399,10.554,6.212,11.27,0.824,6.508
6.739,1.229,8.466,26.039,11.709,26.8,0.446,28.513
3.779,1.097,5.971,31.9,15.083,35.493,-2.443,40.813
-6.866,-8.139,-9.834,11.852,6.023,19.176,-6.222,15.682
-17.038,-19.587,-28.278,-20.521,-11.997,-11.954,-11.023,-29.16
-17.007,-21.731,-32.932,-33.288,-22.671,-26.477,-15.418,-43.768
-7.087,-13.634,-21.627,-22.417,-18.891,-17.642,-13.249,-24.433
4.005,-4.993,-7.191,-7.689,-5.937,-3.684,-3.136,-5.46
10.629,-0.394,1.341,4.005,9.342,7.432,7.476,5.85
13.166,2.765,6.39,15.175,21.741,18.02,13.964,19.754
11.323,3.071,9.527,18.198,27.5,21.549,16.917,26.547
4.774,-2.538,6.645,7.304,24.561,11.961,15.18,14.893
-1.108,-9.403,-0.083,-5.251,16.341,0.577,9.532,0.106
-2.312,-11.53,-1.685,-5.332,11.909,1.385,5.48,2.626
-3.553,-11.104,2.061,2.038,13.87,9.098,5.441,15.526
-8.395,-12.622,1.229,2.926,15.107,10.062,6.363,17.47
-11.778,-14.206,-6.768,-3.582,12.524,4.651,6.085,6.085
-9.674,-11.885,-11.422,-6.735,10.129,3.156,5.177,-1.576
-6.07,-7.296,-5.928,-2.272,8.486,7.921,3.893,4.129
-5.314,-4.754,1.797,2.349,4.446,12.262,2.501,13.899
-6.391,-5.046,1.144,0.271,-1.161,11.853,1.811,14.415
-6.359,-5.563,-6.218,-6.032,-4.842,8.022,1.541,5.626
-3.355,-3.649,-10.546,-9.594,-5.691,4.226,1.42,-0.31
1.385,-0.037,-8.99,-7.607,-4.675,4.264,2.105,4.195
4.191,2.175,-7.079,-3.544,-2.539,8.559,3.884,12.904
3.528,1.958,-9.17,-2.82,0.136,11.262,5.94,15.348
0.164,-0.391,-15.394,-7.335,2.532,7.471,6.348,9.484
-4.269,-4.526,-21.763,-12.678,3.655,1.961,4.504,3.191
-6.431,-7.73,-22.522,-13.041,2.902,2.175,2.103,3.897
-4.282,-7.15,-17.846,-9.778,0.912,6.057,-0.035,8.408
-0.107,-3.942,-13.835,-8.717,-0.12,6.792,-1.277,8.999
2.594,-1.325,-13.598,-10.861,0.358,3.545,0.198,5.687
3.344,-0.209,-13.484,-12.217,-1.552,0.54,3.506,4.578
4.024,1.152,-10.021,-10.086,-6.775,0.965,6.587,8.627
4.575,3.192,-7.419,-6.376,-7.762,3.794,11.128,14.792
2.66,3.59,-10.101,-4.735,-0.408,5.379,17.975,18.758
-1.519,1.544,-13.086,-5.207,7.311,4.67,22.969,20.01
-3.712,0.093,-9.485,-4.493,6.314,4.981,22.16,19.688
-1.611,1.241,-1.969,-1.888,-0.749,8.235,15.055,17.036
1.041,2.36,-0.22,-1.09,-4.13,10.457,4.976,13.006
2.524,2.906,-4.32,-2.842,-3.252,8.69,-1.865,11.363
6.675,7.004,-3.642,-2.851,-5.747,6.324,-3.192,11.658
11.521,12.612,0.167,-1.2,-10.168,5.512,-1.561,9.498
11.194,12.322,-2.427,-2.015,-7.654,4.643,2.053,5.872
8.803,7.039,-6.465,-4.136,1.54,4.739,7.005,5.565
9.003,3.262,-5.745,-4.109,8.487,7.72,9.727,7.467
7.685,1.75,-5.966,-3.251,8.815,10.671,8.079,7.585
2.212,0.148,-9.53,-3.793,7.311,10.078,5.335,7.279
-1.917,-0.778,-11.489,-4,10.051,8.226,5.636,9.126
-1.192,0.13,-9.796,-2.242,14.905,8.221,7.775,10.692
1.689,1.398,-5.861,-0.769,16.719,8.195,8.292,9.995
4.587,1.848,-0.67,-1.452,17.537,7.022,7.222,10.233
7.422,2.547,4.825,-3.197,20.27,6.872,6.76,12.817
8.951,3.773,8.725,-5.913,20.357,6.252,8.033,13.554
7.489,3.288,8.808,-10.178,14.486,2.205,10.207,10.268
3.643,0.258,5.935,-13.141,9.404,-1.688,11.317,6.928
0.961,-1.908,5.215,-11.187,12.215,-0.071,11.601,8.242
2.187,-0.177,8.617,-4.587,19.386,6.443,13.603,14.114
5.027,3.206,11.343,2.491,22.881,12.343,15.809,19.097
6.349,4.664,11.01,5.541,19.577,12.904,14.179,18.599
7.637,4.793,11.614,5.046,13.045,10.375,11.075,15.369
10.077,5.305,12.807,4.504,9.028,10.123,10.535,14.093
11.723,5.936,9.267,4.138,7.832,11.389,11.246,14.706
12.881,7.401,4.481,3.95,7.424,11.921,12.621,16.507
13.601,9.356,4.983,5.19,9.679,13.098,15.157,18.862
10.269,8.098,6.646,5.386,14.212,13.838,16.414,18.647
4.362,3.862,5.819,2.851,17.489,12.039,16.548,16.363
2.263,1.467,6.6,0.796,19.69,9.546,18.236,16.01
3.809,1.76,9.124,0.398,21.407,7.692,19.506,16.247
5.074,2.49,10.237,0.044,20.431,6.151,17.7,13.931
6.915,3.673,12.251,0.862,17.917,6.568,16.365,12.396
11.148,6.057,18.641,5.077,20.034,10.789,20.637,17.027
16.478,9.98,28.218,13.183,30.073,18.812,30.488,29.084
20.042,15.129,35.747,22.64,41.203,27.898,39.176,43.556
18.341,17.179,34.498,25.413,39.912,30.04,35.876,46.788
11.979,12.094,25.553,15.704,20.481,18.926,18.593,30.098
6.827,3.974,17.991,0.813,-5.327,2.093,1.093,7.013
3.931,-1.23,11.25,-7.74,-19.108,-6.671,-5.277,-4.46
-0.865,-3.324,-0.369,-8.319,-15.43,-5.144,-3.871,-5.107
-4.982,-2.348,-8.521,-5.155,-3.011,0.138,-0.692,-2.277
-1.899,2.925,-4.634,-0.352,9.125,5.935,3.88,4.116
6.056,8.912,3.154,4.195,15.802,11.073,8.78,12.158
10.768,10.714,5.464,5.518,14.322,12.968,9.384,14.11
10.705,9.318,5.407,3.146,8.554,10.415,6.063,9.032
10.961,8.093,8.707,-0.167,6.078,5.608,5.916,5.944
13.463,7.702,13.2,-1.183,8.384,3.146,10.729,10.104
14.169,7.033,13.646,-0.069,10.455,4.107,13.53,14.97
9.918,4.264,10.192,-1.509,6.938,2.631,9.887,12.193
2.967,-1.091,7.22,-7.395,-3.522,-4.097,4.774,4.582
-2.028,-5.581,7.064,-11.534,-12.871,-8.853,5.556,2.109
-2.325,-5.387,7.854,-8.323,-9.093,-5.46,11.46,7.106
0.991,-2.535,6.858,-2.478,3.161,0.592,14.779,11.781
4.305,-2.574,5.578,-2.531,6.723,0.072,13.291,10.162
6.343,-5.615,7.973,-7.307,3.475,-5.476,14.008,5.743
9.208,-5.729,13.022,-7.634,9.174,-5.92,19.374,5.385
12.558,-0.686,15.507,-0.997,19.731,1.095,20.48,9.7
12.534,4.183,13.13,4.387,18.893,6.203,11.848,12.759
9.152,4.551,8.918,2.182,7.649,3.023,0.994,10.161
8.122,3.577,7.95,-2.541,-0.237,-2.379,-2.201,5.323
12.288,5.917,11.449,-1.786,0.574,-1.684,2.462,4.785
17.072,10.461,15.383,2.728,4.148,3.067,7.319,8.234
18.145,13.613,16.504,4.511,5.393,5.315,8.536,10.807
17.82,14.86,15.391,4.426,5.836,5.927,9.258,11.724
18.512,14.35,12.707,5.887,4.633,7.874,9.373,11.351
16.655,10.312,7.563,5.228,-4.746,7.253,5.057,7.747
9.457,3.387,0.71,-1.15,-18.991,1.011,-0.428,2.319
1.346,-1.72,-4.078,-8.729,-24.363,-6.354,-1.56,-1.059
-1.086,-1.535,-3.691,-11.585,-19.785,-9.793,-0.546,-2.306
4.06,3.539,0.602,-8.893,-16.184,-8.649,-0.403,-2.578
13.391,11.269,4.488,-2.732,-14.745,-4.36,-0.045,-1.131
20.999,17.75,5.423,4.148,-8.941,1.188,1.191,1.518
22.706,18.029,4.167,7.32,-0.134,3.884,3.271,3.282
19.202,11.576,1.977,3.525,4.756,-0.671,5.417,3.378
13.973,4.186,-0.379,-3.279,4.698,-9.572,5.314,2.273
10.776,1.832,-0.437,-4.944,5.096,-13.057,4.309,1.439
12.985,5.575,4.856,1.022,8.774,-5.639,7.149,3.352
18.337,10.784,12.186,7.615,10.451,4.759,11.158,7.375
19.328,11.882,13.132,6.432,5.286,5.745,8.478,8.63
15.752,10.155,7.049,-0.203,-0.878,-0.16,0.107,4.716
14.98,10.537,1.524,-3.441,-0.932,-1.76,-6.288,-0.307
18.249,12.898,0.519,-1.562,1.231,0.921,-7.19,-1.193
21.403,15.703,3.283,2.432,0.737,2.776,-3.547,1.759
24.777,21.466,8.468,8.827,3.12,5.545,2.485,4.82
28.683,28.939,12.362,15.168,11.693,9.15,7.393,6.411
27.493,29.334,10.417,13.443,16.362,7.466,7.567,5.514
19.497,20.098,3.99,3.985,9.733,0.924,3.551,1.14
12.938,11.463,1.232,-0.661,0.267,-1.37,0.914,-2.686
14.575,11.497,7.206,5.339,-2.223,4.076,2.984,-0.919
20.607,15.756,15.639,12.273,0.461,9.823,5.962,3.669
23.695,16.584,18.035,11.898,2.732,9.359,6.7,5.596
22.942,13.839,16.239,9.198,3.793,6.192,7.579,5.405
22.637,12.653,16.832,10.746,5.543,6.078,9.62,5.935
24.595,15.089,20.014,13.78,8.523,7.891,10.195,6.74
26.154,18.034,21.622,13.206,12.153,8.157,7.473,5.693
24.651,18.712,20.58,10.341,15.717,6.812,2.876,2.85
20.751,17.725,17.673,9.244,16.919,5.047,0.704,1.206
17.433,16.081,13,10.245,14.237,3.709,2.507,2.22
16.822,14.079,9.792,11.259,11.164,4.328,4.478,3.759
18.342,12.706,11.537,11.536,11.555,7.22,5.064,5.256
20.28,12.495,16.07,10.897,13.898,8.789,7.009,8.358
22.841,13.895,20.049,9.519,16.527,6.514,10.859,11.835
26.738,17.692,21.475,9.11,20.328,4.579,13.503,12.506
28.359,20.332,17.641,9.394,21.492,6.039,11.302,9.207
24.138,17.461,10.715,8.31,14.85,7.064,4.866,4.17
18.833,13.677,8.153,7.7,5.782,5.369,0.519,1.85
18.432,15.751,10.766,9.965,3.182,3.476,2.045,3.176
20.34,21.133,11.758,13.104,4.609,3.862,5.495,4.271
19.848,23.394,8.789,15.413,2.894,7.203,6.369,3.844
18.055,21.325,6.04,16.7,-1.113,10.083,5.703,4.533
17.528,17.997,6.561,14.81,-2.178,7.54,5.825,6.493
16.431,15.092,7.837,9.299,1.162,2.229,5.529,6.062
11.917,11.184,5.003,4.116,6.204,0.76,3.603,2
7.132,7.211,0.33,3.268,10.448,3.747,2.856,-0.546
8.466,7.93,2.236,7.497,13.173,8.577,6.217,3.153
14.353,12.62,10.18,11.78,10.955,11.368,11.128,9.13
15.478,13.231,13.399,8.629,1.653,7.095,12.06,9.779
9.002,6.979,6.948,-0.104,-4.851,-0.594,8.747,5.753
2.457,1.288,-2.106,-4.123,1.332,-1.57,6.523,5.66
1.361,1.987,-5.334,-1.469,10.585,2.93,6.063,10.475
2.429,4.525,-4.136,-1.243,7.564,2.131,1.726,8.187
1.251,2.618,-5.35,-6.42,-3.734,-4.236,-6.25,-4.182
-1.436,-1.863,-8.963,-9.767,-8.058,-7.312,-10.94,-12.144
-3.842,-4.108,-10.052,-8.965,-4.377,-6.517,-10.772,-10.753
-6.426,-3.56,-9.355,-7.954,-3.387,-5.921,-9.204,-9.986
-9.531,-2.498,-11.484,-7.125,-6.628,-4.266,-7.47,-10.844
-12.262,-2.829,-15.379,-6.267,-8.168,-2.379,-6.312,-7.14
-13.52,-4.175,-15.605,-6.924,-7.88,-3.902,-6.972,-1.539
-14.303,-6.16,-12.817,-8.467,-9.186,-7.222,-8.503,-0.763
-17.032,-10.552,-12.906,-10.209,-12.189,-9.293,-9.544,-4.677
-19.252,-15.161,-15.161,-11.327,-14.77,-8.831,-8.822,-6.665
-15.755,-13.897,-13.636,-8.778,-16.152,-5.079,-4.801,-2.515
-9.32,-7.997,-9.11,-3.201,-17.525,-1.667,0.594,3.405
-9.216,-6.352,-8.68,-2.006,-19.175,-3.988,2.626,3.647
-17.684,-12.38,-15.602,-9.319,-17.509,-10.677,0.475,-1.521
-25.43,-18.695,-24.419,-16.716,-10.306,-13.625,-1.326,-4.12
-23.821,-17.735,-25.769,-14.035,-4.438,-8.428,0,-0.993
-15.347,-11.207,-16.844,-5.403,-7.544,-2.571,1.996,2.335
-7.13,-4.401,-5.326,-0.84,-12.98,-3.157,2.707,2.433
-1.945,0.913,-0.386,0.211,-7.855,-3.561,4.241,2.564
-0.708,3.536,-2.873,2.583,4.384,1.809,7.28,4.716
-4.195,2.243,-6.632,4.356,8.452,6.001,8.087,5.828
-8.37,0.031,-5.88,3.221,1.519,4.389,5.593,4.421
-8.38,-0.156,-0.986,1.411,-7.435,0.487,3.248,2.838
-7.356,-1.039,0.711,0.135,-13.86,-3.686,1.555,1.404
-10.784,-4.412,-5.796,-0.051,-16.32,-5.97,-1.267,-1.382
-15.793,-5.95,-13.562,2.889,-11.45,-2.776,-3.394,-4.203
-16.07,-2.801,-13.489,6.883,-2.13,2.035,-2.228,-4.672
-12.828,1.096,-9.063,6.453,1.254,1.35,0.877,-3.061
-11.724,1.164,-8.442,2.019,-6.111,-2.988,2.368,-1.974
-11.606,-0.216,-9.611,0.438,-15.616,-3.997,1.117,-2.338
-5.689,3.75,-5.331,5.197,-14.169,-0.437,-0.888,-1.372
6.032,13.596,4.373,12.112,-2.132,3.898,-2.752,1.943
15.24,21.769,13.662,15.925,6.9,6.588,-3.856,4.664
16.376,22.605,18.271,15.952,6.512,7.339,-0.913,5.703
12.964,18.721,17.606,15.901,4.442,8.617,5.772,6.645
11.105,15.463,14.547,18.028,9.234,12.424,10.423,8.305
9.263,12.243,11.057,17.366,17.238,13.189,10.54,9.954
3.836,7.412,6.014,12.243,18.808,8.688,8.637,9.816
0.313,6.216,2.252,12.144,15.957,8.699,7.235,8.24
3.382,11.375,4.831,20.161,16.222,15.912,6.807,7.886
6.476,15.865,10.11,25.336,11.843,19.311,6.336,8.48
5.127,15.386,11.308,22.512,-5.868,15.09,5.738,7.97
4.868,14.335,9.262,19.273,-17.71,11.491,6.631,7.469
7.885,14.52,7.983,20.131,-3.654,12.329,9.917,8.886
9.227,13.357,10.302,22.064,17.47,13.216,14.119,10.821
6.605,11.056,14.935,22.18,21.542,11.369,15.915,10.707
0.909,7.185,13.228,17.852,16.593,8.154,12.518,8.229
-6.232,0.367,2.246,9.265,14.356,5,5.152,4.748
-10.797,-4.84,-7.134,2.636,11.022,1.948,-0.215,1.878
-10.911,-4.594,-7.678,0.139,7.166,-0.88,2.068,0.281
-9.881,-3.1,-5.219,-2.561,9.082,-2.026,9.746,-1.347
-9.42,-3.296,-5.56,-4.814,13.061,-0.072,12.608,-3.712
-6.455,-0.934,-4.694,-1.246,11.628,4.367,7.067,-4.02
0.056,6.39,2.71,7.182,6.283,7.975,1.941,-0.132
4.054,12,9.162,11.383,1.471,6.107,-0.614,3.631
-0.367,8.099,4.504,6.235,-0.055,-0.864,-5.493,2.512
-8.814,-1.529,-2.887,-0.006,5.751,-4.974,-4.811,0.983
-11.295,-4.989,1.799,3.607,17.682,-0.415,7.853,5.755
-6.007,1.217,15.391,14.504,25.885,8.303,18.334,14.021
-2.152,6.819,21.869,20.245,22.203,11.894,13.875,18.317
-7.119,2.511,14.735,16.34,10.885,8.079,3.189,16.805
-15.429,-6.651,4.655,11.402,4.549,4.691,0.865,13.601
-18.354,-11.536,2.11,11.786,5.718,7.001,6.94,12.286
-17.391,-12.847,4.172,12.89,4.321,9.209,11.066,12.544
-16.649,-13.279,6.028,11.702,-2.576,6.656,9.668,13.311
-14.682,-10.973,7.941,11.699,-6.776,3.545,7.706,13.231
-12.779,-8.738,7.539,10.721,-4.54,1.784,6.757,9.573
-15.471,-12.268,2.371,3.821,-0.122,-1.325,4.858,3.303
-19.564,-17.472,-2.757,-3.037,3.692,-3.106,3.312,-0.908
-17.652,-15.436,-1.995,-1.673,6.768,0.075,2.64,-1.487
-11.663,-8.108,2.438,3.701,6.59,3.211,0.358,-0.119
-10.369,-5.881,3.382,4.671,1.351,0.683,-3.099,0.842
-15.406,-11.487,-0.758,1.47,-4.88,-3.995,-4.125,-0.247
-20.269,-17.639,-4.175,-0.847,-5.829,-5.383,-0.393,-1.933
-21.121,-19.444,-3.335,-1.365,-0.626,-4.785,5.57,-2.506
-19.149,-18.733,-1.307,-1.795,4.333,-5.011,6.267,-2.638
-16.24,-18.209,-1.535,-1.756,3.05,-4.997,-1.378,-2.236
-16.061,-18.972,-3.891,-0.983,-2.863,-4.358,-10.056,-1.173
-21.566,-20.395,-6.114,-0.477,-8.673,-4.237,-12.76,-1.237
-28.067,-20.836,-6.008,-0.398,-12.708,-4.291,-10.997,-2.675
-28.169,-19.586,-2.955,-0.53,-13.737,-4.716,-8.091,-3.163
-21.305,-15.265,2.444,0.446,-11.027,-5.148,-4.401,-1.437
-13.063,-8.23,6.091,2.469,-8.173,-4.858,-1.152,0.947
-9.553,-5.058,1.098,0.186,-7.145,-6.835,-0.587,1.654
-12.092,-9.592,-9.344,-7.865,-5.475,-11.568,-1.847,0.089
-16.263,-15.725,-12.817,-13.746,-2.847,-13.343,-2.264,-2.566
-18.122,-17.32,-7.541,-12.379,0.129,-9.869,-1.098,-4.271
-18.28,-15.602,-2.526,-8.134,3.301,-6.117,0.614,-3.461
-18.506,-14.221,-2.411,-6.808,3.93,-6.613,1.557,-0.934
-18.375,-14.462,-5.171,-9.217,0.692,-10.396,0.633,0.731
-17.265,-15.117,-6.379,-12.526,-2.522,-14.09,-1.123,0.044
-15.717,-14.055,-3.365,-13.341,-1.162,-15.347,-0.144,-2.191
-14.669,-12.507,-0.257,-11.702,1.481,-15.039,2.272,-4.753
-15.131,-14.124,-2.19,-11.001,-2.899,-16.459,-1.01,-6.899
-14.875,-15.454,-4.237,-8.737,-11.806,-16.55,-8.963,-7.015
-10.712,-10.745,-0.657,-0.066,-13.274,-8.966,-11.697,-4.128
-6.569,-5.706,2.484,6.423,-5.523,-1.081,-7.617,-0.413
-8.189,-8.151,0.27,-0.017,0.154,-4.721,-4.609,0.452
-13.387,-14.001,-1.778,-11.323,-4.79,-13.625,-6.04,-2.427
-16.815,-16.287,-0.471,-14.677,-15.933,-15.819,-8.033,-5.755
-17.296,-15.159,-0.662,-11.073,-21.146,-12.919,-6.806,-6.252
-15.03,-11.458,-4.139,-4.043,-17.243,-9.456,-2.742,-4.182
-9.087,-3.611,-4.396,6.348,-14.37,-4.712,0.985,-1.803
-3.159,3.656,-0.591,11.695,-15.745,-2.149,2.605,-0.607
-4.589,1.567,-2.293,3.547,-11.945,-6.136,3.494,-1.131
-12.807,-8.784,-11.005,-10.234,-2.64,-11.279,5.914,-3.846
-18.422,-16.367,-16.249,-16.632,1.053,-10.472,8.207,-6.95
-16.591,-15.157,-14.003,-13.954,-3.53,-5.464,2.655,-7.497
-12.792,-11.64,-12.026,-10.144,-7.617,-2.907,-11.848,-7.457
-11.618,-12.377,-14.547,-11.738,-5.033,-6.891,-22.856,-9.949
-10.882,-13.838,-16.797,-16.459,-1.592,-14.16,-24.033,-12.322
-10.491,-12.809,-17.255,-19.125,-7.181,-18.081,-23.33,-12.779
-11.942,-11.358,-18.228,-19.034,-17.294,-18.348,-24.517,-14.257
-10.902,-8.31,-17.009,-16.278,-17.203,-18.084,-21.364,-15.754
-5.769,-2.826,-12.635,-10.721,-8.525,-16.442,-12.764,-12.625
-3.544,-0.501,-10.106,-5.546,-8.149,-12.423,-6.421,-5.246
-5.77,-2.146,-8.843,-1.627,-17.519,-6.919,-4.122,2.619
-5.411,-0.941,-4.3,4.105,-21.096,-0.47,-0.599,7.875
-2.798,2.159,0.562,8.467,-15.645,3.662,2.204,7.36
-5.649,-0.559,0.299,5.357,-11.185,1.455,-0.922,1.863
-13.632,-7.917,-4.192,-2.135,-9.413,-5.539,-5.862,-2.173
-18.543,-12.389,-7.096,-7.089,-5.816,-12.374,-6.289,-1.348
-16.671,-12.373,-3.647,-7.52,-0.464,-14.715,-3.109,0.793
-11.767,-11.677,3.754,-4.509,4.716,-10.822,0.71,0.797
-8.897,-12.985,8.786,-1.113,8.153,-4.762,5.157,-0.36
-9.158,-15.449,9.538,-1.182,7.411,-2.86,8.973,-0.987
-10.305,-15.899,6.454,-4.796,0.779,-5.298,5.035,-2.453
-11.055,-13.271,-0.356,-8.455,-9.773,-7.518,-9.309,-5.816
-12.006,-10.928,-7.784,-10.178,-19.38,-8.559,-21.685,-8.193
-12.828,-10.754,-12.466,-10.292,-24.484,-10.082,-22.361,-7.9
-11.71,-9.445,-13.588,-8.169,-22.94,-10.008,-18.168,-7.169
-8.731,-5.964,-10.406,-3.897,-14.288,-6.122,-13.859,-6.767
-6.57,-4.743,-4.062,-0.647,-2.781,-1.785,-3.651,-4.994
-5.856,-6.697,0.604,-0.242,3.774,-0.778,8.826,-2.004
-4.277,-6.672,-0.277,-0.71,-1.337,-2.176,7.16,-1.41
-1.448,-2.891,-4.73,-0.563,-16.373,-4.121,-10.324,-5.783
0.819,0.069,-6.638,-1.122,-29.146,-7.023,-23.505,-10.764
1.689,-1.306,-4.203,-3.999,-28.92,-11.605,-21.427,-10.624
1.458,-5.061,-1.519,-7.496,-18.281,-15.407,-14.349,-8.107
2.124,-5.908,2.153,-6.943,-9.113,-13.806,-10.612,-8.049
4.361,-2.15,7.801,-2.193,-7.272,-8.069,-7.804,-8.45
3.444,0.226,4.691,-0.215,-8.019,-5.501,-5.915,-8.291
-1.827,-2.146,-9.32,-4.423,-7.098,-8.576,-7.444,-10.114
-3.36,-2.378,-16.259,-9.091,-4.672,-12.448,-9.061,-10.348
2.373,3.368,-9.575,-8.834,-1.795,-12.623,-8.383,-5.66
7.146,7.259,-3.707,-6.612,-1.027,-10.647,-9.133,-3.067
4.589,3.581,-6.159,-7.993,-3.494,-10.875,-12.418,-7.441
-0.34,-1.578,-9.996,-10.617,-6.388,-11.431,-14.668,-12.499
-0.025,-0.647,-8.803,-7.266,-7.108,-6.846,-13.386,-11.992
4.337,3.939,-2.129,0.305,-6.173,-0.47,-8.648,-7.427
5.639,5.044,5.384,2.756,-6.403,-1.154,-3.355,-3.388
2.091,2.197,5.989,-1.148,-8.593,-8.413,-2.016,-2.336
-2.129,-1.06,-1.048,-4.214,-10.445,-13.378,-6.047,-4.312
-4.186,-4.082,-7.912,-3.204,-11.929,-11.323,-11.456,-7.571
-3.084,-5.416,-10.852,0.463,-14.033,-4.44,-13.267,-9.779
0.925,-2.858,-11.293,4.475,-14.756,1.492,-11.569,-10.183
4.223,0.624,-8.618,4.447,-11.698,0.736,-9.39,-8.736
4.789,1.682,-2.37,-0.04,-3.729,-3.755,-5.535,-5.115
5.376,2.592,4.429,-1.991,6.331,-2.822,1.905,-0.775
7.648,6.104,8.17,1.24,11.245,1.943,6.224,1.131
9.724,9.936,8.26,3.715,8.746,1.074,1.114,-1.262
9.172,9.608,5.452,0.794,2.928,-5.28,-8.146,-6.97
6.144,5.413,-0.27,-6.371,-4.787,-11.361,-15.145,-12.717
3.575,2.093,-5.062,-13.368,-15.228,-16.68,-19.117,-15.554
2.986,0.785,-3.919,-17.541,-25.315,-21.916,-19.656,-15.724
3.491,-0.873,-1.556,-19.81,-27.563,-24.044,-16.449,-14.444
4.772,-2.122,-4.745,-19.805,-18.418,-19.952,-11.915,-11.597
6.971,-0.345,-8.612,-15.01,-6.499,-10.598,-9.812,-8.296
8.156,3.119,-8.098,-7.244,-2.136,-1.913,-9.891,-6.752
5.234,3.64,-9.124,-3.718,-2.398,-1.318,-8.34,-7.127
1.077,1.904,-12.661,-5.278,0.39,-6.484,-4.227,-6.798
2.606,3.945,-8.851,-3.727,2.792,-6.081,-0.291,-3.821
6.817,8.13,0.551,1.352,-1.544,-0.1,0.199,-1.475
4.245,6.373,0.217,0.619,-5.892,-0.559,-3.215,-4.298
-3.251,-0.32,-10.241,-6.075,-0.905,-8.461,-6.19,-10.079
-4.544,-2.871,-12.697,-8.036,8.034,-11.641,-4.725,-12.265
3.003,0.992,-1.196,-2.776,9.776,-6.306,-0.724,-8.214
10.809,5.123,8.289,0.71,4.18,-1.638,2.008,-1.417
12.754,5.937,4.497,-1.392,-0.339,-2.224,3.252,2.9
9.764,4.663,-4.903,-4.829,-0.364,-3.539,3.05,2.72
4.642,2.473,-9.112,-7.371,-0.341,-3.451,-0.916,-0.343
1.962,1.728,-6.698,-7.494,-1.953,-3.302,-6.502,-3.227
4.116,4.25,-3.091,-3.997,-1.461,-3.426,-7.572,-4.211
4.748,4.563,-4.476,-2.709,-0.05,-5.462,-5.819,-4.87
-1.518,-2.05,-10.443,-7.357,-1.061,-8.779,-6.343,-6.243
-6.923,-7.594,-12.15,-9.529,1.261,-7.062,-4.411,-5.838
-1.78,-3.104,-4.523,-3.728,9.719,-0.851,3.047,-2.886
8.982,6.359,4.257,1.599,13.347,-0.844,6.011,-0.411
14.066,11.662,5.451,-0.148,7.693,-7.925,-0.249,0.084
12.74,13.043,3.075,-3.012,2.321,-9.646,-5.672,0.126
10.237,13.311,2.22,-1.887,-0.381,-3.127,-4.266,0.776
5.945,9.659,-2.155,-0.7,-7.715,1.159,-2.432,-0.297
-0.865,2.286,-10.678,-1.795,-18.327,-1.109,-5.093,-5.527
-3.867,-0.535,-12.085,-2.163,-18.291,-4.133,-7.013,-9.164
0.147,3.944,-4.531,-0.744,-2.031,-3.599,-2.819,-4.258
4.436,7.02,-0.181,0.972,13.23,-0.753,2.694,2.837
3.885,3.829,-0.863,1.702,12.488,1.294,2.94,2.894
1.905,-0.287,2.461,0.78,4.939,1.14,0.067,-0.845
3.115,-0.983,9.215,0.1,4.255,1.21,0.169,-1.374
8.064,0.762,11.745,1.688,9.286,4.198,3.763,0.844
13.385,3.44,9.28,2.556,12.233,6.732,4.926,1.863
14.326,6.179,4.982,-0.683,11.382,4.094,1.443,1.227
10.134,8.054,-1.092,-4.932,9.948,-0.573,-0.443,0.697
4.991,8.636,-7.039,-5.362,8.545,-1.185,1.727,-0.237
1.529,6.955,-8.525,-3.147,5.427,0.926,1.91,-2.833
-1.46,2.593,-6.666,-2.619,2.223,0.172,-0.505,-4.762
-4.34,-1.917,-5.025,-3.245,3.662,-2.248,1.826,-2.586
-6.066,-4.528,-3.904,-0.989,8.399,-0.054,8.152,0.959
-6.665,-5.939,-3.965,2.458,7.816,4.071,7.706,-0.468
-5.276,-5.538,-5.383,1.335,0.537,0.99,-1.289,-4.888
-0.175,-1.721,-4.989,-2.688,-5.62,-7.157,-7.827,-4.605
6.499,3.174,-0.697,-3.839,-8.256,-11.192,-7.423,-1.317
9.404,4.247,4.285,-4.102,-9.679,-10.072,-6.133,-2.32
6.524,0.625,1.918,-6.662,-9.043,-5.843,-4.824,-5.074
1.801,-2.773,-9.119,-7.228,-6.506,0.775,-0.285,-3.586
1.209,-0.753,-15.582,-3.221,-3.599,5.356,2.317,-1.005
8.123,7.522,-7.532,3.324,-0.147,6.273,-0.46,0.014
18.783,17.406,6.402,11.629,2.699,8.132,-1.072,2.187
21.379,19.753,10.562,16.618,3.085,9.985,1.939,2.634
10.806,11.043,2.888,10.687,0.843,6.276,1.232,-1.184
-1.63,-0.197,-4.237,-1.323,-1.975,0.729,-2.311,-3.604
-7.002,-7.445,-6.976,-7.93,-0.109,-0.014,-3.336,-2.655
-8.443,-12.495,-11.173,-7.93,6.857,0.834,-2.75,-1.587
-6.248,-13.251,-10.904,-4.946,8.737,0.651,-2.338,0.293
0.708,-6.75,-0.13,0.369,0.856,3.551,-1.159,3.219
5.216,0.411,7.591,4.709,-4.814,8.407,0.308,3.273
2.83,1.024,1.065,4.325,-0.007,9.724,0.702,0.061
-1.23,-2.507,-7.381,1.703,4.001,7.296,-0.197,-1.916
-1.234,-2.803,-2.954,1.669,-0.348,4.07,-2.009,-0.559
4.024,2.723,8.06,4.513,-0.888,2.06,-2.349,1.907
9.437,7.158,9.952,5.362,6.53,1.878,0.045,2.015
7.216,3.377,-0.086,0.57,9.288,1.604,1.408,-1.13
0.095,-2.79,-10.471,-6.1,6.71,-0.301,-0.048,-3.697
-0.285,-0.403,-9.743,-7.029,7.122,-0.693,-1.071,-2.955
7.233,8.638,-0.728,-1.32,5.97,2.55,-1.066,-2.114
10.642,12.96,1.664,2.664,-1.643,4.061,-2.238,-4.274
5.8,10.691,-6.17,0.35,-5.317,1.005,-2.786,-6.098
2.629,9.498,-10.979,-2.996,2.573,-1.6,-0.252,-3.044
5.586,9.62,-8.567,-3.852,9.916,-2.327,1.595,1.394
8.459,6.54,-6.853,-2.904,5.662,-2.815,-0.815,0.787
7.746,2.882,-6.692,0.472,-1.652,-1.485,-4.355,-2.865
6.264,2.704,-3.314,5.872,-2.001,1.645,-4.596,-3.323
8.352,5.747,4.247,11.01,2.841,3.954,-0.542,-0.14
13.187,9.002,11.108,12.065,8.261,3.043,4.607,2.34
13.124,7.71,10.744,4.896,10.202,-1.643,6.27,1.521
5.009,0.835,3.645,-7.968,4.276,-7.362,4.323,-1.158
-3.522,-5.671,-4.13,-17.189,-6.108,-10.299,2.528,-2.557
-6.05,-6.893,-9.193,-17.6,-9.857,-8.006,2.644,-1.322
-6.674,-5.921,-12.15,-13.942,-5.564,-2.356,2.182,-0.123
-9.386,-6.582,-13.614,-12.178,-2.784,0.395,-0.524,-1.659
-10.188,-6.656,-12.362,-11.732,-4.454,-2.236,-2.652,-3.827
-9.442,-6.273,-11.506,-12.235,-7.184,-6.819,-4.388,-5.731
-14.302,-9.798,-17.694,-16.246,-10.589,-9.618,-10.1,-10.464
-21.394,-14.031,-26.071,-19.48,-13.366,-8.036,-16.157,-15.488
-18.618,-11.08,-23.452,-14.438,-11.337,-3.256,-13.917,-13.974
-6.344,-2.138,-10.236,-4.518,-4.855,-0.359,-5.565,-7.708
2.295,4.44,-0.594,0.108,-0.705,-0.865,-2.341,-4.929
0.669,4.225,-2.14,-3.187,-3.507,-2.469,-8.053,-7.016
-4.118,1.002,-6.422,-6.561,-8.408,-2.3,-13.042,-7.592
-2.719,2.038,-2.073,-1.705,-6.554,2.452,-8.923,-3.684
3.011,6.887,6.299,6.722,1.819,7.368,-2.008,-0.524
4.23,7.176,5.698,5.63,5.053,3.483,-1.643,-3.324
1.136,2.849,-1.239,-4.774,-3.238,-6.332,-5.12,-9.716
1.445,3.352,-2.474,-11.286,-14.423,-11.175,-5.513,-13.276
5.919,10.07,0.693,-8.907,-19.961,-9.024,-3.095,-10.552
10.514,16.335,1.896,-1.248,-16.238,-2.871,0.554,-3.13
13.742,18.36,3.3,7.68,-0.859,5.656,6.932,4.062
11.953,13.484,4.164,9.837,13.204,9.524,11.406,5.097
3.546,2.827,0.011,2.414,9.739,4.084,5.945,-1.53
-3.522,-5.605,-4.595,-4.585,-2.082,-1.837,-5.765,-9.055
-3.989,-8.344,-2.262,-4.736,-6.522,0.134,-12.429,-10.569
-2.744,-9.14,5.33,-1.904,-4.885,6.083,-10.144,-7.594
-3.112,-9.542,10.478,0.556,-1.142,9.231,-2.849,-4.527
-2.756,-8.341,9.046,2.3,6.246,8.53,3.954,-1.716
-2.849,-7.585,3.773,1.064,13.05,5.593,5.829,0.085
-7.317,-9.906,-1.337,-4.732,9.422,1.442,2.586,-2.503
-11.841,-10.295,-4.39,-8.615,-3.377,-0.694,-0.521,-7.148
-7.188,-1.113,-2.699,-1.495,-9.186,4.763,0.99,-5.219
6.342,15.181,6.002,14.22,-0.85,17.833,5.476,5.005
15.078,24.157,14.175,21.456,6.281,24.638,6.644,10.005
6.939,14.378,7.314,6.077,-0.421,10.159,0.076,-1.835
-7.43,-2.486,-9.189,-17.04,-10.009,-12.913,-8.881,-16.183
-8.185,-6.144,-12.845,-20.159,-9.819,-17.023,-11.868,-13.881
-0.31,-0.538,-5.078,-6.89,-5.128,-3.933,-9.527,-4.011
0.592,0.767,-3.89,1.653,-0.83,4.562,-5.049,-0.785
-0.465,1.684,-5.502,5.279,6.382,6.038,0.104,0.855
5.399,6.881,1.255,10.67,10.362,10.311,1.256,4.028
10.009,7.606,7.171,11.465,2.568,14.355,-2.47,1.991
3.279,-1.951,-1.574,2.869,-9.512,9.756,-5.883,-5.019
-9.168,-13.521,-17.91,-6.785,-14.155,1.012,-7.442,-9.225
-12.321,-14.427,-21.406,-6.755,-11.361,-0.427,-7.523,-6.196
-3.78,-4.916,-8.695,1.483,-7.533,5.087,-4.424,0.411
1.412,1.308,1.923,6.026,-5.102,5.796,1.294,2.732
-5.278,-2.882,-0.073,0.468,-2.973,-2.692,6.511,-1.116
-13.797,-9.759,-6.6,-8.85,-3.122,-10.924,6.695,-5.434
-14.024,-10.685,-9.843,-12.98,-6.935,-11.341,0.091,-6.424
-9.516,-6.317,-9.837,-10.923,-9.019,-7.806,-5.292,-5.41
-6.998,-1.189,-6.485,-6.844,-5.747,-5.699,-0.979,-3.823
-4.893,3.583,0.467,-2.91,-0.623,-4.875,9.026,-0.937
0.957,8.857,7.305,1.363,4.094,-2.396,15.681,3.338
7.469,12.899,9.547,5.846,6.239,3.562,13.857,6.231
8.5,13.24,6.652,8.867,0.918,9.721,2.644,5.396
6.754,12.452,3.91,10.628,-6.384,11.367,-10.365,2.224
9.874,14.711,7.651,13.664,-3.539,11.009,-14.5,-0.197
15.263,16.838,15.416,16.926,5.41,13.037,-9.885,-0.23
14.469,13.387,19.453,16.496,6.195,14.083,-2.885,0.776
9.109,7.613,18.984,13.306,-0.658,11.187,4.76,1.398
6.519,5.576,17.863,11.032,-3.277,8.733,10.305,2.532
6.498,5.246,16.325,9.021,0.235,7.237,7.063,2.851
4.698,1.875,13.308,5.646,1.913,1.641,-2.093,-0.211
1.573,-2.701,10.204,3.824,-1.549,-5.307,-5.769,-4.305
-0.451,-4.545,8.242,5.355,-6.75,-6.602,-3.507,-6.474
-1.671,-4.278,7.491,6.169,-10.369,-4.306,-2.821,-7.53
-1.644,-3.072,9.943,5.65,-10.771,-3.096,-2.919,-7.868
0.829,-0.197,15.681,7.796,-6.443,-1.799,0.736,-6.931
2.22,2.413,17.602,8.528,0.865,-0.619,5.34,-5.373
-1.191,2.157,12.531,2.807,4.231,-0.95,4.12,-4.973
-5.023,1.306,8.929,-2.012,-0.41,0.432,-1.32,-6.5
-3.927,2.59,10.329,0.369,-8.187,4.575,-3.246,-7.343
-1.407,4.846,9.674,5.484,-11.518,8.12,-2.4,-5.721
-0.859,7.731,8.054,11.386,-8.943,11.633,-2.39,-3.488
1.717,11.074,11.649,19.188,-4.447,16.704,-0.641,-1.655
6.623,10.706,13.74,20.983,0.654,17.447,1.152,0.002
8.804,6.052,8.146,11.86,5.287,10.694,-2.185,1.04
8.089,3.389,2.837,4.088,2.865,5.784,-7.417,0.796
6.56,3.398,2.594,5.516,-6.634,6.541,-10.405,-3.281
3.106,-0.913,1.313,3.416,-12.259,1.594,-14.122,-10.945
-3.285,-11.31,-4.197,-10.158,-11.138,-11.988,-18.246,-15.589
-11.39,-21.624,-9.948,-22.603,-12.473,-20.664,-18.224,-15.819
-16.599,-24.927,-10.972,-22.802,-16.919,-17.433,-14.636,-16.002
-13.192,-18.938,-5.736,-14.175,-14.33,-9.199,-10.453,-14.432
-4.654,-9.87,0.628,-4.737,-5.704,-4.196,-7.826,-9.547
-2.021,-6.748,2.061,0.003,-3.784,-4.643,-8.794,-6.831
-7.041,-9.459,0.797,-0.586,-9.872,-6.252,-11.257,-8.553
-11.982,-11.6,-0.123,-2.592,-12.213,-5.164,-10.67,-10.197
-12.723,-10.422,-2.133,-2.037,-5.415,-3.286,-6.631,-8.607
-8.917,-5.811,-2.129,1.613,3.961,-2.755,-2.52,-5.001
-1.906,0.714,2.89,5.206,6.898,-2.675,-1.476,-2.764
3.716,4.285,8.043,5.909,2.165,-1.997,-2.642,-3.637
5.595,2.568,9.528,4.511,-2.566,-0.781,-0.988,-4.042
5.854,-0.765,9.705,4.44,-1.204,1.63,4.46,-0.759
6.071,-1.635,11.263,7.068,4.025,4.539,7.416,1.933
6.556,0.816,13.073,7.775,7.672,1.527,4.709,0.649
7.111,4.163,12.388,3.929,6.627,-7.451,0.224,-0.567
5.888,3.191,8.801,0.14,1.355,-9.56,-3.885,-0.167
2.831,-3.036,5.601,-1.48,-2.89,-1.687,-8.826,-0.736
1.148,-7.212,7.447,-1.223,-1.071,5.404,-11.342,-0.352
1.579,-5.592,12.291,3.054,3.254,7.152,-7.217,1.562
1.592,-4.435,11.427,7.83,3.811,4.583,-2.429,-1.607
1.43,-6.948,5.224,6.644,1.928,-1.2,-3.794,-9.22
4.154,-6.838,3.96,2.712,0.775,-4.809,-5.649,-10.153
8.534,-0.867,8.247,3.301,-1.176,-2.094,-2.339,-3.548
9.073,4.045,8.771,7.092,-2.666,3.856,1.494,-0.289
5.429,1.984,5.489,8.434,1.664,7.823,1.351,-2.582
3.211,-1.625,7.358,8.268,10.564,8.537,0.113,-2.493
3.144,-0.632,13.727,9.12,15.87,7.667,2.474,1.937
1.004,-0.466,14.087,7.183,13.852,5.266,7.162,3.842
-0.348,-3.797,8.068,4.874,9.234,3.602,8.484,1.264
4.98,-1.677,6.402,10.448,6.961,6.353,3.731,-0.381
11.55,5.43,10.07,13.262,5.866,5.129,-3.541,0.043
11.11,5.974,10.753,0.121,4.494,-6.635,-5.331,0.557
7.802,1.268,9.482,-11.264,6.057,-12.221,1.264,2.529
9.426,2.042,13.139,-2.207,11.657,0.088,9.08,6.145
15.219,8.289,19.224,13.305,15.687,13.452,11.836,8.514
20.161,12.325,20.034,17.286,14.597,13.869,11.206,7.888
22.29,12.2,16.457,14.317,12.477,10.305,11.653,6.156
21.419,10.517,14.847,12.131,9.677,9.187,13.042,5.354
14.799,5.58,12.163,5.367,1.088,3.364,9.047,1.954
2.3,-4.37,1.722,-7.562,-7.644,-6.259,-0.892,-5.927
-8.724,-12.525,-10.496,-15.276,-7.658,-10.086,-6.759,-11.934
-12.792,-12.375,-15.549,-11.761,-5.191,-7.887,-5.742,-12.736
-11.101,-6.883,-14.659,-3.763,-6.455,-3.558,-5.806,-11.679
-5.69,-1.095,-10.351,2.395,-4.413,2.444,-6.256,-7.987
0.928,3.136,-2.284,4.973,4.029,5.948,0.581,0.966
5.613,4.598,6.232,3.425,10.198,3.801,10.265,9.188
7.403,3.386,10.191,1.469,8.049,2.182,11.935,9.31
5.523,1.046,8.421,2.788,1.823,5.231,5.777,4.249
-0.111,-1.886,3.391,2.832,-0.815,6.292,0.273,1.453
-5.094,-4.64,-0.308,-0.724,2.55,2.968,0.434,3.186
-4.711,-4.88,0.751,0.12,8.136,3.57,3.47,5.755
0.115,-1.929,4.334,7.429,13.561,8.409,4.549,6.04
4.579,0.675,5.777,10.824,19.211,8.271,4.559,6.029
5.08,-0.825,5.286,5.884,20.799,3.253,5.881,7.372
2.708,-3.721,6.9,2.169,13.79,2.138,8.11,9.059
1.569,-1.841,10.806,7.444,5.354,7.816,12.348,11.368
2.399,2.849,11.206,13.411,5.241,12.3,16.457,12.741
1.701,1.785,4.418,7.692,8.1,7.554,12.547,8.94
-0.117,-3.655,-3.568,-3.666,5.415,0.049,2.417,1.869
1.995,-2.577,-4.81,-5.231,0.859,0.544,-2.271,-1.347
6.409,4.982,-2.378,0.785,-2.76,3.918,-0.817,-0.181
7.053,8.17,-3.024,1.432,-6.124,0.62,-0.793,1.089
5.588,5.016,-5.066,-2.217,-4.815,-3.311,-0.869,2.067
4.057,1.104,-8.122,-2.488,-1.457,-0.458,1.603,1.271
-0.678,-2.109,-15.126,-3.346,-5.102,0.741,2.392,-2.966
-5.489,-4.395,-19.073,-10.346,-12.218,-7.317,0.543,-4.606
-5.519,-5.939,-14.79,-18.678,-17.015,-18.107,-2.138,-1.814
-5.021,-9.323,-11.827,-22.866,-24.708,-23.701,-6.236,-2.548
-8.181,-13.521,-15.922,-23.956,-31.139,-22.649,-8.233,-6.209
-11.963,-14.597,-20.531,-23.788,-22.475,-16.623,-4.253,-4.738
-12.088,-12.202,-21.038,-21.359,-3.911,-8.69,0.57,-0.747
-8.212,-8.039,-18.793,-16.101,6.24,-2.548,0.808,-1.086
-4.08,-2.842,-15.678,-10.446,4.114,-0.647,-1.174,-3.407
-1.348,3.647,-12.202,-5.31,0.957,-0.473,-1.697,-2.405
3.466,11.423,-7.262,1.928,5.172,3.412,0.639,1.76
9.251,17.141,-1.708,9.525,11.183,9.748,4.017,4.996
9.544,18.134,0.138,11.931,10.355,11.51,3.704,4.834
7.44,18.963,-0.718,10.041,7.707,7.109,1.663,4.363
12.471,23.55,3.344,8.187,11.22,1.822,5.409,7.813
20.371,25.159,10.831,5.039,13.688,-0.679,11.087,11.111
16.861,15.111,8.886,-2.393,5.18,-2.353,7.523,6.064
3.206,-0.671,-3.351,-9.338,-6.818,-3.976,-2.123,-3.569
-2.035,-4.968,-9.168,-5.976,-7.806,0.101,-4.372,-5.066
9.011,6.635,-1.464,6.038,1.042,10.759,2.494,2.985
20.965,17.814,5.663,9.885,5.524,14.928,6.422,8.99
17.966,15.585,-1.656,-0.93,0.86,4.866,0.573,5.859
5.351,6.783,-17.813,-10.301,-2.941,-4.685,-6.731,-1.423
-2.325,2.108,-26.575,-7.599,-0.95,-1.219,-7.684,-6.066
-3,0.807,-23.941,-4.23,-1.963,3.019,-7.292,-7.808
-3.55,-1.059,-19.331,-9.414,-10.769,-3.918,-9.871,-7.614
-4.836,-1.443,-17.852,-13.825,-17.693,-10.942,-10.514,-3.954
-3.449,1.514,-16.548,-9.356,-15.033,-6.328,-7.081,1.279
-1.621,2.807,-14.74,-4.435,-9.825,1.162,-4.547,2.33
-2.61,-0.445,-14.996,-6.592,-10.818,-0.071,-4.488,-1.029
-2.205,-1.203,-13.924,-8.231,-16.87,-5.187,-3.028,-1.867
1.219,3.053,-8.53,-3.585,-21.788,-4.778,-0.064,1.231
0.32,3.161,-8.106,-1.898,-19.307,-2.359,1.083,0.915
-5.478,-3.053,-17.253,-9.516,-8.15,-5.088,1.363,-3.346
-8.177,-6.711,-24.463,-16.661,3.393,-8.051,1.747,-3.912
-7.71,-4.769,-23.566,-13.761,6.437,-4.021,-0.739,-1.2
-8.249,-1.232,-19.739,-5.382,2.995,3.223,-4.747,-0.557
-7.027,1.771,-14.611,-0.841,0.62,6.293,-5.021,0.299
-2.458,3.481,-7.433,-1.453,2.29,3.998,-0.499,4.817
0.237,3.238,-2.701,-3.047,6.821,-0.015,7.104,9.385
-2.225,1.196,-4.868,-5.264,9.903,-3.466,14.016,9.845
-6.482,-1.656,-11.059,-8.825,7.54,-6.649,14.102,8.233
-7.666,-2.632,-14.961,-9.648,4.742,-7.511,7.974,8.35
-6.22,-0.749,-14.889,-6.444,7.297,-3.529,3.69,9.506
-7.273,0.073,-14.197,-3.994,9.979,2.145,2.958,8.294
-12.146,-3.505,-15.301,-3.694,7.749,4.869,-0.222,3.633
-15.258,-8.628,-15.412,-3.076,3.603,4.482,-5.598,-0.701
-13.279,-10.823,-12.271,-3.384,0.347,2.02,-6.126,-0.015
-11.503,-10.902,-11.193,-7.107,-2.276,-2.452,-2.279,3.044
-14.459,-11.691,-15.824,-11.313,-4.964,-6.592,-1.67,2.174
-17.146,-11.915,-19.181,-10.755,-7.127,-6.555,-4.046,-1.389
-13.609,-8.994,-14.803,-6.214,-6.792,-2.819,-2.731,-2.538
-7.968,-5.082,-6.782,-4.986,-3.92,-1.752,1.718,-1.002
-8.568,-5.308,-2.78,-10.12,-0.535,-6.592,4.461,1.4
-14.016,-8.927,-4.615,-13.839,3.547,-9.88,5.441,3.922
-14.417,-8.683,-7.074,-9.205,9.899,-4.307,5.925,5.529
-7.399,-2.844,-6.028,-2.942,15.088,2.785,5.09,5.773
-1.298,2.007,-4.629,-4.404,10.942,0.668,2.73,5.248
-0.001,3.095,-4.652,-8.721,-3.11,-5.549,-0.441,4.069
-0.602,2.212,-5.088,-8.439,-14.688,-6.681,-4.533,1.539
-3.902,-2.459,-10.886,-8.639,-14.147,-6.637,-8.354,-1.888
-9.15,-9.398,-21.176,-12.777,-7.181,-9.599,-8.241,-3.242
-9.607,-9.876,-22.053,-12.815,-4.319,-9.508,-4.157,-0.762
-4.867,-2.272,-10.088,-4.895,-6.229,-3.272,-0.408,2.964
-1.933,4.354,-0.858,2.387,-5.857,2.557,1.7,4.407
-2.763,4.837,-2.689,2.236,-0.197,3.994,3.817,3.576
-4.169,2.283,-6.869,-1.452,6.196,4.261,5.287,2.814
-6.438,-1.373,-9.079,-5.203,7.613,2.767,3.757,2.17
-11.176,-6.001,-12.995,-9.773,3.487,-3.385,-0.406,0.335
-14.28,-7.345,-14.55,-10.927,-1.666,-8.227,-3.241,-0.761
-10.699,-2.106,-7.211,-4.131,-3.426,-4.833,-1.937,1.497
-3.118,5.427,3.079,5.418,-0.266,3.03,1.287,4.865
1.998,9.542,5.352,9.781,4.983,7.63,2.622,5.674
3.267,10.024,0.428,8.244,5.725,6.787,1.623,4.472
3.228,8.792,-2.81,4.906,1.041,3.412,0.203,3.498
3.237,6.746,-2.132,2.937,-3.091,1.029,-0.149,3.281
4.313,6.165,-0.793,2.913,-4.76,0.721,1.545,3.755
6.818,7.926,0.373,2.363,-5.535,0.455,4.421,4.24
6.951,7.16,0.307,-1.355,-4.956,-2.052,5.168,2.627
2.364,1.382,-2.323,-5.247,-1.984,-4.681,4.245,-0.434
-1.969,-3.51,-3.742,-4.32,3.624,-3.72,5.137,-0.7
-2.487,-3.613,-1.329,-0.919,8.266,-0.871,4.571,1.427
-1.833,-1.912,0.761,0.16,7.527,0.627,0.707,2.163
0.474,0.891,2.969,2.844,5.545,3.491,1.766,4.405
6.564,6.03,9.689,11.441,7.067,9.496,8.214,10.928
9.252,7.649,13.437,16.211,4.5,10.712,9.601,14.537
2.268,0.876,6.512,8.074,-5.449,2.84,5.787,10.927
-6.013,-6.939,-1.831,-1.947,-6.473,-2.824,5.712,7.561
-6.865,-8.255,-1.892,-0.761,8.456,1.913,9.063,9.39
-3.852,-5.751,3.237,7.004,20.075,9.182,8.037,10.899
-2.912,-3.99,8.19,11.273,16.643,9.98,2.875,7.574
-5.083,-4.405,11.395,9.211,8.203,4.059,1.453,4.412
-8.832,-6.898,11.231,4.604,2.569,-1.489,4.778,6.579
-12.494,-10.357,5.966,2.854,-0.557,0.66,5.995,9.123
-14.898,-13.667,-1.221,2.92,-0.183,6.034,3.275,6.118
-13.591,-14.456,-2.216,1.445,4.449,6.31,2.789,2.199
-6.083,-9.34,6.953,2.927,11.591,5.611,8.038,3.648
4.221,-0.369,19.245,10.519,18.123,9.587,13.775,6.801
9.922,4.99,24.733,15.668,21.143,11.557,14.392,6.447
10.079,4.65,24.412,11.595,19.475,6.154,12.017,5.816
10.672,4.028,26.525,5.538,10.327,1.09,10.623,8.215
14.684,6.192,31.781,7.012,-3.807,3.326,10.641,11.171
17.689,7.94,32.453,13.374,-6.452,7.711,12.533,13.263
13.365,4.75,23.731,13.993,6.609,6.41,14.63,13.516
4.426,-1.666,12.151,6.93,14.433,1.529,12.659,9.996
0.552,-4.246,9.862,1.675,8.389,0.879,7.933,6.22
1.768,-2.847,15.845,1.365,3.161,3.068,4.88,6.191
0.502,-3.724,15.5,0.175,6.952,1.531,4.496,6.388
-3.022,-7.258,6.887,-3.125,12.035,-2.287,5.936,3.508
-4.899,-10.125,2.797,-6.223,11.346,-4.972,7.291,1.127
-5.282,-11.191,4.417,-7.095,10.162,-5.503,6.918,2.035
-2.541,-7.588,4.852,-1.293,14.472,0.183,5.786,3.525
5.637,2.682,8.886,11.949,17.724,12.301,5.274,4.164
13.347,11.944,18.744,21.737,12.099,19.061,3.896,4.564
11.489,9.178,19.98,15.448,2.561,9.329,-0.492,2.079
2.12,-2.857,6.632,-0.453,0.064,-7.375,-4.588,-3.403
-3.711,-10.281,-3.477,-6.604,5.587,-11.387,-2.998,-5.517
-2.266,-8.881,2.702,-0.56,7.998,-3.968,1.644,-1.884
2.325,-4.857,14.996,5.214,2.41,-0.061,3.518,3.364
8.514,0.438,20.516,8.694,0.788,0.76,4.437,8.257
14.416,7.453,19.67,14.222,12.053,5.464,7.472,12.152
15.592,11.142,17.316,17.67,23.544,9.221,9.077,12.104
12.498,9.315,14.017,14.571,16.784,6.449,5.899,7.319
8.92,5.572,10.259,8.166,-7.545,0.285,-0.436,1.12
5.989,2.711,7.707,2.717,-28.849,-4.935,-6.102,-2.514
2.612,0.865,2.332,-0.915,-26.27,-7.195,-6.832,-2.496
-3.252,-2.664,-8.569,-3.506,-3.508,-5.564,-2.435,-1.848
-10.441,-9.548,-13.975,-5.452,12.279,-2.04,1.459,-2.878
-12.932,-14.733,-4.301,-5.587,8.892,0.118,2.671,-2.604
-9.393,-13.571,9.933,-2.409,4.13,2.416,5.791,2.216
-6.872,-9.997,14.668,3.043,10.49,8.263,11.371,8.758
-9.721,-9.644,11.768,6.005,16.317,13.233,11.884,10.859
-13.13,-11.119,9.016,3.325,14,10.851,4.333,6.218
-10.12,-8.531,9.636,0.502,14.178,5.981,-2.135,-0.092
-1.483,-0.767,13.345,3.795,19.707,6.368,-0.66,-0.844
4.792,6.05,16.323,8.579,17.608,8.754,1.817,3.336
5.201,7.839,16.712,8.681,6.356,7.819,-1.088,5.485
3.814,6.625,16.596,6.575,1.821,5.978,-4.189,3.733
3.417,4.905,15.281,5.789,8.91,5.855,-2.781,2.357
4.088,5.091,13.277,6.931,14.085,6.182,0.729,4.015
5.349,7.474,15.176,8.902,10.09,5.077,3.754,6.196
4.212,6.602,18.862,7.892,4.93,1.159,5.884,5.616
0.201,1.168,16.495,3.959,6.193,-3.148,7.722,4.736
-2.238,-2.395,8.966,2.229,10.946,-3.04,8.778,6.328
-2.509,-2.966,4.727,3.148,12.411,0.984,7.025,6.79
-4.49,-5.472,5.732,3.207,10.889,4.133,4.328,4.5
-8.646,-9.977,7.036,2.038,10.931,4.254,4.471,3.238
-12.518,-12.846,6.071,1.543,10.644,3.207,6.021,3.96
-14.843,-13.043,4.763,2.738,5.541,3.452,6.247,4.624
-15.41,-11.684,4.601,3.837,-1.72,4.555,6.004,4.609
-15.001,-10.531,2.479,2.001,-4.876,4.228,5.886,3.222
-13.912,-9.769,-2.521,-0.611,-2.228,2.817,5.93,1.226
-10.75,-6.897,-4.804,0.492,1.687,2.467,6.901,2.367
-7.359,-2.567,-4.806,3.71,1.809,3.156,4.587,4.58
-8.215,-2.075,-9.148,4.066,-1.449,3.566,-4.78,0.86
-10.426,-5.558,-13.445,0.943,-4.019,2.8,-12.161,-5.554
-6.927,-5.792,-8.629,-1.567,-2.867,1.788,-8.822,-5.678
-1.018,-1.192,0.433,-0.256,0.467,3.416,-2.627,-1.664
-0.195,1.889,5.084,3.486,1.378,7.32,-2.057,-0.122
-0.415,2.815,7.593,6.944,-0.376,9.019,-1.917,0.466
3.216,5.093,8.7,7.756,-2.388,5.171,0.73,1.648
3.185,4.525,1.237,3.107,-6.116,-2.938,-1.159,-0.433
-3.19,-1.802,-10.288,-3.619,-10.144,-7.064,-6.868,-4.362
-4.127,-5.067,-11.074,-3.252,-6.419,0.265,-5.973,-3.708
3.99,0.348,-2.986,4.188,5.184,12.073,1.595,0.462
9.901,6.329,1.228,8.467,10.054,14.621,4.726,2.274
9.154,6.19,1.434,5.695,-0.913,7.231,0.165,1.264
7.945,3.998,1.491,1.332,-13.996,0.284,-3.929,0.209
7.933,3.736,-2.049,-0.852,-11.247,-0.787,-2.018,0.039
5.755,3.576,-8.096,-1.379,2.529,1.502,2.096,-0.081
2.626,2.453,-9.359,-0.447,9.985,4.073,3.011,-1.062
2.339,2.23,-5.371,1.97,7.941,5.756,1.109,-2.192
2.467,2.164,-2.885,2.632,3.144,4.514,-1.311,-3.205
-2.464,-0.674,-5.298,-0.711,-4.659,0.459,-4.017,-5.553
-8.725,-3.155,-6.571,-2.034,-12.504,-0.335,-4.584,-6.863
-6.816,1.228,-0.089,4.242,-8.002,5.006,0.372,-2.009
1.44,9.3,7.617,11.818,5.993,9.908,6.515,5.886
4.235,10.689,6.384,11.549,10.715,8.455,4.908,6.897
-1.835,3.271,0.023,3.933,4.057,2.319,-3.587,-0.235
-8.132,-4.93,-2.642,-3.184,-0.948,-2.646,-8.087,-6.026
-6.636,-6.841,-2.141,-3.179,-1.137,-1.256,-3.716,-4.727
0.693,-3.304,-1.199,2.112,0.442,4.186,2.754,-0.559
5.316,-0.299,1.137,4.018,3.192,4.754,4.435,1.105
4.956,0.179,3.864,1.255,4.168,0.235,3.318,0.744
5.341,1.296,5.022,1.709,1.378,0.478,3.871,0.531
6.872,1.575,3.715,3.811,-2.125,4.453,3.75,-0.516
4.428,-2.877,-1.665,-1.058,-3.487,2.395,-0.315,-3.176
-0.147,-7.262,-8.903,-7.517,-2.649,-1.72,-4.009,-4.679
0.436,-3.653,-10.478,-3.832,-0.046,2.297,-2.506,-2.488
7.473,7.177,-3.372,7.751,3.405,11.487,1.919,2.19
13.155,16.385,3.832,15.011,3.795,15.407,4.068,5.387
10.386,16.239,1.549,12.016,-2.139,11.009,1.892,3.678
4.389,9.192,-4.528,5.013,-9.869,5.123,-1.312,-0.356
5.485,5.429,-1.992,3.611,-10.397,4.803,-0.311,0.464
12.133,8.744,6.546,8.582,-1.185,8.928,5.035,6.263
14.328,12.044,9.277,11.349,10.172,10.16,8.989,8.64
10.012,10.231,4.912,7.443,15.208,5.701,7.956,4.8
6.091,7.598,-0.297,2.878,14.28,1.782,5.459,1.16
6.764,8.332,-4.105,1.586,12.629,1.78,4.812,0.821
9.7,10.139,-5.93,0.224,10.932,1.305,2.564,-0.068
12.1,10.818,-3.713,-1.107,5.753,-0.151,-2.922,-2.57
14.065,12.065,0.014,1.153,-1.592,2.218,-4.938,-2.466
15.058,13.578,-1.943,3.615,-4.761,5.967,-0.783,0.206
12.891,11.131,-9.883,-0.339,-3.387,2.795,1.942,0.06
9.227,4.629,-15.332,-7.699,-2.477,-4.874,0.199,-2.066
8.564,0.054,-13.781,-9.284,-2.304,-5.626,-0.896,-1.166
10.93,1.352,-7.979,-3.171,-1.271,2.085,-0.166,0.775
13.163,6.206,-0.969,3.83,-1.705,7.793,0.898,0.638
12.317,7.173,2.807,3.31,-5.186,2.985,2.725,0.285
5.922,-0.553,-2.585,-6.203,-9.346,-9.075,3.244,-0.548
-2.849,-9.51,-13.517,-15.289,-12.304,-16.041,0.13,-3.779
-5.406,-8.283,-17.06,-13.657,-13.345,-9.758,-3.178,-5.765
0.348,1.915,-10.335,-2.331,-10.023,4.619,-1.395,-1.756
5.423,9.249,-5.366,7.444,-4.367,13.492,3.259,4.38
1.895,6.758,-9.363,6.231,-4.486,9.007,3.018,4.527
-5.771,-0.307,-15.332,-1.747,-10.287,-0.532,-1.685,-0.514
-8.191,-3.618,-15.699,-4.936,-11.774,-2.188,-3.06,-3.138
-4.666,-2.354,-12.108,-2.645,-6.401,2.178,-0.596,-1.628
-0.486,0.389,-7.831,-2.073,-2.086,3.519,0.372,0.69
1.553,2.238,-2.221,-3.336,-3.443,2.431,-1.266,2.208
0.497,0.302,2.248,-3.36,-7.539,2.85,-3.471,1.803
-2.417,-4.388,0.114,-3.472,-10.346,2.498,-4.302,-0.641
-3.481,-6.779,-7.272,-5.496,-10.055,-1.734,-3.009,-2.366
-3.261,-7.353,-14.108,-9.42,-7.659,-7.554,-1.397,-1.881
-4.794,-9.868,-17.346,-12.979,-6.376,-9.521,-0.508,-0.114
-5.044,-11.478,-15.346,-11.88,-6.808,-6.021,2.481,3.251
-0.984,-8.096,-9.173,-6.178,-6.214,-2.272,9.355,7.945
2.502,-3.525,-4.181,-1.946,-4.282,-3.048,15.348,10.072
1.419,-2.978,-4.118,-2.275,-2.884,-5.07,14.373,7.039
-1.931,-5.24,-7.761,-4.698,-2.806,-4.935,7.408,1.513
-5.465,-6.861,-10.777,-7.58,-5.215,-6.869,0.251,-1.822
-7.211,-6.645,-9.351,-9.496,-9.634,-10.711,-4.081,-1.003
-5.196,-6.007,-6.326,-8.336,-12.017,-9.044,-7.134,-0.046
-2.994,-7.01,-8.006,-6.647,-10.757,-3.523,-9.449,-3.224
-3.55,-7.543,-12.621,-7.754,-7.878,-2.192,-8.174,-6.559
-3.172,-4.422,-13.578,-9.2,-4.571,-4.244,-4.076,-5.241
0.077,0.209,-9.142,-7.534,-2.392,-4.41,-1.768,-1.946
4.082,4.573,0.928,-1.245,-2.253,-0.763,-0.121,0.95
7.573,9.622,13.653,8.726,-1.673,6.446,4.65,4.306
7.546,10.832,16.278,13.768,-1.447,11.542,8.342,5.49
1.118,3.554,3.266,6.665,-4.461,7.686,5.339,1.969
-6.293,-5.055,-9.153,-2.852,-4.867,0.278,0.733,-1.277
-6.434,-5.423,-5.965,-1.5,2.883,-0.059,3.117,2.457
-1.211,-1.079,4.522,5.356,10.272,4.45,9.54,9.798
1.93,-0.31,8,5.81,8.471,4.883,10.592,10.414
3.169,-1.042,7.599,3.112,3.41,2.849,7.368,3.691
4.865,0.767,11.186,5.202,2.461,5.34,6.983,-1.432
3.315,1.089,13.232,7.774,2.133,8.993,7.334,-2.049
-1.476,-1.548,8.838,4.744,-0.489,6.21,3.877,-0.928
-2.848,-1.432,4.773,1.966,-0.294,2.55,1.692,2.2
0.238,3.399,5.715,6.453,5.138,7.386,5.723,7.313
2.189,7.635,7.456,12.169,9.615,13.336,9.837,9.981
1.597,7.963,6.96,11.329,8.427,10.275,8.146,7.624
1.9,7.823,7.452,8.611,4.227,4.999,5.014,4.026
2.768,9.058,9.611,9.518,0.22,4.868,4.621,3.092
1.392,8.688,7.931,10.239,-2.014,5.935,4.779,4.175
-0.032,6.727,2.234,7.834,-0.543,6.1,4.654,5.513
1.904,6.057,-0.111,5.31,4.373,7.369,6.1,6.959
5.726,7.143,3.175,5.54,10.186,9.183,8.203,8.801
9.553,10.1,8.693,9.811,13.679,11.599,9.084,9.956
12.713,13.696,14.113,16.518,9.822,14.895,8.488,8.187
9.986,10.409,14.642,15.77,-2.754,11.993,3.715,1.958
-1.518,-2.591,6.943,1.659,-12.601,-1.586,-5.221,-6.201
-11.309,-11.954,-0.152,-9.857,-7.122,-10.83,-8.646,-8.985
-8.944,-7.006,2.497,-3.95,6.896,-2.363,-1.366,-3.339
-0.773,2.847,8.751,5.766,13.51,9.494,7.215,4.108
1.368,5.199,9.296,3.616,9.696,7.921,7.899,6.569
-3.12,1.115,5.393,-3.034,1.979,-0.48,3.033,4.27
-6.728,-2.579,3.548,-4.268,-5.034,-3.667,-1.118,0.533
-5.187,-2.8,6.983,-2.887,-9.068,-2.113,-2.899,-2.099
-0.492,-0.093,11.807,-2.407,-7.79,-0.537,-3.125,-2.188
4.614,4.526,11.909,-0.38,0.494,1.589,-0.429,0.701
10.231,10.875,9.6,4.601,12.279,5.587,6.071,5.496
15.156,17.118,10.986,9.747,18.267,8.948,11.846,8.728
14.598,18.437,12.716,10.942,14.297,8.262,11.088,6.96
7.106,12.327,9.401,6.224,8.539,3.269,5.199,2.078
-1.305,4.03,6.104,0.35,8.504,-0.801,1.132,-0.408
-5.093,0.697,7.572,0.808,8.764,1.164,1.73,0.719
-6.294,1.228,8.634,6.482,3.834,6.138,3.555,2.008
-8.637,0.332,6.249,9.879,-0.245,7.807,3.708,1.923
-9.972,-0.75,6.326,9.156,1.211,4.923,3.559,2.843
-6.167,3.138,13.082,8.977,1.762,2.163,5.356,6.548
-0.17,9.491,19.951,10.434,-4.636,4.315,7.256,10.016
-1.559,7.294,15.779,7.388,-12.943,7.042,5.192,9.209
-12.689,-6.411,2.069,-2.476,-15.006,2.158,0.569,4.857
-22.263,-18.531,-6.082,-10.901,-9.878,-6.982,-1.39,0.142
-21.084,-18.753,-2.41,-10.674,-2.736,-9.963,-0.496,-2.352
-14.375,-12.334,4.056,-5.365,0.036,-5.816,-0.436,-2.043
-10.972,-7.681,6.248,-2.656,-2.726,-3.005,-2.368,-2.177
-10.262,-5.337,6.092,-3.731,-4.343,-5.089,-3.805,-3.293
-7.06,-2.548,6.967,-3.815,-0.083,-6.12,-2.252,-0.767
-3.548,-1.44,7.317,-2.366,3.914,-3.342,-0.3,3.279
-4.796,-4.523,4.031,-3.335,0.471,-2.002,-2.158,1.54
-6.728,-5.88,0.743,-4.554,-5.7,-2.912,-5.317,-2.909
-4.261,-1.382,2.895,-0.963,-6.676,-1.352,-5.435,-2.257
-1.987,2.148,8.127,4.073,-4.088,1.394,-4.154,0.838
-2.934,1.052,12.567,4.808,-2.403,1.44,-3.239,0.758
-1.417,1.332,16.631,3.389,-1.003,0.855,-0.54,0.319
4.215,4.769,18.773,3.279,0.777,1.266,2.898,2.386
6.25,5.21,15.951,2.33,1.741,0.084,2.293,3.075
0.779,0.296,10.299,-0.905,3.084,-2.869,-1.567,0.734
-6.054,-5.084,6.144,-4.163,6.253,-5.802,-3.269,-1.38
-8.138,-6.715,4.749,-6.214,8.848,-8.466,-2.412,-2.556
-4.536,-4.093,7.56,-5.837,8.659,-8.873,-1.233,-2.673
3.646,1.576,16.406,-0.266,7.773,-3.476,2.033,1.384
11.437,6.269,25.585,7.967,7.011,5.479,6.778,7.473
11.943,5.668,25.673,10.568,3.003,9.164,7.032,8.148
5.766,0.896,17.669,5.345,-1.911,3.667,2.596,3.727
-0.258,-3.323,10.827,-0.889,-0.41,-4.545,-0.503,0.367
-2.666,-4.162,9.019,-3.413,4.211,-9.2,-1.279,-1.161
-2.372,-2.017,9.611,-3.798,3.833,-10.784,-2.37,-2.311
-0.668,0.978,10.159,-3.133,1.793,-9.976,-2.927,-2.125
0.028,1.774,7.904,-1.103,3.681,-6.024,-1.705,-1.065
-3.197,-1.715,1.639,-0.597,5.666,-2.541,-1.207,-1.16
-8.092,-6.558,-3.225,-3.676,3.586,-3.503,-3.137,-2.485
-9.334,-7.345,-2.652,-6.58,0.407,-6.056,-4.614,-3.156
-7.299,-4.434,-0.544,-5.947,-1.243,-6.354,-3.859,-2.288
-7.014,-3.252,-0.49,-4.521,-4.631,-6.191,-4.482,-1.955
-9.999,-5.616,-1.283,-5.343,-11.6,-7.157,-8.794,-4.02
-12.661,-7.516,-1.233,-5.747,-18.416,-6.214,-11.529,-5.486
-12.279,-6.112,-1.226,-3.454,-21.256,-3.586,-7.517,-2.412
-10.996,-4.455,-3.477,-2.196,-17.46,-4.304,-1.169,2.775
-10.465,-5.29,-6.069,-3.612,-7.629,-7.01,1.009,4.823
-7.013,-4.559,-3.03,-2.535,1.752,-4.722,0.89,3.585
1.688,2.005,5.258,3.058,7.037,2.446,2.037,2.273
10.456,9.764,9.492,6.416,9.513,5.997,0.979,0.859
12.924,11.069,5.11,2.634,8.592,1.423,-4.912,-2.691
10.008,7.758,-0.485,-1.981,4.68,-4.013,-9.827,-6.044
8.023,7.782,0.329,-0.261,-1.458,-2.742,-9.773,-5.437
10.617,12.052,5.751,3.713,-11.343,0.587,-8.873,-2.642
14.654,15.337,8.598,4.168,-18.291,0.145,-8.001,-0.716
14.993,16.1,4.66,4.68,-11.521,1.285,-2.743,1.304
13.382,17.312,-0.587,9.695,3.795,8.746,4.645,4.481
15.122,20.04,0.524,15.12,12.485,14.861,7.116,6.777
17.245,20.409,3.023,13.778,10.019,10.964,4.192,5.369
13.945,15.284,-0.769,6.094,2.561,1.792,0.141,0.891
9.201,8.453,-4.585,0.631,-3.774,-1.711,-3.443,-2.251
9.132,5.68,-1.807,1.8,-5.33,1.347,-6.03,-1.859
10.699,6.643,0.71,4.176,-0.756,3.3,-5.455,-0.144
9.11,7.283,-2.234,3.592,4.358,1.597,-2.295,0.828
7.443,7.325,-3.35,3.932,2.501,1.298,-0.674,1.243
10.85,9.684,2.843,8.557,-2.877,5.467,-1.818,1.629
16.136,13.095,8.882,12.672,-4.559,8.491,-2.947,1.385
15.432,12.431,7.091,9.175,-3.878,2.546,-2.222,-0.278
8.805,7.196,1.894,-0.107,-2.169,-8.702,-0.33,-2.405
4.239,2.883,0.714,-5.101,2.285,-10.857,1.64,-2.714
6.765,4.427,5.274,0.185,6.084,1.632,3.936,0.121
12.887,9.869,12.044,9.635,6.18,15.448,6.335,4.137
14.606,10.487,13.357,10.889,6.287,15.19,6.185,4.6
10.164,3.538,6.61,2.252,10.054,4.035,2.807,0.664
6.521,-1.469,-0.436,-3.802,14.975,-2.308,0.212,-2.283
7.004,0.705,-1.233,-2.004,14.726,-0.425,0.03,-1.81
6.582,2.336,0.688,-2.352,5.947,-1.774,-1.886,-2.293
3.066,-0.844,-0.708,-8.488,-6.193,-8.579,-6.694,-5.596
0.977,-2.822,-4.899,-10.747,-11.614,-9.962,-9.47,-7.559
1.941,-1.087,-8.329,-6.161,-7.766,-4.262,-8.45,-6.363
2.87,0.655,-9.977,-3.047,-2.454,-1.223,-7.353,-5.234
2.555,0.864,-10.589,-5.7,-1.741,-4.163,-8.625,-5.937
1.372,-0.251,-10.93,-10.191,-4.434,-7.533,-10.909,-6.266
-0.879,-2.295,-10.936,-12.047,-7.526,-7.074,-11.198,-4.92
-3.907,-4.272,-10.6,-11.967,-10.056,-5.307,-9.203,-4.557
-7.117,-6.599,-9.965,-13.805,-12.859,-7.698,-8.098,-6.908
-9.223,-8.704,-7.573,-16.284,-13.701,-12.441,-7.628,-8.268
-8.77,-8.289,-3.727,-14.07,-7.378,-11.757,-3.971,-5.031
-6.944,-6.989,-1.403,-9.055,0.635,-6.81,0.809,-0.485
-6.513,-8.752,-2.305,-8.064,-3.093,-6.557,0.567,-0.316
-8.296,-12.879,-7.194,-10.397,-13.043,-10.949,-3.274,-3.787
-11.034,-15.494,-13.583,-11.202,-11.294,-12.694,-4.334,-4.869
-12.618,-14.772,-15.475,-10.658,-1.438,-10.323,-3.034,-2.024
-11.392,-11.161,-13.105,-10.14,1.809,-6.658,-4.083,-1.186
-8.55,-6.311,-12.351,-8.964,0.508,-4.285,-6.847,-5.788
-7.247,-2.984,-13.768,-8.234,0.492,-5.988,-7.589,-10.83
-8.176,-2.474,-13.739,-9.81,-3.062,-10.558,-6.639,-11.668
-9.045,-2.985,-12.461,-11.702,-9.468,-11.798,-6.215,-9.526
-8.853,-3.483,-12.422,-10.673,-9.833,-8.072,-5.915,-6.665
-9.549,-5.825,-13.24,-9.438,-6.539,-6.971,-5.678,-5.565
-12.024,-9.881,-13.423,-12.896,-8.585,-12.963,-6.984,-8.229
-13.43,-11.846,-13.768,-17.665,-11.878,-17.509,-9.246,-11.735
-11.584,-10.518,-15.245,-16.658,-8.206,-12.629,-10.661,-11.792
-9.076,-8.909,-15.816,-11.273,-2.857,-5.154,-10.573,-8.605
-8.769,-8.428,-12.487,-8.526,-4.606,-5.214,-8.93,-4.927
-8.672,-7.445,-6.578,-9.684,-9.166,-9.989,-6.085,-2.838
-7.405,-6.58,-4.81,-10.603,-7.291,-11.081,-3.176,-3.533
-8.723,-9.425,-9.883,-10.118,-1.669,-9.098,-1.451,-6.031
-13.772,-15.164,-13.534,-9.969,-2.291,-9.033,-1.842,-6.821
-17.643,-18.209,-9.808,-9.601,-11.052,-10.604,-4.893,-4.058
-16.527,-15.897,-5.071,-5.632,-21.22,-9.693,-8.539,0.338
-11.138,-9.263,-3.384,3.759,-26.352,-2.895,-8.382,2.933
-5.701,-2.297,-0.555,12.897,-26.439,5.937,-3.926,1.703
-6.125,-2.075,0.201,12.583,-26.441,5.908,-0.756,-1.847
-14.262,-9.931,-9.618,3.371,-27.386,-4.208,-3.132,-5.204
-24.177,-18.586,-24.137,-5.421,-25.619,-12.436,-7.211,-7.148
