EEG 1,EEG 2,EEG 3,EEG 4,EEG 5,EEG 6,EEG 7,EEG 8
1087.379,1107.721,1091.598,1102.56,1088.716,1105.8,1096.382,1106.09
1012.919,1037.419,1018.333,1030.702,1016.583,1033.466,1024.889,1026.949
963.988,991.395,970.307,981.616,970.999,982.585,973.389,973.094
1015.136,1043.021,1018.234,1029.691,1018.923,1029.52,1021.002,1023.173
1210.741,1236.626,1206.249,1219.467,1204.361,1218.679,1215.291,1216.43
1585.636,1608.132,1576.283,1590.82,1573.001,1589.654,1586.927,1589.803
2046.758,2066.138,2040.787,2055.557,2038.497,2054.432,2046.13,2056.025
2361.032,2379.464,2362.253,2377.316,2361.151,2375.768,2370.664,2377.919
2367.314,2388.311,2372.276,2388.795,2371.091,2386.313,2391.526,2387.92
2109.268,2137.775,2114.209,2133.264,2111.883,2130.914,2135.238,2131.818
1727.528,1766.456,1732.934,1753.329,1729.522,1752,1749.693,1753.562
1328.242,1368.541,1335.052,1352.712,1331.981,1351.7,1352.282,1355.1
997.408,1023.141,1004.167,1015.404,1003.416,1014.077,1018.599,1018.092
871.353,883.682,878.031,884.107,879.694,882.419,882.474,886.135
1091.447,1109.947,1099.927,1108.197,1100.276,1105.847,1101.58,1112.384
1611.049,1644.401,1619.921,1636.732,1615.332,1633.632,1630.781,1645.343
2101.004,2136.699,2105.731,2127.935,2098.295,2125.036,2123.038,2137.234
2222.713,2249.588,2219.888,2240.035,2214.22,2238.969,2232.697,2244.902
1991.488,2014.277,1982.291,1998.673,1979.243,1999.714,1988.493,2000.971
1688.539,1716.21,1681.474,1695.222,1679.609,1696.353,1686.213,1701.166
1502.285,1533.008,1504.129,1514.804,1503.177,1514.436,1510.718,1524.314
1485.976,1511.824,1490.443,1500.287,1489.942,1498.908,1499.975,1506.91
1681.318,1704.95,1681.681,1694.574,1680.166,1692.498,1693.985,1695.144
1980.3,2012.218,1983.071,1997.719,1980.538,1994.366,1996.26,1995.057
2053.006,2089.809,2061.771,2073.576,2060.192,2069.48,2074.353,2071.887
1694.569,1719.88,1697.089,1704.851,1697.854,1701.522,1707.248,1705.383
1106.517,1117.414,1093.475,1099.414,1096.085,1097.43,1096.573,1099.551
652.707,664.822,632.264,639.129,635.132,638.105,627.494,636.184
452.145,477.805,437.762,447.917,439.131,447.78,435.503,443.57
387.052,423.019,384.399,397.469,383.519,398.511,394.569,396.629
463.864,497.56,469.207,481.569,467.506,483.232,485.354,485.319
877.675,901.132,882.216,891.439,881.725,891.963,890.933,894.521
1563.108,1584.253,1562.509,1569.944,1562.511,1568.168,1563.958,1569.095
2010.278,2044.025,2008.833,2017.55,2006.612,2014.697,2014.016,2016.877
1836.721,1879.127,1837.033,1848.227,1832.31,1846.375,1849.075,1852.885
1240.22,1269.075,1236.978,1248.679,1232.229,1248.128,1249.553,1258.978
627.795,638.898,619.474,629.548,616.35,629.354,630.108,642.032
163.55,178.675,157.02,164.9,155.768,164.771,167.363,174.458
-140.033,-108.277,-142.41,-137.273,-141.69,-137.124,-135.691,-134.676
-278.287,-240.746,-282.135,-278.988,-280.132,-278.741,-283.343,-281.434
-332.781,-301.747,-340.765,-335.774,-338.869,-335.336,-344.302,-335.646
-434.818,-409.226,-443.296,-433.325,-441.827,-431.81,-438.09,-425.781
-632.769,-607.592,-639.419,-626.185,-637.801,-623.532,-624.417,-615.444
-888.756,-864.318,-896.037,-883.135,-894.446,-880.624,-881.796,-876.984
-1138.808,-1115.31,-1148.993,-1136.694,-1147.906,-1134.96,-1143.36,-1136.827
-1381.769,-1354.758,-1392.57,-1380.193,-1391.53,-1378.924,-1393.518,-1383.214
-1725.178,-1691.527,-1731.947,-1722.197,-1730.186,-1721.266,-1733.916,-1726.728
-2212.478,-2175.654,-2214.01,-2208.426,-2211.428,-2207.209,-2213.041,-2214.451
-2675.249,-2641.899,-2675.821,-2670.071,-2673.234,-2667.572,-2670.385,-2674.379
-2934.594,-2906.556,-2938.529,-2928.628,-2936.757,-2925.466,-2930.993,-2927.337
-3047.097,-3018.899,-3053.543,-3042.037,-3051.769,-3039.955,-3048.275,-3036.556
-3190.238,-3156.568,-3196.56,-3186.908,-3194.033,-3186.435,-3195.258,-3182.138
-3382.755,-3345.87,-3389.538,-3379.818,-3388.452,-3380.179,-3391.468,-3377.801
-3466.411,-3434.374,-3477.39,-3465.21,-3479.506,-3465.475,-3482.474,-3466.194
-3381.29,-3357.664,-3399.032,-3386.787,-3401.899,-3386.445,-3405.949,-3392.346
-3316.415,-3292.905,-3335.717,-3326.064,-3336.934,-3325.497,-3338.826,-3333.625
-3459.372,-3427.567,-3471.287,-3462.858,-3472.021,-3462.875,-3466.771,-3464.473
-3724.188,-3689.717,-3729.627,-3720.351,-3730.476,-3720.836,-3722.094,-3713.487
-3881.493,-3852.533,-3888.555,-3879.157,-3887.186,-3879.078,-3882.654,-3870.173
-3850.259,-3822.756,-3859.768,-3852.027,-3855.133,-3850.854,-3852.98,-3847.175
-3742.415,-3709.653,-3750.303,-3743.588,-3745.351,-3741.952,-3741.815,-3742.488
-3681.078,-3645.912,-3688.756,-3680.219,-3686.926,-3678.925,-3682.116,-3676.977
-3664.955,-3634.113,-3675.215,-3663.212,-3676.362,-3662.02,-3669.381,-3653.401
-3617.686,-3591.438,-3627.608,-3612.689,-3629.407,-3610.691,-3619.099,-3599.749
-3500.569,-3473.733,-3506.42,-3490.492,-3507.694,-3487.596,-3498.63,-3482.915
-3340.094,-3311.752,-3344.485,-3331.151,-3345.202,-3328.797,-3344.687,-3333.22
-3196.113,-3172.195,-3204.661,-3196.569,-3204.913,-3197.001,-3212.333,-3202.456
-3114.78,-3096.323,-3125.258,-3119.763,-3125.277,-3123.758,-3130.564,-3119.587
-3071.721,-3050.18,-3075.497,-3067.138,-3075.796,-3072.662,-3071.589,-3060.062
-2996.713,-2969.712,-2995.357,-2982.243,-2996.512,-2986.892,-2985.603,-2976.627
-2886.251,-2859.963,-2889.523,-2872.849,-2891.571,-2876.643,-2879.437,-2872.716
-2807.259,-2779.209,-2813.545,-2793.527,-2816.269,-2797.785,-2803.223,-2794.599
-2772.237,-2738.1,-2772.577,-2751.573,-2774.985,-2756.914,-2761.262,-2750.742
-2725.979,-2694.088,-2719.651,-2704.734,-2719.472,-2711.492,-2711.189,-2702.603
-2650.411,-2624.083,-2640.578,-2634.657,-2637.623,-2643.011,-2639.791,-2630.442
-2577.034,-2543.41,-2564.143,-2560.212,-2561.388,-2569.309,-2568.495,-2554.264
-2518.324,-2473.162,-2505.172,-2495.019,-2504.915,-2503.783,-2504.475,-2491.363
-2456.198,-2416.299,-2448.87,-2431.16,-2451.196,-2439.293,-2438.388,-2431.233
-2381.581,-2359.052,-2381.526,-2360.128,-2385.035,-2367.561,-2369.05,-2361.258
-2303.848,-2290.152,-2305.421,-2285.604,-2307.615,-2292.724,-2298.878,-2286.767
-2221.155,-2207.296,-2220.261,-2205.708,-2219.297,-2213.604,-2217.706,-2207.385
-2123.629,-2112.491,-2122.677,-2112.022,-2119.531,-2120.511,-2120.066,-2113.008
-2037.944,-2029.129,-2040.201,-2027.902,-2037.979,-2035.148,-2037.423,-2027.58
-2014.755,-1998.058,-2018.515,-2000.868,-2019.119,-2006.414,-2013.986,-2000.896
-2053.905,-2022.356,-2052.404,-2030.361,-2055.106,-2036.086,-2043.273,-2032.397
-2092.89,-2051.765,-2081.078,-2058.492,-2084.257,-2065.838,-2070.567,-2063.284
-2084.59,-2045.384,-2066.524,-2048.627,-2068.558,-2056.765,-2063.155,-2056.764
-2050.693,-2019.01,-2034.722,-2025.063,-2034.021,-2032.448,-2042.348,-2035.855
-2045.392,-2018.293,-2034.399,-2030.665,-2031.204,-2037.067,-2045.792,-2040.391
-2086.191,-2060.999,-2078.02,-2074.096,-2074.643,-2080.181,-2082.73,-2078.63
-2141.415,-2119.363,-2132.964,-2126.477,-2130.059,-2132.415,-2130.113,-2126.169
-2176.769,-2156.755,-2164.769,-2159.022,-2160.235,-2164.424,-2161.342,-2157.483
-2186.307,-2163.749,-2170.371,-2167.747,-2164.202,-2172.692,-2170.174,-2166.125
-2180.707,-2154.184,-2165.022,-2163.202,-2160.411,-2168.638,-2165.801,-2159.815
-2165.579,-2138.574,-2152.569,-2149.608,-2149.737,-2156.14,-2149.991,-2144.087
-2132.834,-2108.481,-2118.57,-2116.023,-2114.087,-2122.579,-2110.646,-2109.783
-2067.343,-2044.481,-2046.731,-2044.522,-2040.252,-2049.042,-2037.111,-2038.68
-1965.537,-1940.493,-1938.934,-1933.225,-1933.443,-1935.005,-1932.579,-1928.26
-1849.906,-1821.856,-1823.584,-1812.114,-1819.967,-1812.646,-1818.384,-1806.809
-1745.891,-1717.485,-1726.685,-1711.288,-1724.059,-1711.943,-1716.547,-1702.73
-1642.49,-1615.112,-1632.318,-1616.1,-1630.879,-1616.332,-1618.157,-1605.141
-1513.504,-1489.264,-1510.459,-1494.877,-1510.235,-1493.825,-1498.656,-1486.828
-1373.352,-1357.963,-1374.019,-1357.846,-1373.858,-1356.166,-1365.513,-1353.331
-1263.983,-1256.409,-1260.936,-1242.535,-1260.107,-1241.607,-1253.004,-1236.569
-1193.168,-1180.83,-1178.148,-1157.644,-1177.173,-1157.504,-1171.299,-1149.678
-1128.854,-1102.585,-1102.103,-1079.665,-1102.335,-1078.753,-1094.849,-1073.746
-1046.118,-1010.833,-1015.194,-991.572,-1017.605,-989.328,-1002.933,-987.649
-949.023,-915.553,-918.97,-898.563,-922.35,-896.649,-904.429,-893.056
-857.126,-830.625,-826.924,-814.406,-828.525,-813.871,-819.039,-806.766
-780.66,-760.299,-748.352,-742.56,-747.441,-742.051,-748.246,-735.567
-704.844,-688.538,-672.905,-668.022,-672.006,-665.97,-671.638,-663.936
-609.451,-592.52,-581.756,-572.967,-583.041,-569.398,-573.142,-571.341
-496.474,-473.372,-472.736,-459.969,-474.954,-455.797,-460.747,-459.062
-383.749,-357.433,-362.43,-349.84,-363.393,-345.837,-353.763,-349.368
-283.359,-263.053,-265.315,-255.889,-265.535,-252.47,-258.971,-255.593
-195.575,-180.895,-179.368,-171.626,-180.2,-168.944,-169.461,-170.069
-117.237,-96.343,-96.812,-88.976,-96.846,-87.06,-86.698,-87.83
-52.86,-21.678,-25.991,-19.103,-23.686,-18.021,-25.786,-22.168
-14.318,15.394,12.264,18.185,14.152,18.378,6.312,13.163
-0.939,18.147,19.945,28.361,18.031,27.9,21.908,28.51
13.545,27.936,32.075,45.911,27.655,45.247,42.801,52.316
58.736,76.907,78.144,95.541,74.064,94.8,87.586,101.446
136.089,157.204,154.302,169.721,151.374,168.68,159.922,170.391
223.011,242.289,237.614,247.625,236.302,246.509,242.714,245.064
302.604,320.633,312.85,319.463,313.155,318.81,316.488,317.578
375.121,395.397,382.247,388.828,382.466,388.408,384.073,390.248
449.651,468.575,456.907,463.487,455.982,462.781,460.915,469.475
536.061,548.162,547.102,551.246,546.508,550.53,551.984,559.169
636.636,649.502,654.176,655.261,655.364,654.876,653.839,658.753
744.206,768.238,765.896,768.042,767.061,767.762,761.587,764.57
850.066,877.703,869.629,877.384,867.873,876.973,866.22,872.319
950.874,970.639,969.388,980.506,965.709,979.746,964.157,978.169
1044.829,1063.672,1068.811,1078.166,1066.805,1077.059,1057.8,1074.685
1114.628,1141.611,1140.669,1149.794,1140.593,1149.275,1129.487,1141.747
1133.471,1161.023,1152.763,1166.772,1151.633,1167.948,1149.566,1158.129
1105.61,1125.975,1119.938,1138.574,1116.33,1141.427,1124.258,1133.271
1071.739,1091.454,1088.257,1107.91,1083.16,1112.007,1096.317,1104.477
1060.894,1087.441,1079.369,1098.678,1074.163,1103.997,1091.24,1095.645
1067.182,1095.267,1084.437,1101.277,1080.417,1106.647,1097.564,1100.662
1081.061,1100.046,1098.495,1108.814,1096.832,1112.041,1104.376,1110.874
1110.708,1120.033,1129.686,1135.041,1129.963,1136.269,1125.433,1136.189
1162.153,1170.609,1179.719,1186.924,1179.611,1188.384,1175.471,1186.857
1225.358,1238.172,1238.08,1249.733,1235.911,1251.993,1243.79,1252.535
1288.96,1305.998,1298.539,1311.916,1295.484,1314.003,1309.263,1317.106
1353.528,1374.694,1367.644,1379.564,1366.743,1381.696,1370.28,1381.127
1425.711,1448.951,1448.076,1456.881,1450.488,1460.38,1437.894,1452.419
1507.873,1527.87,1528.356,1535.253,1531.147,1540.378,1514.373,1528.537
1591.625,1606.395,1597.445,1605.741,1596.829,1610.676,1592.567,1600.689
1658.893,1673.024,1653.738,1664.677,1649.691,1667.391,1660.469,1661.859
1702.155,1720.166,1701.972,1712.854,1697.76,1713.814,1710.845,1710.71
1734.923,1755.975,1747.671,1754.975,1745.835,1755.831,1749.946,1752.267
1769.027,1788.87,1789.237,1792.173,1789.768,1792.518,1784.731,1789.744
1802.121,1817.468,1823.145,1822.769,1825.027,1821.481,1814.146,1821.224
1831.941,1843.972,1851.983,1849.44,1854.159,1847.579,1839.495,1846.626
1862.212,1874.708,1877.644,1875.606,1878.195,1874.621,1866.145,1870.641
1893.956,1906.419,1900.007,1901.022,1897.731,1900.12,1895.024,1896.599
1921.285,1927.441,1921.926,1923.942,1918.853,1921.98,1923.173,1921.95
1939.481,1936.859,1946.031,1945.659,1945.038,1943.804,1948.375,1945.108
1954.242,1950.679,1972.822,1971.521,1973.705,1971.627,1969.792,1969.299
1973.469,1976.313,1998.776,1999.706,1999.563,2001.087,1987.286,1991.364
1988.518,1994.231,2010.772,2013.114,2011.247,2013.213,1995.314,1997.833
1978.414,1982.659,1995.477,1997.424,1996.158,1995.278,1983.689,1981.999
1938.997,1946.783,1957.197,1960.487,1956.868,1957.451,1952.345,1951.428
1889.576,1903.256,1910.752,1917.276,1908.677,1914.863,1909.95,1911.5
1846.539,1856.388,1863.131,1870.842,1861.089,1869.607,1860.572,1861.898
1811.475,1811.043,1817.944,1823.907,1817.5,1823.845,1809.998,1811.632
1785.404,1781.783,1784.522,1789.021,1785.112,1789.632,1773.67,1776.279
1771.245,1772.763,1768.369,1773.641,1768.861,1773.877,1760.479,1760.824
1766.025,1773.962,1765.781,1771.996,1765.909,1771.216,1762,1759.532
1775.594,1787.059,1780.661,1785.148,1780.807,1783.987,1776.077,1775.451
1816.107,1825.163,1824.615,1825.548,1825.129,1825.026,1815.166,1819.096
1878.088,1878.846,1885.871,1884.606,1887.149,1884.732,1872.738,1878.106
1926.454,1918.939,1931.226,1931.401,1933.327,1931.701,1920.252,1922.415
1946.484,1936.282,1949.28,1954.411,1951.176,1955.216,1945.085,1944.667
1955.923,1947.26,1960.191,1968.688,1961.565,1970.362,1958.449,1961.511
1970.677,1963.341,1978.107,1983.388,1980.35,1985.245,1971.056,1979.975
1982.222,1977.298,1991.198,1990.927,1994.292,1992.31,1980.1,1989.644
1975.629,1975.674,1984.134,1983.108,1985.73,1984.332,1976.366,1982.438
1948.907,1950.419,1955.421,1957.045,1954.569,1958.659,1953.658,1957.376
1904.31,1902.35,1908.561,1910.603,1907.174,1912.475,1909.543,1911.332
1836.606,1834.16,1841.598,1840.946,1841.655,1842.22,1840.333,1839.33
1736.723,1737.721,1747.161,1743.316,1748.921,1743.367,1740.081,1738.313
1606.557,1606.954,1622.716,1617.648,1625.049,1617.099,1611.502,1611.341
1466.521,1461.524,1482.685,1479.113,1484.146,1479.267,1474.1,1472.962
1341.907,1334.166,1354.506,1352.57,1355.335,1353.928,1351.582,1345.723
1242.293,1236.791,1253.551,1251.77,1255.11,1253.979,1251.69,1244.481
1159.051,1156.359,1171.472,1170.457,1173.519,1173.451,1168.134,1165.835
1086.325,1084.268,1099.693,1100.211,1101.284,1104.365,1098.748,1100.28
1030.847,1027.903,1043.251,1043.546,1044.802,1048.764,1045.462,1046.317
994.372,989.371,1004.33,1002.697,1006.476,1008.044,1005.708,1005.298
967.084,956.703,972.97,969.919,975.625,974.374,973.504,971.589
944.074,925.521,943.827,940.167,947.41,943.364,945.506,940.689
936.318,915.433,934.337,929.527,939.742,931.396,934.184,927.881
963.702,950.347,968.69,962.46,975.059,962.887,962.603,957.531
1033.936,1028.774,1045.204,1039.006,1049.892,1038.388,1034.083,1029.882
1126.325,1124.475,1136.592,1131.942,1138.496,1131.075,1124.492,1118.44
1212.422,1213.708,1221.732,1217.749,1222.601,1217.172,1209.926,1200.94
1288.487,1292.872,1300.367,1294.607,1302,1294.89,1285.689,1276.462
1360.537,1361.405,1370.128,1362.097,1371.604,1363.709,1350.1,1346.003
1417.148,1408.495,1417.433,1408.761,1417.11,1411.097,1395.767,1398.183
1449.012,1434.788,1442.287,1433.918,1441.251,1435.806,1426.425,1428.176
1469.836,1458.198,1460.893,1453.496,1460.668,1455.011,1451.953,1448.723
1494.545,1487.497,1483.271,1477.812,1483.411,1480.295,1473.913,1472.379
1518.91,1514.669,1507.822,1502.953,1508.945,1506.469,1494.286,1496.676
1534.963,1534.627,1531.01,1524.351,1534.906,1527.221,1518.538,1515.606
1546.052,1552.196,1551.517,1544.523,1556.928,1546.284,1544.373,1533.835
1556.571,1566.273,1566.325,1562.66,1569.371,1564.398,1561.033,1552.947
1563.094,1564.834,1570.173,1568.913,1569.597,1570.691,1560.523,1559.66
1555.93,1540.18,1558.441,1553.918,1557.219,1555.097,1542.413,1542.472
1525.446,1498.453,1527.736,1517.949,1528.381,1519.128,1508.968,1504.547
1476.114,1452.883,1480.606,1470.761,1481.966,1472.993,1463.752,1456.711
1428.78,1414.917,1431.967,1426.361,1432.443,1429.499,1416.33,1411.248
1398.723,1390.19,1398.273,1394.874,1398.54,1398.124,1379.24,1378.89
1376.502,1371.114,1374.932,1371.003,1375.653,1374.311,1353.699,1357.229
1344.52,1340.752,1343.641,1339.449,1344.274,1343.608,1328.495,1330.674
1302.687,1294.117,1300.27,1295.86,1301.138,1301.778,1293.605,1290.337
1255.111,1240.633,1250.833,1245.338,1253.26,1253.399,1244.093,1238.94
1192.833,1184.086,1193.069,1187.064,1197.293,1196.582,1180.722,1178.614
1113.713,1118.237,1122.507,1118.247,1126.999,1127.697,1111.691,1110.234
1037.099,1044.796,1047.983,1047.931,1051.019,1056.673,1046.828,1042.611
982.304,980.531,988.471,992.982,990.207,1001.996,993.2,990.229
950.98,940.364,952.923,959.015,955.153,968.966,955.204,958.199
938.658,924.459,935.309,939.213,939.269,949.365,933.857,939.667
943.703,924.787,930.394,930.886,935.995,940.445,926.946,930.5
961.503,937.469,940.522,938.699,946.923,947.318,933.983,935.577
985.143,963.827,967.189,963.971,972.972,971.163,957.653,958.658
1012.761,1000.927,1005.053,1000.152,1008.896,1005.776,994.764,993.806
1048.159,1041.693,1046.664,1039.415,1048.794,1044.135,1035.169,1031.056
1091.819,1082.421,1087.677,1077.643,1089.913,1081.991,1073.753,1066.225
1133.417,1119.201,1123.635,1110.641,1127.41,1114.505,1109.626,1098.732
1156.248,1141.075,1144.778,1129.544,1149.609,1132.855,1132.168,1120.568
1150.043,1138.105,1140.833,1126.033,1145.029,1128.907,1128.959,1119.389
1123.087,1114.867,1115.211,1103.799,1118.079,1106.103,1106.459,1096.967
1096.017,1085.044,1084.597,1075.839,1087.465,1077.539,1079.693,1068.933
1075.937,1056.219,1058.435,1048.715,1062.687,1050.648,1051.474,1043.364
1047.529,1025.166,1028.217,1016.316,1033.287,1019.854,1015.419,1011.594
998.001,982.453,981.659,969.919,986.121,975.436,967.26,963.45
935.357,924.09,920.527,911.17,924.076,917.443,909.565,904.06
872.072,858.392,856.363,849.15,859.664,854.727,848.752,844.873
811.621,797.59,796.86,790.86,800.284,795.345,790.978,790.05
758.9,747.943,746.926,742.751,750.216,746.578,742.072,743.205
724.486,712.964,714.62,713.041,717.04,716.405,708.961,712.535
716.249,700.576,706.932,707.072,707.59,709.653,698.477,704.668
732.661,715.587,722.655,723.28,721.554,725.492,711.646,719.669
767.096,751.249,756.09,756.634,754.192,759.863,745.045,753.067
817.269,797.76,804.14,803.353,802.238,807.902,795.837,800.762
877.419,849.653,862.322,857.967,861.423,862.584,857.481,857.434
931.847,902.511,919.564,911.187,920.835,915.198,917.749,913.679
971.097,949.914,964.501,954.656,967.361,958.241,966.257,960.458
998.88,985.158,995.694,986.203,998.781,988.399,1001.885,994.555
1020.033,1006.75,1019.866,1009.408,1023.717,1008.423,1029.518,1018.234
1040.854,1024.243,1044.339,1031.466,1050.325,1027.508,1053.631,1038.89
1072.945,1051.033,1075.934,1060.844,1084.229,1056.462,1080.531,1066.533
1112.282,1084.664,1111.782,1095.824,1121.319,1092.721,1110.936,1099.898
1136.361,1110.324,1136.177,1123.048,1144.722,1120.768,1132.975,1125.681
1141.672,1125.045,1144.496,1138.515,1149.641,1136.72,1143.136,1140.987
1151.565,1139.223,1153.547,1155.177,1154.247,1154.58,1157.163,1158.876
1179.738,1161.839,1178.755,1184.072,1175.66,1184.61,1186.057,1187.717
1217,1195.722,1217.674,1221.311,1212.95,1221.784,1220.913,1220.601
1255.651,1239.528,1260.284,1258.754,1256.381,1258.658,1251.195,1250.93
1295.649,1285.202,1300.078,1293.475,1297.732,1293.21,1279.981,1282.373
1328.65,1318.106,1331.2,1321.686,1329.152,1321.123,1310.735,1314.417
1346.285,1331.582,1351.005,1339.818,1348.179,1338.637,1336.928,1337.705
1353.113,1334.187,1362.711,1350.045,1359.759,1349.053,1350.945,1347.549
1356.251,1336.155,1368.178,1354.923,1365.988,1355.055,1353.195,1348.104
1356.071,1338.016,1365.658,1352.434,1364.026,1352.943,1349.312,1343.483
1348.117,1332.934,1353.15,1339.141,1351.736,1338.536,1338.669,1331.044
1329.452,1316.345,1331.679,1315.998,1330.435,1313.872,1316.114,1307.618
1303.499,1291.458,1304.647,1288.211,1302.481,1284.719,1285.789,1277.989
1277.889,1265.62,1275.958,1261.734,1271.115,1256.865,1258.899,1251.692
1258.87,1244.28,1251.66,1241.183,1244.873,1235.524,1239.9,1232.872
1243.119,1225.456,1233.03,1223.638,1227.562,1218.29,1222.435,1214.816
1212.658,1196.802,1206.84,1195.241,1204.016,1190.89,1192.943,1184.924
1150.552,1141.971,1154.6,1140.759,1152.779,1137.748,1136.305,1131.757
1064.071,1056.894,1072.081,1057.777,1070.171,1056.232,1048.933,1050.208
971.141,955.365,970.412,957.296,968.52,956.637,944.186,947.85
872.022,852.496,861.543,851.424,859.381,851.039,838.502,841.698
763.904,753.696,754.008,748.419,751.478,748.744,740.76,743.484
662.362,661.226,656.341,654.603,653.752,655.983,652.848,654.264
583.112,580.228,575.801,574.017,573.303,575.616,574.694,574.515
522.418,514.8,512.36,506.413,511.008,508.016,506.846,506.119
465.884,458.921,454.841,445.287,456.036,447.891,445.654,444.062
405.148,399.435,391.512,383.357,394.231,386.875,384.98,381.117
341.528,331.183,322.936,319.782,324.545,322.799,321.398,317.313
277.733,259.76,256.919,257.297,256.295,258.82,254.549,256.133
211.561,189.444,194.52,195.829,191.437,195.459,187.646,196.378
142.036,120.494,130.665,134.175,124.337,131.946,123.537,134.583
76.765,58.578,68.901,76.515,59.502,73.041,64.054,74.261
22.013,9.211,18.14,26.938,7.383,22.611,12.459,21.286
-30.561,-38.383,-26.981,-22.21,-37.564,-27.299,-35.093,-29.855
-96.02,-101.95,-82.725,-83.789,-92.409,-88.647,-91.583,-91.433
-173.038,-178.898,-151.024,-156.705,-158.887,-159.922,-160.498,-163.282
-240.492,-245.872,-215.245,-224.665,-220.577,-226.202,-226.451,-230.005
-284.947,-289.282,-265.056,-276.74,-269.363,-277.612,-275.715,-280.666
-312.454,-318.304,-303.306,-314.613,-308.978,-315.54,-310.398,-317.448
-332.023,-342.737,-328.51,-338.851,-335.191,-340.241,-334.833,-341.767
-347.658,-358.997,-336.783,-347.406,-342.601,-349.706,-348.186,-350.74
-359.578,-365.44,-336.303,-347.168,-341.501,-350.838,-352.195,-349.525
-366.142,-369.625,-339.383,-349.161,-345.2,-354.079,-351.78,-348.945
-365.049,-370.393,-342.628,-351.496,-348.322,-356.481,-347.881,-349.285
-353.327,-359.156,-334.274,-344.462,-338.494,-348.453,-338.361,-343.01
-337.202,-344.426,-320.497,-332.116,-324.076,-335.4,-327.552,-332.474
-331.477,-342.898,-318.655,-328.396,-322.965,-331.892,-324.015,-327.785
-339.111,-351.287,-328.906,-334.552,-333.092,-338.475,-327.856,-330.27
-346.325,-352.185,-334.525,-336.515,-337.109,-340.102,-329.149,-329.392
-336.004,-336.048,-322.642,-322.338,-323.842,-324.938,-318.474,-315.261
-298.765,-305.174,-293.001,-293.243,-293.364,-295.25,-294.89,-288.831
-244.151,-266.592,-253.248,-257.827,-252.127,-259.826,-262.673,-256.406
-199.778,-228.388,-213.851,-223.547,-210.713,-225.44,-224.371,-221.823
-180.153,-195.472,-182.214,-193.21,-178.274,-195.019,-182.534,-187.431
-167.468,-165.554,-156.702,-164.822,-154.392,-167.159,-146.135,-155.715
-141.61,-135.699,-131.001,-136.858,-131.713,-140.571,-122.589,-129.074
-109.484,-110.334,-105.335,-112.336,-108.353,-118.272,-107.355,-109.373
-92.46,-98.635,-89.543,-97.626,-93.385,-105.687,-97.84,-99.301
-99.224,-104.792,-90.985,-97.504,-94.747,-106.392,-100.077,-101.81
-119.494,-123.437,-104.842,-109.928,-108.343,-118.497,-113.068,-115.121
-139.544,-145.605,-121.631,-127.819,-125.064,-135.488,-128.599,-132.428
-152.226,-163.386,-135.622,-143.742,-139.238,-149.875,-142.249,-146.768
-156.184,-173.629,-144.953,-153.395,-148.376,-157.53,-154.122,-156.049
-159.493,-182.03,-151.065,-159.059,-152.79,-161.584,-165.661,-163.879
-175.366,-194.551,-160.368,-168.146,-160.298,-170.173,-178.247,-174.43
-203.02,-208.947,-179.501,-184.865,-181.066,-187.5,-191.889,-188.344
-227.125,-222.728,-204.813,-205.747,-210.946,-209.625,-205.934,-204.339
-242.274,-239.269,-227.745,-227.227,-236.904,-232.328,-223.292,-223.225
-257.233,-259.703,-247.879,-249.705,-256.556,-255.128,-246.461,-245.858
-276.962,-279.95,-269.892,-273.7,-276.081,-278.292,-272.45,-271.145
-300.488,-298.996,-294.991,-300.158,-297.963,-303.929,-299.385,-299.651
-326.566,-319.88,-321.036,-327.863,-321.227,-331.606,-326.174,-328.977
-350.481,-343.121,-345.844,-350.015,-345.815,-353.749,-348.024,-350.18
-365.721,-364.452,-365.893,-362.261,-368.034,-365.69,-362.523,-360.242
-377.189,-384.415,-382.695,-374.733,-386.035,-378.47,-377.205,-372.93
-406.15,-418.305,-412.66,-408.093,-414.695,-412.927,-408.832,-408.375
-465.08,-476.752,-467.64,-467.813,-468.041,-473.207,-464.997,-468.854
-533.65,-541.796,-531.271,-532.208,-531.854,-536.971,-528.278,-532.731
-582.102,-586.45,-578.238,-577.963,-580.452,-582.333,-575.348,-578.084
-605.611,-606.751,-603.663,-603.945,-606.845,-609.16,-602.666,-603.74
-614.411,-615.549,-616.331,-619.417,-618.378,-625.395,-618.574,-619.465
-616.329,-621.566,-621.861,-627.577,-621.829,-632.772,-628.021,-629.394
-624.854,-632.266,-628.499,-635.03,-627.764,-638.642,-637.84,-639.113
-650.627,-656.367,-648.071,-654.436,-648.614,-657.542,-656.332,-658.428
-686.437,-692.217,-682.319,-687.778,-685.036,-691.511,-685.433,-688.872
-721.925,-729.315,-722.057,-724.718,-726.698,-728.452,-722.525,-724.661
-750.144,-758.221,-754.324,-753.751,-759.91,-756.703,-758.444,-757.522
-764.992,-778.002,-772.694,-771.96,-777.973,-775.257,-783.087,-780.047
-772.205,-795.334,-783.095,-785.015,-787.21,-790.028,-796.352,-792.506
-780.638,-808.683,-788.786,-792.001,-791.892,-797.734,-798.404,-796.687
-787.335,-809.162,-786.158,-787.702,-789.274,-791.981,-788.295,-792.123
-789.479,-800.054,-780.121,-780.473,-783.795,-783.084,-778.261,-785.935
-793.697,-795.861,-781.71,-784.579,-785.145,-787.471,-783.864,-789.901
-804.027,-803.832,-793.367,-800.317,-796.04,-804.919,-801.827,-804.227
-813.892,-816.693,-807.223,-815.102,-810.452,-820.667,-816.209,-816.673
-815.62,-824.774,-814.85,-820.583,-819.576,-825.453,-821.341,-820.601
-810.184,-828.68,-816.618,-821.699,-821.08,-825.549,-823.139,-822.662
-808.046,-833.148,-819.808,-826.47,-821.706,-830.287,-825.856,-829.275
-819.343,-836.779,-827.468,-833.501,-827.375,-837.668,-830.032,-836.743
-839.34,-839.926,-836.369,-838.148,-837.044,-841.981,-835.814,-840.389
-850.931,-846.997,-842.026,-840.587,-844.522,-843.918,-839.683,-841.283
-840.639,-849.003,-837.777,-837.884,-840.864,-841.798,-833.65,-837.174
-813.583,-833.519,-821.511,-825.514,-824.8,-830.459,-816.958,-823.352
-792.352,-812.416,-803.84,-809.868,-807.755,-814.505,-800.794,-805.516
-790.083,-805.059,-796.049,-802.231,-799.604,-805.942,-794.626,-796.093
-796.513,-807.06,-796.531,-803.28,-798.505,-807.443,-795.612,-796.805
-797.754,-801.984,-795.303,-803.711,-796.259,-808.956,-792.739,-796.486
-790.708,-788.404,-786.301,-797.872,-787.461,-803.175,-781.591,-789.681
-775.457,-774.663,-770.666,-786.285,-772.243,-791.084,-769.154,-780.862
-751.916,-760.269,-751.365,-768.301,-753.263,-773.066,-757.63,-769.019
-727.048,-742.337,-730.671,-744.373,-733.664,-749.944,-739.193,-748.554
-708.869,-724.185,-709.088,-717.445,-714.239,-724.079,-711.408,-720.422
-694.401,-705.448,-686.498,-689.782,-693.741,-696.075,-683.325,-692.181
-675.216,-680.776,-664.841,-664.676,-672.771,-669.051,-663.757,-671.012
-649.135,-650.976,-645.513,-644.612,-653.044,-647.614,-650.928,-656.486
-625.297,-627.329,-631.813,-631.439,-639.344,-634.826,-641.32,-645.166
-621.865,-625.879,-634.368,-633.168,-642.606,-637.716,-643.668,-643.622
-649.753,-654.48,-661.006,-658.27,-669.427,-663.304,-668.135,-663.933
-696.13,-702.184,-703.43,-700.842,-710.42,-705.246,-706.69,-703.673
-738.352,-748.331,-745.615,-744.645,-749.993,-747.952,-742.887,-745.483
-772.963,-783.867,-782.139,-782.324,-784.1,-784.733,-774.462,-780.015
-811.243,-815.722,-818.536,-818.463,-819.04,-820.185,-810.387,-813.748
-851.081,-849.619,-855.738,-854.713,-855.61,-855.95,-850.719,-850.659
-875.335,-877.006,-882.607,-882.78,-882.429,-884.254,-880.057,-880.644
-878.76,-888.806,-890.949,-895.96,-891.506,-898.54,-887.001,-893.732
-873.977,-889.887,-885.791,-895.486,-887.528,-898.783,-878.48,-891.386
-864.245,-881.619,-868.903,-879.405,-870.951,-882.072,-861.105,-874.767
-841.987,-856.401,-838.735,-847.533,-840.417,-849.517,-834.066,-843.453
-811.52,-818.622,-805.948,-813.037,-808.12,-815.577,-803.653,-807.286
-779.189,-780.195,-778.388,-784.872,-781.315,-788.495,-774.619,-776.108
-741.024,-744.963,-748.302,-755.864,-750.495,-760.33,-741.378,-745.575
-695.484,-708.981,-707.533,-717.16,-707.999,-722.114,-700.155,-706.29
-645.917,-663.994,-657.56,-669.277,-657.174,-673.982,-653.881,-658.827
-595.024,-609.629,-605.914,-619.967,-605.933,-623.947,-607.549,-612.43
-547.256,-559.35,-558.736,-574.428,-559.245,-578.307,-563.768,-570.503
-505.926,-518.476,-513.527,-527.69,-513.946,-532.368,-518.573,-525.225
-465.302,-471.682,-461.742,-470.529,-462.391,-475.936,-464.744,-468.96
-416.507,-410.093,-402.536,-403.695,-405.036,-408.875,-403.109,-405.536
-359.776,-347.248,-343.773,-338.281,-348.932,-342.835,-342.781,-344.57
-301.904,-294.282,-288.422,-281.843,-294.298,-286.971,-289.38,-290.39
-248.765,-248.453,-236.743,-235.619,-240.861,-242.67,-243.308,-244.709
-204.202,-207.842,-193.902,-198.91,-196.335,-207.129,-204.61,-208.332
-167.194,-172.62,-160.961,-166.775,-163.165,-174.065,-170.193,-175.393
-130.246,-138.654,-129.509,-132.101,-131.67,-137.341,-132.664,-138.551
-90.52,-103.403,-94.55,-94.741,-95.656,-97.806,-91.147,-99.009
-56.611,-69.199,-62.723,-62.15,-62.222,-63.131,-55.564,-63.285
-33.61,-38.207,-39.612,-38.734,-37.722,-38.664,-30.824,-34.332
-14.772,-13.966,-21.309,-21.623,-18.208,-22.327,-10.668,-11.644
7.048,2.259,-2.536,-5.712,1.38,-8.285,8.942,6.54
29.899,19.061,16.251,11.145,19.826,6.676,23.975,21.963
42.97,38.614,28.398,24.157,30.799,18.541,29.523,31.381
37.818,45.445,28.587,26.509,30.462,21.027,27.9,30.434
19.603,30.036,19.269,18.163,21.753,13.677,24.305,21.521
0.474,4.672,5.055,3.642,8.075,0.079,15.775,8.847
-14.515,-15.492,-12.06,-14.375,-9.548,-17.55,-3.454,-7.878
-29.069,-31.022,-30.397,-34.395,-28.928,-37.526,-28.217,-28.624
-45.18,-48.142,-47.326,-52.644,-46.582,-55.72,-46.894,-48.156
-59.706,-64.45,-61.468,-66.875,-60.591,-70.091,-57.771,-62.766
-72.844,-75.607,-73.893,-79.812,-71.911,-83.441,-67.619,-75.417
-89.227,-85.776,-86.952,-93.915,-84.109,-97.309,-80.047,-89.273
-106.591,-99.815,-101.291,-107.717,-99.015,-109.744,-95.226,-102.931
-114.399,-111.163,-112.522,-116.849,-111.286,-117.362,-108.831,-112.601
-112.366,-113.979,-119.278,-120.758,-118.178,-120.45,-117.01,-118.455
-116.437,-117.954,-130.21,-126.944,-128.753,-126.081,-126.988,-126.362
-139.687,-136.879,-151.628,-142.147,-150.253,-140.403,-146.005,-140.488
-174.101,-170.211,-177.752,-164.897,-176.699,-162.223,-169.118,-160.082
-196.468,-199.508,-197.638,-187.315,-196.459,-184.257,-188.214,-180.951
-203.913,-212.147,-209.379,-205.325,-207.504,-202.491,-203.56,-199.636
-218.108,-219.125,-221.255,-223.516,-218.338,-221.012,-219.385,-217.08
-240.749,-230.759,-234.737,-241.791,-230.589,-239.203,-232.183,-232.331
-254.154,-242.388,-245.202,-254.562,-240.087,-251.457,-239.575,-243.349
-259.939,-253.092,-256.598,-265.65,-251.112,-262.278,-251.039,-255.278
-273.047,-271.225,-276.282,-284.666,-270.428,-282.022,-273.482,-274.664
-299.88,-302.997,-308.235,-315.993,-301.871,-314.602,-306.111,-303.966
-343.392,-348.488,-356.704,-361.442,-350.504,-360.53,-353.058,-347.81
-404.637,-405.553,-421.28,-422.127,-415.628,-420.682,-416.384,-409.857
-472.613,-469.296,-490.667,-490.988,-485.009,-489.053,-482.946,-480.204
-530.248,-529.148,-550.117,-552.39,-544.23,-550.865,-537.88,-540.542
-572.186,-576.551,-592.788,-595.843,-586.957,-595.435,-578.814,-582.884
-608.389,-614.615,-623.764,-627.141,-617.596,-627.771,-610.798,-614.578
-646.455,-649.312,-651.911,-657.97,-644.755,-659.247,-639.479,-645.58
-677.854,-676.109,-676.276,-686.246,-668.631,-688.111,-664.526,-673.941
-691.762,-688.871,-688.827,-700.431,-681.731,-703.026,-678.843,-689.038
-688.892,-688.559,-686.741,-696.429,-680.618,-699.664,-678.064,-686.121
-674.336,-674.625,-671.924,-677.663,-666.821,-681.053,-663.71,-669.015
-650.693,-646.553,-645.478,-648.114,-641.155,-651.065,-638.298,-642.413
-620.523,-613.003,-610.715,-612.068,-606.864,-614.125,-605.371,-609.065
-593.038,-587.522,-579.227,-578.906,-575.901,-579.417,-574.136,-576.475
-579.641,-575.94,-563.387,-560.641,-560.182,-559.36,-555.111,-557.209
-577.186,-572.207,-562.754,-559.464,-558.968,-557.579,-551.046,-555.669
-571.611,-569.499,-567.593,-565.831,-563.629,-564.594,-556.989,-562.82
-563.151,-570.302,-572.809,-572.064,-569.217,-571.159,-566.356,-568.96
-567.9,-579.274,-581.075,-579.423,-577.247,-577.879,-576.444,-574.768
-587.532,-590.977,-592.32,-588.778,-587.647,-586.291,-586.335,-583.48
-607.718,-600.606,-604.394,-599.546,-599.122,-596.692,-596.428,-595.236
-628.968,-617.211,-623.493,-617.713,-618.296,-615.23,-613.045,-613.821
-658.196,-642.861,-651.588,-644.607,-647.295,-642.42,-638.712,-640.283
-681.974,-662.427,-676.577,-669.529,-674.059,-667.207,-665.59,-666.196
-687.596,-670.356,-691.969,-686.506,-691.763,-684.206,-687.668,-685.556
-691.584,-681.429,-706.668,-702.012,-708.248,-699.935,-706.624,-702.065
-713.355,-706.611,-726.632,-720.647,-728.556,-718.519,-724.57,-719.383
-739.413,-733.12,-742.847,-735.333,-744.019,-733.113,-738.203,-732.887
-749.03,-744.193,-748.715,-741.523,-748.734,-739.7,-745.492,-740.453
-749.35,-746.13,-752.876,-747,-751.667,-745.877,-751.47,-748.374
-754.055,-751.251,-761.07,-755.219,-759.171,-754.704,-757.592,-756.814
-760.388,-754.47,-766.152,-758.928,-764.436,-759.195,-759.333,-759.514
-761.155,-748.432,-763.884,-755.963,-762.389,-757.356,-757.469,-758.103
-756.878,-741.104,-760.559,-753.874,-758.598,-756.156,-756.779,-759.198
-755.185,-741.734,-761.987,-757.129,-759.766,-759.742,-759.055,-762.413
-759.788,-744.235,-765.091,-760.153,-763.773,-762.857,-762.281,-761.679
-759.905,-738.325,-762.616,-755.285,-762.497,-757.954,-759.252,-753.827
-744.74,-726.355,-752.557,-742.659,-752.866,-745.267,-745.569,-741.068
-727.149,-719.618,-741.985,-731.737,-742.182,-734.668,-731.616,-730.907
-727.688,-722.311,-738.383,-730.27,-738.304,-733.422,-729.282,-730.002
-737.924,-726.065,-737.834,-731.716,-737.343,-733.846,-732.93,-732.96
-732.573,-722.26,-730.806,-724.086,-730.056,-724.282,-730.245,-727.765
-712.497,-713.053,-718.308,-710.124,-717.609,-709.067,-721.311,-714.974
-700.668,-706.599,-709.696,-703.283,-708.727,-702.43,-713.426,-707.628
-700.156,-702.751,-704.107,-702.115,-702.244,-702.078,-703.329,-705.688
-693.923,-692.742,-692.613,-693.236,-690.26,-693.409,-684.428,-694.839
-682.334,-677.95,-679.209,-680.525,-677.149,-680.442,-666.716,-677.813
-679.553,-669.285,-674.557,-676.059,-672.578,-675.89,-661.471,-669.095
-683.164,-667.935,-674.024,-672.693,-671.723,-672.187,-660.021,-664.336
-678.693,-666.662,-665.106,-658.856,-662.415,-657.593,-650.894,-651.94
-661.763,-660.862,-647.561,-640.056,-644.231,-638.638,-637.429,-636.702
-645.279,-650.352,-632.562,-626.848,-628.842,-626.24,-627.182,-628.374
-645.868,-640.808,-629.606,-622.279,-626.49,-622.507,-623.714,-627.006
-662.431,-641.949,-639.935,-627.726,-637.88,-628.447,-631.077,-631.915
-679.346,-657.787,-659.233,-644.761,-658.171,-645.961,-650.33,-647.2
-693.143,-684.727,-685.536,-672.431,-685.616,-673.829,-677.108,-674.428
-715.57,-717.05,-719.311,-708.158,-719.726,-709.388,-708.708,-709.774
-750.151,-748.449,-756.698,-746.408,-755.808,-747.627,-743.489,-746.329
-791.537,-780.81,-794.768,-784.066,-792.539,-785.352,-779.919,-781.473
-835.501,-823.147,-835.576,-824.802,-833.304,-825.85,-820.737,-820.143
-877.164,-873.499,-880.22,-871.013,-878.415,-871.833,-869.663,-866.848
-921.65,-924.233,-930.577,-922.346,-929.081,-923.4,-926.867,-921.857
-979.854,-976.455,-988.738,-978.461,-987.748,-979.987,-988.734,-982
-1044.893,-1032.031,-1049.39,-1035.647,-1048.997,-1037.28,-1048.813,-1040.926
-1099.458,-1084.337,-1100.793,-1085.663,-1100.269,-1086.936,-1098.744,-1090.679
-1137.316,-1125.072,-1136.792,-1122.721,-1135.663,-1123.743,-1133.789,-1127.016
-1165.495,-1156.902,-1165.12,-1152.658,-1163.855,-1153.822,-1160.592,-1156.561
-1193.24,-1187.258,-1193.07,-1183.464,-1191.599,-1184.684,-1187.469,-1186.663
-1219.33,-1211.581,-1214.231,-1209.382,-1211.867,-1209.983,-1209.862,-1210.726
-1231.317,-1218.724,-1221.29,-1219.784,-1218.296,-1219.21,-1217.5,-1218.614
-1222.35,-1207.519,-1215.721,-1214.344,-1212.452,-1213.032,-1208.62,-1210.818
-1201.145,-1187.681,-1200.107,-1198.359,-1196.024,-1197.398,-1189.858,-1192.704
-1175.195,-1165.037,-1173.725,-1172.17,-1169.462,-1171.843,-1164.829,-1165.147
-1140.566,-1134.157,-1137.527,-1134.569,-1135.043,-1134.116,-1131.62,-1127.861
-1094.886,-1090.049,-1094.918,-1088.641,-1094.178,-1087.675,-1089.788,-1083.775
-1044.318,-1037.343,-1047.769,-1037.768,-1046.785,-1036.702,-1040.939,-1035.233
-997.461,-985.461,-998.019,-984.666,-996.493,-983.581,-989.027,-983.798
-955.528,-939.445,-949.026,-933.563,-948.234,-932.01,-940.955,-933.848
-911.924,-896.182,-903.359,-886.981,-903.191,-885.247,-899.254,-889.603
-863.445,-849.545,-859.023,-841.402,-858.314,-840.575,-856.082,-847.028
-814.191,-798.19,-809.792,-790.754,-808.085,-790.801,-802.631,-797.004
-767.375,-746.55,-755.397,-735.981,-753.009,-735.413,-744.322,-739.996
-717.506,-695.817,-702.093,-682.671,-700.003,-680.802,-692.388,-684.038
-659.408,-642.129,-652.39,-632.568,-651.506,-630.527,-645.778,-632.901
-602.889,-589.34,-606.388,-587.245,-606.077,-586.629,-599.365,-589.223
-561.827,-549.497,-567.203,-551.131,-565.93,-552.42,-558.452,-556.102
-535.691,-526.268,-539.155,-526.942,-536.518,-529.336,-531.073,-532.523
-521.051,-514.505,-527.419,-517.567,-524.038,-520.169,-519.484,-520.754
-527.18,-517.148,-536.611,-527.478,-532.43,-529.673,-525.272,-528.446
-556.09,-539.218,-560.35,-550.755,-554.816,-551.866,-545.596,-551.247
-589.593,-571.437,-583.872,-572.488,-577.771,-572.386,-569.467,-573.645
-615.676,-601.306,-603.442,-590.23,-598.595,-589.599,-592.05,-592.179
-634.458,-622.256,-621.565,-608.808,-618.117,-608.42,-613.785,-610.6
-640.273,-628.767,-631.363,-620.771,-627.708,-620.841,-626.679,-622.647
-630.291,-620.823,-627.754,-617.748,-623.871,-617.787,-624.018,-622.371
-612.816,-603.934,-615.812,-604.28,-613.308,-604.031,-609.46,-612.079
-591.416,-581.56,-598.25,-586.845,-596.681,-586.741,-586.864,-593.324
-562.963,-556.741,-573.187,-565.942,-570.199,-565.895,-559.594,-567.514
-538.754,-537.827,-548.425,-546.183,-543.245,-545.658,-537.822,-543.798
-538.767,-533.507,-539.14,-538.609,-532.952,-537.982,-531.128,-533.632
-557.379,-542.802,-548.398,-546.813,-542.28,-546.599,-539.588,-539.832
-571.472,-558.75,-567.234,-564.175,-561.281,-563.747,-556.952,-557.902
-580.757,-578.556,-588.429,-584.321,-582.234,-583.087,-576.29,-581.827
-601.658,-602.808,-609.175,-605.194,-602.69,-603.819,-595.403,-605.463
-631.144,-628.178,-627.984,-625.537,-621.724,-624.691,-616.159,-624.101
-650.059,-646.823,-643.058,-641.827,-637.371,-640.828,-635.596,-636.273
-651.806,-652.472,-651.215,-648.923,-646.019,-646.83,-644.379,-642.191
-641.974,-643.131,-648.053,-643.335,-643.441,-640.405,-636.981,-640.371
-621.58,-621.622,-632.261,-626.812,-628.516,-623.742,-619.922,-628.303
-589.219,-592.606,-606.905,-602.534,-603.861,-599.367,-599.945,-604.135
-549.538,-555.358,-572.285,-567.829,-569.213,-564.417,-569.132,-566.55
-507.733,-507.099,-525.779,-519.701,-522.139,-516.336,-520.352,-517.627
-460.538,-450.79,-469.632,-462.937,-465.792,-460.102,-462.028,-462.633
-401.126,-391.373,-409.464,-404.045,-406.298,-401.727,-402.312,-404.07
-329.541,-328.218,-345.752,-342.123,-343.564,-339.59,-338.404,-339.575
-252.085,-256.693,-274.634,-272.275,-272.724,-268.928,-267.372,-267.104
-174.98,-178.461,-197.677,-196.372,-195.359,-192.743,-193.678,-191.1
-102.163,-104.336,-123.18,-122.95,-120.886,-120.374,-122.582,-119.818
-35.534,-41.008,-56.482,-56.388,-54.943,-55.643,-53.76,-55.872
27.046,17.62,4.665,6.308,5.447,5.697,12.078,4.922
86.642,75.376,61.106,65.359,61.379,64.266,66.971,62.871
133.121,122.376,106.362,113.345,106.236,111.828,106.177,110.976
157.128,151.782,137.142,146.033,136.747,143.597,135.211,145.033
165.648,168.061,156.835,165.752,156.299,162.664,157.085,165.988
169.624,175.389,167.503,174.873,166.811,172.42,169.644,175.476
170.656,176.251,169.902,175.675,168.673,175.087,174.17,176.559
166.958,171.66,163.929,168.197,161.925,169.616,170.008,171.067
158.892,158.615,148.742,150.831,147.104,153.435,155.524,157.679
142.871,136.154,125.672,126.219,126.233,129.275,134.089,135.861
115.059,109.215,98.18,99.575,100.983,102.92,107.848,108.902
85.334,84.615,73.361,76.136,76.77,79.482,80.06,84.023
66.437,65.994,57.605,59.831,60.873,62.547,59.309,66.811
56.42,54.612,48.986,50.877,52.327,53.189,50.207,57.591
48.99,50.226,42.279,46.272,45.059,49.361,48.065,53.645
44.814,47.513,36.311,41.399,37.701,45.31,45.674,49.694
43.41,40.42,30.183,32.41,30.56,35.536,39.043,40.119
37.731,29.442,19.467,18.831,19.185,20.445,25.203,23.875
23.103,17.113,4.073,4.446,2.92,5.877,5.346,5.865
4.237,3.411,-9.08,-6.699,-10.105,-4.107,-11.416,-7.892
-9.519,-6.74,-15.771,-14.009,-14.854,-10.051,-18.508,-15.288
-10.379,-3.66,-14.932,-15.626,-11.672,-10.266,-15.371,-14.808
4.266,11.324,-4.659,-7.311,0.068,-0.455,0.514,-2.821
27.92,27.185,13.056,10.459,18.212,18.068,26.966,19.83
51.55,44.351,34.755,33.893,38.942,40.178,53.294,46.559
77.105,75.342,64.853,65.043,66.84,67.948,79.472,76.261
111.112,121.669,108.359,108.11,108.243,107.926,116.175,113.927
152.731,169.818,159.611,159.35,157.916,158.123,162.245,158.912
201.711,213.385,212.141,212.683,208.826,211.512,209.947,207.534
257.671,258.209,265.229,265.572,260.794,264.5,258.846,258.344
310.303,305.72,314.868,314.083,310.535,313.612,307.196,306.598
350.434,348.933,355.462,354.477,351.786,355.196,348.659,347.394
380.729,382.663,387.646,386.86,384.724,388.384,381.44,381.655
408.097,410.066,414.701,412.839,412.897,414.455,410.042,411.533
434.241,438.109,437.979,435.259,436.869,437.241,437.761,437.212
457.069,467.348,459.507,457.601,457.739,460.597,462.849,459.097
474.209,487.407,477.521,476.016,474.697,479.249,480.346,475.381
478.285,487.258,483.209,480.912,480.501,483.031,485.259,481.225
468.133,476.662,479.704,477.734,478.152,479.038,483.806,481.058
464.099,480.157,486.041,485.803,485.016,487.193,491.91,489.426
482.889,502.285,508.342,509.162,506.411,510.353,512.44,510.259
512.293,527.32,533.649,534.716,530.72,535.449,533.768,533.062
536.164,549.151,554.393,556.131,551.903,557.138,550.86,551.931
559.882,572.959,574.673,577.613,573.074,579.447,569.418,572.049
589.857,598.465,595.275,600.657,592.863,603.403,591.561,596.955
615.362,620.795,613.273,622.758,609.234,626.661,613.804,622.937
628.793,638.679,631.306,643.579,627.629,648.601,636.844,646.642
639.044,654.115,651.652,663.305,650.169,669.114,661.285,667.483
653.803,668.109,668.936,678.644,669.162,685.249,680.371,682.394
665.109,673.958,673.462,681.668,673.918,688.807,683.132,683.479
659.25,660.907,660.47,667.241,659.843,673.893,664.512,667.311
632.437,630.678,635.997,641.448,633.35,646.783,634.69,641.881
591.319,594.136,605.302,609.938,600.555,613.94,603.731,611.171
541.719,551.025,562.363,565.433,556.569,568.302,561.818,564.748
479.76,490.232,499.134,498.452,493.915,500.276,494.619,494.222
401.429,409.836,418.259,413.516,414.599,414.864,408.677,408.444
317.376,325.044,332.827,327.644,330.046,329.594,324.418,324.753
242.407,251.593,254.718,253.093,251.007,256.222,250.822,251.383
181.628,192.368,189.762,191.253,184.279,195.274,186.23,188.779
135.432,144.691,140.907,142.287,134.866,146.9,134.871,139.97
102.465,108.212,106.32,106.848,101.557,112.024,101.605,106.572
78.22,82.09,80.029,80.939,76.953,86.053,80.516,82.789
60.461,64.639,60.385,61.191,57.655,65.162,63.189,63.311
52.479,57.777,52.331,52.081,48.379,54.599,50.669,52.014
56.592,62.968,57.571,57.31,52.245,58.931,49.175,53.555
72.377,78.163,72.391,73.159,66.843,74.375,61.415,65.521
100.868,103.283,96.281,97.08,91.176,97.876,85.697,86.682
140.385,138.047,129.924,129.396,124.499,129.667,118.37,118.575
183.498,176.942,168.026,166.198,161.475,166.225,155.318,156.662
223.251,214.03,202.932,201.122,195.889,201.331,192.22,192.52
259.364,249.658,233.858,233.751,227.407,234.078,227.258,224.583
293.326,285.43,264.117,265.876,257.949,265.584,258.063,254.612
319.366,314.571,289.748,291.635,283.183,290.222,278.463,277.669
332.441,329.679,305.221,306.299,299.238,304.677,290.11,290.894
338.944,334.572,314.704,316.06,310.502,315.7,301.554,301.191
350.317,338.373,326.236,328.15,323.219,329.001,314.08,314.75
367.861,343.84,339.617,340.181,336.758,341.026,323.28,328.347
375.014,344.58,343.479,342.152,340.508,342.495,323.051,331.565
358.173,334.531,329.437,328.755,325.609,328.401,309.655,318.527
330.253,315.692,305.005,305.742,299.179,303.792,288.207,295.077
311.058,293.463,282.995,281.395,275.723,277.63,266.897,270.362
297.255,271.75,265.973,259.844,259.314,255.726,249.11,249.143
277.554,253.341,251.109,243.707,246.373,240.626,235.769,233.887
260.034,241.352,242.711,236.077,240.128,233.741,230.996,227.743
254.025,237.302,244.323,235.916,243.873,233.222,236.845,230.846
251.241,240.31,248.515,238.407,249.373,235.241,245.807,237.636
248.136,249.66,249.585,242.847,249.633,240.494,250.054,243.775
256.707,264.026,254.581,253.549,252.103,252.97,253.789,252.66
284.955,284.437,275.223,276.245,270.922,276.494,270.034,272.772
323.619,315.063,312.987,312.308,308.861,311.85,303.311,306.779
357.199,352.239,355.007,352.438,351.71,350.934,340.774,344.801
379.485,381.126,384.849,381.232,381.649,379.038,366.264,371.766
389.924,389.959,394.554,390.046,390.993,387.731,375.882,380.125
388.514,385.134,390.503,385.894,386.456,384.61,377.372,377.001
377.896,381.622,385.127,382.074,380.114,382.383,377.267,374.296
360.873,378.676,380.265,378.689,374.299,379.064,372.982,371.337
339.121,363.737,368.093,364.919,362.32,363.367,359.823,358.254
315.627,337.169,347.187,339.492,342.565,336.294,339.506,334.177
295.547,312.602,325.701,313.826,322.027,310.767,317.867,310.062
280.791,294.491,306.402,292.955,302.943,290.676,295.292,290.672
267.231,276.289,284.444,271.81,280.556,269.689,269.911,270.134
252.321,260.399,263.16,252.917,258.616,250.485,249.545,250.913
238.717,255.225,250.723,244.286,246.013,241.434,240.979,242.21
229.094,254.851,244.795,242.538,240.424,239.344,235.959,240.002
220.978,245.279,238.221,238.384,233.844,235.483,226.138,233.587
213.366,229.119,232.545,233.682,227.401,232.123,218.537,226.432
212.78,222.766,234.783,237.884,228.84,238.269,223.351,230.166
218.927,230.19,245.006,250.488,239.405,252.473,237.482,243.212
222.476,240.785,256.387,261.798,252.275,264.628,250.487,254.027
221.626,246.398,263.493,266.4,260.711,269.672,257.467,258.706
221.977,246.404,265.536,266.031,263.044,269.458,262.272,262.122
227.253,245.198,266.437,265.088,263.465,267.867,270.927,267.418
235.514,248.244,270.016,265.923,266.527,267.142,279.365,271.546
242.543,257.183,275.449,268.015,271.795,267.589,280.033,272.748
248.858,266.272,278.946,269.012,275.512,267.767,276.579,273.433
255.625,267.601,278.222,267.074,275.37,266.283,275.743,273.985
256.09,261.131,274.02,263.338,272.199,264.219,276.437,272.567
242.297,249.636,265.415,256.438,265.077,259.036,273.131,267.126
218.342,231.986,250.559,241.755,251.498,244.582,263.336,256.046
193.564,208.06,229.97,217.918,231.472,219.743,246.614,237.352
170.563,182.216,204.587,188.25,206.185,189.349,220.755,209.972
148.625,158.702,176.185,158.006,177.489,159.154,187.052,178.445
124.296,132.285,145.071,127.461,145.913,128.999,150.241,146.695
92.725,95.639,109.102,93.534,109.84,95.587,113.313,113.444
53.315,54.342,68.6,57.329,69.47,60.116,76.972,78.144
6.092,14.669,24.963,18.526,26.214,22.576,37.984,39.215
-46.825,-29.097,-21.251,-26.472,-19.065,-20.883,-6.743,-6.597
-94.277,-79.09,-65.866,-73.167,-62.953,-67.154,-52.464,-54.552
-125.529,-123.48,-101.334,-108.924,-98.829,-103.934,-89.675,-92.001
-142.526,-149.039,-122.554,-126.69,-120.978,-122.443,-112.302,-112.042
-148.7,-151.167,-126.255,-127.369,-124.861,-122.805,-117.727,-116.417
-138.752,-134.082,-111.576,-113.819,-109.639,-109.304,-105.495,-107.983
-113.245,-109.236,-86.296,-91.766,-84.379,-88.686,-81.904,-89.522
-84.933,-85.89,-60.404,-66.786,-59.645,-65.465,-56.655,-63.488
-64.38,-64.106,-36.628,-41.09,-37.047,-40.702,-34.115,-34.615
-49.238,-40.951,-13.188,-16.498,-13.709,-16.8,-13.055,-10.375
-28.281,-14.988,11.735,7.206,11.553,5.861,9.593,9.217
4.938,15.217,38.585,33.063,37.891,30.928,35.304,31.121
44.009,48.578,66.738,62.016,64.663,59.67,62.133,57.709
73.031,76.312,91.793,88.257,88.806,85.738,85.576,83.334
84.568,90.337,108.178,104.898,105.793,102.093,102.81,101.814
93.652,98.718,120.798,116.578,120.021,114.104,117.581,116.375
115.621,117.156,140.036,134.777,140.487,133.582,137.145,135.859
144.643,147.624,166.811,162.172,167.316,162.398,164.873,162.6
170.721,179.71,195.612,192.701,195.326,193.603,197.517,192.028
195.332,206.895,223.659,221.52,222.296,222.33,227.824,220.149
220.5,228.855,248.574,245.725,245.937,246.213,248.994,244.163
240.578,245.153,266.338,261.326,262.658,261.916,259.699,260.059
252.813,256.656,276.812,267.78,273.15,269.364,266.478,267.027
264.416,265.684,284.24,270.529,281.68,273.44,275.671,270.839
282.933,275.512,294.038,277.904,292.933,281.212,287.962,280.778
303.948,289.86,308.432,294.374,308.393,297.213,303.395,300.789
315.961,306.096,321.563,313.626,321.742,316.637,320.268,322.512
319.24,319.44,329.029,327.252,328.933,331.4,334.143,336.424
323.593,329.577,334.339,334.481,334.296,339.18,341.974,342.602
328.413,333.471,336.687,334.958,337.053,338.966,341.699,342.791
324.818,326.952,331.035,326.613,332.024,329.902,333.909,336.149
313.026,314.348,321.004,313.029,323.367,316.105,323.985,324.837
304.554,305.474,315.56,302.13,319.696,304.619,318.23,314.721
306.07,304.192,315.5,297.089,320.126,298.554,316.799,309.263
309.171,303.878,312.634,293.029,315.892,294.177,311.305,304.946
303.585,296.761,302.104,285.083,303.615,287.002,297.05,296.877
291.984,284.713,288.904,275.334,289.556,277.977,282.325,287.046
281.825,273.584,278.463,266.131,279.082,268.442,273.811,278.746
268.274,259.728,264.862,251.485,266.02,253.189,262.097,265.458
241.015,235.301,238.677,225.008,240.566,227.243,236.716,239.094
204.562,202.601,202.837,190.508,205.076,194.371,203.549,204.33
170.991,170.196,168.016,156.098,170.498,161.628,171.744,171.101
141.475,142.303,139.113,126.115,142.653,132.736,141.316,142.082
111.304,114.679,111.905,98.301,117.184,105.054,111.182,112.676
79.798,79.722,79.99,66.203,86.128,71.828,82.41,78.858
48.594,41.064,45.773,30.98,51.018,35.156,54.914,45.468
19.924,11.274,17.464,1.687,21.346,5.462,28.449,20.014
-4.236,-9.263,-4.741,-19.781,-1.311,-15.406,3.012,0.413
-26.177,-32.163,-28.363,-40.091,-25.115,-34.686,-23.494,-21.111
-48.787,-58.151,-54.3,-60.886,-51.923,-54.481,-51.229,-45.478
-68.476,-76.348,-74.146,-77.045,-72.69,-70.554,-73.374,-66.505
-80.762,-85.025,-83.561,-86.763,-82.442,-81.133,-84.183,-80.113
-86.326,-91.07,-86.072,-92.168,-85.166,-87.347,-86.861,-85.928
-89.6,-97.108,-86.496,-95.357,-86.119,-90.991,-88.925,-87.047
-96.271,-102.547,-89.204,-98.678,-89.785,-94.581,-93.261,-90.251
-106.267,-108.619,-96.347,-103.621,-98.22,-99.663,-97.608,-97.67
-112.114,-116.795,-104.354,-109.052,-107.327,-105.397,-101.466,-104.066
-108.273,-121.457,-105.373,-109.628,-108.9,-106.17,-102.475,-103.593
-95.103,-112.255,-94.032,-98.558,-97.593,-94.459,-92.878,-92.698
-72.752,-86.959,-69.315,-73.721,-72.064,-68.59,-69.503,-69.766
-39.941,-52.635,-32.665,-38.692,-33.93,-33.498,-37.215,-36.637
-0.278,-16.434,8.138,-0.114,7.135,3.785,-1.558,0.887
39.154,19.729,43.48,36.75,40.484,39.096,35.274,37.522
72.923,56.164,73.671,70.719,68.645,72.355,72.512,71.624
102.187,94.18,107.504,105.261,102.404,106.746,110.699,106.171
138.073,137.993,151.487,146.661,147.261,147.819,152.502,147.324
187.021,186.613,201.916,194.846,198.35,195.811,198.322,194.883
239.144,231.835,248.051,240.8,245.078,241.966,243.532,239.364
281.31,268.393,282.589,276.109,279.904,276.982,280.287,273.125
311.057,295.576,307.142,300.742,304.15,300.305,305.384,298.683
331.961,314.579,327.301,320.796,324.141,318.924,324.855,321.917
342.903,328.158,342.946,337.77,340.524,335.406,341.308,340.528
347.245,339.97,353.154,349.174,352.2,347.044,351.868,351.226
360.484,355.134,365.229,359.147,365.589,356.94,361.793,361.072
388.804,378.026,385.11,375.43,385.878,372.916,378.668,378.383
417.573,405.104,408.26,398.451,408.778,396.511,400.543,401.175
432.993,424.922,426.565,419.709,426.953,418.9,420.986,420.878
440.239,433.554,438.594,432.726,439.056,431.828,436.035,434.356
448.501,438.861,447.925,440.095,448.324,437.996,444.698,444.876
453.138,443.013,452.797,444.083,453.092,442.198,447.732,451.449
446.592,438.272,445.566,439.117,445.754,439.561,443.529,447.413
431.011,422.963,425.173,421.964,425.049,424.356,429.472,430.626
417.782,409.62,406.699,404.924,406.343,407.313,413.007,412.512
419.163,411.801,406.897,404.667,406.483,406.203,407.432,408.898
434.843,427.35,422.273,419.849,421.275,420.87,415.236,420.345
455.268,444.658,438.697,436.944,436.793,437.652,429.659,435.596
475.338,461.533,453.887,452.123,451.926,452.426,446.252,450.865
495.212,482.917,472.947,470.464,471.446,470.579,464.774,469.997
512.956,502.318,490.698,487.921,488.85,488.044,482.258,488.787
521.911,507.456,497.305,493.845,494.718,493.527,492.037,496.877
518.076,501.282,495.288,490.254,492.72,489.108,493.07,494.61
507.74,495.968,493.289,487.869,490.994,486.286,489.783,490.582
500.385,496.076,492.818,488.996,490.319,487.353,484.908,487.508
496.969,498.143,491.082,488.817,488.502,487.014,480.162,483.044
495.018,497.322,487.324,485.424,485.184,483.482,477.248,477.54
492.614,490.076,480.571,478.313,478.992,476.335,472.624,470.703
481.003,472.241,465.809,462.26,464.84,460.157,456.066,455.971
456.049,444.404,441.729,435.773,441.19,433.648,425.784,430.7
427.616,414.991,414.571,406.926,413.534,405.079,396.272,402.512
401.942,387.385,386.964,379.987,384.84,378.363,374.966,376.185
375.489,358.286,356.911,351.236,354.521,349.363,351.028,348.551
345.412,328.063,325.441,319.648,323.88,317.212,318.843,317.891
311.975,298.2,294.219,288.883,293.293,286.277,286.323,287.45
279.95,270.062,265.303,263.323,263.994,261.502,259.713,262.103
259.311,251.533,246.333,248.19,244.344,247.625,242.583,246.967
252.86,247.41,241.503,244.35,239.511,244.242,237.06,242.689
249.905,246.933,241.146,243.056,240.011,242.31,235.822,240.941
240.745,238.862,235.23,237.144,235.511,235.976,230.56,234.968
226.875,226.724,226.291,229.315,228.156,228.758,223.524,227.707
219.204,220.605,222.834,225.464,225.983,225.478,221.9,225.308
228.761,226.517,229.774,229.283,233.225,229.015,228.643,231.266
248.771,240.432,242.046,238.418,244.61,238.237,239.055,242.337
259.328,250.403,248.778,245.559,250.265,246.758,247.098,250.51
257.06,251.16,247.2,247.652,248.437,250.127,250.931,252.642
258.786,252.315,246.405,250.489,247.674,252.802,252.229,254.617
271.035,263.334,254.853,260.699,255.523,262.102,255.847,263.112
277.479,276.028,267.505,274.169,267.745,274.94,263.53,274.552
268.99,280.057,274.516,282.706,275.504,283.342,272.261,282.193
261.942,282.048,276.918,287.411,278.925,288.433,279.955,287.793
270.263,289.435,281.528,293.525,283.937,295.195,286.191,295.45
287.078,299.105,290.495,302.133,293.272,304.112,293.788,305.219
304.297,309.25,302.424,312.285,305.775,313.97,306.505,316.546
324.592,321.92,316.917,324.154,320.325,324.94,322.839,329.912
346.872,337.117,333.965,337.793,336.727,336.889,338.271,343.807
361.969,352.994,350.938,352.072,353.08,349.008,350.888,356.057
369.642,367.79,364.915,366.414,366.934,361.783,363.099,368.123
379.05,378.991,375.15,379.306,377.302,374.437,376.273,380.307
389.868,383.897,381.619,387.502,384.028,383.647,385.148,388.348
390.746,383.2,383.954,389.625,386.965,387.258,385.172,390.359
377.478,379.975,380.675,386.01,384.273,384.586,380.152,388.455
360.718,374.852,371.059,376.59,374.385,375.425,374.44,383.128
352.889,367.655,359.223,363.92,361.45,362.858,367.163,374.175
354.359,359.657,351.015,353.597,352.138,352.445,358.479,364.174
352.762,349.186,344.505,345.531,345.278,344.071,348.847,353.39
337.173,333.847,332.267,333.238,333.756,332.014,335.71,338.611
314.512,316.968,314.46,316.147,317.039,315.923,320.488,321.671
301.072,303.631,299.301,301.705,302.497,302.322,309.579,309.049
298.859,294.646,291.912,294.653,296.004,295.559,304.708,303.379
296.198,287.995,289.967,292.602,296.107,293.925,300.392,301.673
291.084,285.524,290.31,293.635,297.892,295.618,295.548,301.839
292.325,291.931,293.741,299.662,300.205,301.581,297.306,305.95
298.639,302.941,299.84,308.075,304.297,308.757,306.245,313.03
302.103,307.788,304.754,312.118,308.788,311.268,313.836,317.408
301.319,302.586,304.377,308.972,308.942,307.368,313.324,314.876
294.228,289.514,295.48,298.59,299.937,297.207,301.609,303.393
276.192,271.321,277.712,280.851,281.696,279.872,279.346,282.455
249.592,250.193,252.79,256.028,256.653,254.701,250.346,253.579
220.351,223.955,219.56,223.674,222.845,221.617,215.626,218.774
184.222,186.127,175.093,182.439,176.847,180.386,173.339,178.416
135.089,136.888,125.15,136.132,126.331,134.782,127.418,134.523
84.719,87.456,82.845,94.622,85.369,93.997,86.356,93.724
46.853,47.211,49.41,60.979,52.674,61.123,51.145,58.971
18.262,17.681,17.554,31.072,19.531,31.918,19.492,27.68
-5.094,-2.5,-8.864,5.812,-7.954,6.46,-5.181,0.367
-23.07,-19.915,-25.915,-14.505,-24.294,-15.064,-23.953,-22.127
-43.75,-44.708,-45.185,-38.098,-42.653,-39.724,-47.055,-45.035
-73.096,-76.623,-74.865,-67.982,-72.943,-69.645,-77.888,-71.365
-99.211,-100.12,-101.6,-91.62,-100.895,-92.557,-102.589,-92.065
-107.286,-103.53,-109.876,-97.731,-109.086,-97.652,-106.868,-96.963
-102.421,-96.954,-105.666,-93.561,-103.732,-92.187,-98.412,-91.913
-99.107,-96.259,-103.863,-92.723,-101.008,-90.208,-96.582,-91.234
-97.315,-99.211,-105.153,-95.288,-101.41,-92.44,-103.899,-96.472
-88.73,-94.725,-101.308,-92.829,-96.421,-90.149,-106.195,-97.102
-77.915,-85.109,-94.176,-87.018,-88.813,-84.626,-99.775,-91.971
-76.695,-81.826,-92.197,-86.644,-87.454,-84.864,-95.664,-90.551
-83.707,-86.125,-94.525,-90.162,-90.61,-88.709,-96.439,-92.648
-86.492,-89.023,-94.499,-89.424,-90.909,-87.224,-94.596,-90.157
-79.637,-85.626,-91.017,-84.292,-87.574,-81.161,-89.184,-83.279
-72.578,-81.203,-89.577,-82.281,-86.459,-79.162,-86.335,-79.623
-77.181,-83.537,-95.664,-88.516,-92.566,-85.811,-90.056,-84.679
-90.683,-91.432,-106.573,-99.488,-102.607,-96.564,-98.802,-96.465
-101.607,-98.109,-115.03,-108.225,-109.655,-104.591,-109.178,-108.033
-107.049,-103.652,-119.486,-112.91,-113.356,-108.942,-119.357,-115.095
-113.888,-114.338,-125.369,-118.473,-120.029,-114.856,-129.086,-120.654
-125.703,-130.368,-136.228,-128.924,-132.623,-125.875,-137.37,-129.213
-133.681,-140.795,-143.977,-136.78,-141.681,-133.897,-138.928,-134.835
-129.334,-136.952,-138.57,-131.815,-136.778,-128.653,-129.885,-127.895
-119.438,-125.377,-125.316,-118.78,-123.582,-115.338,-115.952,-112.784
-113.651,-117.419,-116.837,-109.845,-114.663,-105.82,-106.426,-101.794
-109.63,-114.211,-115.991,-107.512,-112.944,-102.189,-104.534,-98.333
-103.962,-112.056,-118.457,-108.367,-114.909,-102.364,-108.036,-99.457
-100.768,-110.026,-119.865,-110.123,-116.68,-105.18,-111.685,-102.906
-96.549,-102.617,-112.781,-105.188,-110.329,-101.575,-106.478,-101.076
-79.964,-83.61,-91.963,-85.716,-90.051,-82.351,-87.563,-85.015
-54.81,-60.2,-65.016,-58.162,-63.127,-54.58,-62.201,-59.304
-38.155,-44.352,-44.499,-36.016,-41.746,-31.982,-41.417,-36.793
-36.936,-37.929,-34.999,-24.773,-30.788,-19.742,-29.323,-23.973
-41.565,-34.77,-32.777,-21.142,-27.569,-15.419,-22.76,-19.36
-36.864,-27.129,-29.902,-18.133,-24.745,-12.816,-16.967,-17.308
-16.246,-11.479,-19.997,-10.319,-15.562,-6.127,-9.068,-11.445
10.376,7.449,-5.005,2.239,-1.423,5.184,1.842,0.312
26.991,22.356,8.026,15.779,10.766,17.901,13.793,14.132
33.374,34.876,20.018,30.43,22.167,32.339,26.7,28.401
44.629,53.05,37.739,50.061,40.072,51.701,44.268,46.343
67.5,76.25,58.893,72.74,62.086,73.852,64.427,66.295
92.397,95.202,75.631,91.296,79.519,92.518,79.44,81.951
105.845,103.738,85.128,100.466,89.419,102.396,86.711,90.09
105.704,103.749,89.269,100.79,94.213,102.682,91.299,92.355
105.814,103.594,92.448,99.718,97.642,100.605,98.184,94.47
118.537,110.496,98.099,103.991,102.228,104.061,105.694,101.058
136.429,121.7,105.178,111.402,108.124,111.143,110.28,109.453
143.759,128.493,110.714,116.049,113.681,115.166,113.237,114.074
143.155,131.616,116.501,120.086,119.662,118.165,119.02,117.669
152.123,140.891,127.455,130.886,130.012,128.354,129.778,128.128
173.289,157.885,142.011,147.436,144.127,145.216,143.027,144.043
191.946,173.81,153.596,161.319,156.115,160.002,154.846,156.293
200.501,182.364,159.141,167.694,162.207,167.446,162.534,161.232
203.521,184.746,160.061,167.917,163.484,168.753,165.284,162.99
204.098,183.359,158.241,164.269,162.343,166.047,163.387,163.694
202.663,178.957,154.96,158.222,159.843,160.511,158.548,160.967
202.319,175.401,153.644,154.324,158.773,156.437,157.479,157.466
204.967,176.289,156.394,155.659,161.731,156.901,164.737,158.128
208.918,178.16,158.52,157.57,164.346,157.741,172.444,159.442
207.181,173.189,152.743,153.157,158.36,152.899,167.973,153.937
190.567,157.378,136.995,139.923,141.423,139.979,148.897,139.852
164.72,137.708,117.502,122.054,120.906,122.418,125.878,122.292
148.164,125.602,102.321,106.632,105.441,107.219,108.913,106.86
143.857,119.132,90.141,93.456,93.058,94.686,94.271,92.145
132.546,101.99,71.325,74.166,73.994,76.054,72.299,71.597
103.607,68.772,44.443,47.373,47.524,49.128,45.294,45.646
71.133,37.155,20.941,24.239,24.444,25.246,25.633,23.686
47.864,21.772,6.387,10.987,8.989,11.328,13.652,8.993
30.349,15.494,-5.712,0.789,-4.358,0.73,-3.39,-5.004
14.285,4.814,-20.206,-13.511,-18.733,-13.965,-27.499,-23.081
2.025,-11.053,-34.783,-29.787,-32.786,-30.87,-46.132,-41.814
-5.102,-23.1,-45.685,-41.129,-44.371,-42.849,-52.775,-53.945
-14.164,-31.415,-54.976,-47.939,-54.879,-49.575,-56.438,-60.026
-31.779,-43.223,-66.099,-55.882,-66.634,-56.646,-66.407,-67.043
-51.016,-53.491,-73.99,-62.474,-74.875,-62.719,-77.39,-74.241
-59.969,-52.452,-72.567,-61.144,-73.898,-62.046,-78.141,-74.973
-56.878,-44.595,-65.676,-54.326,-67.02,-56.721,-69.447,-69.616
-48.784,-40.363,-60.378,-48.923,-61.172,-52.822,-62.679,-64.149
-40.207,-39.448,-56.686,-44.125,-57.206,-48.512,-60.668,-58.816
-31.808,-35.446,-50.941,-35.584,-51.621,-39.154,-56.237,-50.197
-26.726,-27.037,-42.657,-25.112,-43.07,-27.648,-48.251,-40.572
-25.982,-18.275,-34.45,-17.963,-33.968,-19.922,-41.723,-35.089
-23.858,-14.044,-29.743,-16.039,-28.561,-17.26,-37.885,-34.212
-16.507,-12.337,-28.058,-14.969,-26.855,-15.078,-33.977,-32.394
-9.543,-6.226,-25.393,-10.217,-24.312,-9.586,-28.505,-26.097
-9.816,1.992,-21.077,-4.28,-19.691,-3.902,-22.189,-19.496
-13.839,3.649,-16.745,-0.291,-14.971,-0.842,-16.368,-15.608
-16.241,-2.241,-13.124,2.393,-11.494,1.223,-13.542,-12.263
-19.129,-9.833,-10.898,3.188,-9.884,2.004,-13.64,-9.597
-22.547,-13.795,-9.931,1.313,-9.412,0.168,-12.489,-10.25
-21.794,-11.349,-8.531,0.401,-8.084,-0.864,-8.878,-12.264
-18.394,-5.466,-6.524,3.145,-5.863,1.564,-6.612,-11.543
-20.098,-5.486,-7.878,3.703,-6.733,1.061,-9.34,-11.625
-29.028,-15.061,-15.334,-3.623,-13.609,-8.107,-16.491,-18.673
-40.498,-27.723,-26.963,-15.946,-25.311,-21.879,-26.296,-31.454
-51.167,-38.167,-39.933,-29.168,-39.27,-35.391,-39.037,-45.313
-61.476,-45.602,-51.144,-41.394,-51.42,-47.509,-52.957,-57.107
-73.615,-52.28,-59.327,-51.759,-59.396,-58.314,-64.628,-66.403
-88.245,-64.37,-69.038,-63.834,-67.773,-71.197,-74.512,-76.894
-105.976,-85.834,-86.827,-83.408,-84.113,-90.908,-87.525,-93.091
-128.128,-110.984,-112.242,-109.127,-108.792,-115.331,-106.891,-113.908
-150.44,-130.626,-137.629,-133.521,-133.958,-137.649,-129.844,-134.694
-166.994,-145.205,-158.325,-154.752,-154.192,-157.703,-151.686,-155.554
-177.468,-158.881,-173.221,-173.594,-168.402,-176.842,-167.725,-176.077
-182.572,-168.092,-180.546,-185.337,-175.95,-189.105,-176.435,-189.662
-182.168,-171.214,-183.352,-189.176,-180.364,-192.495,-184.522,-195.278
-182.04,-175.731,-188.858,-192.873,-187.698,-195.018,-197.479,-200.834
-191.81,-186.734,-198.939,-201.157,-198.731,-202.416,-209.838,-209.919
-209.325,-198.968,-208.154,-209.479,-208.031,-210.628,-213.487,-217.268
-221.697,-204.983,-211.432,-212.344,-210.756,-213.693,-210.143,-219.168
-223.346,-203.934,-208.524,-210.518,-206.912,-212.042,-206.944,-218.052
-214.919,-198.536,-201.521,-206.708,-199.467,-208.837,-204.114,-215.797
-196.823,-190.911,-194.136,-201.975,-192.783,-205.063,-199.772,-212.899
-178.5,-183.126,-188.889,-196.638,-188.594,-200.319,-195.646,-209.763
-172.717,-175.742,-183.203,-189.517,-183.586,-193.552,-190.285,-204.12
-174.683,-167.432,-174.407,-179.438,-175.648,-183.905,-181.472,-194.592
-172.148,-160.685,-166.175,-169.525,-168.47,-173.845,-173.356,-185.033
-169.005,-160.251,-164.477,-165.343,-167.079,-168.627,-171.331,-180.76
-172.174,-162.302,-167.542,-166.513,-169.736,-168.699,-172.871,-181.477
-175.155,-160.076,-168.082,-167.329,-169.601,-169.036,-171.749,-182.188
-172.999,-155.97,-164.747,-165.598,-165.132,-167.356,-168.508,-180.362
-169.47,-154.853,-161.664,-163.782,-160.936,-165.735,-167.374,-177.323
-165.352,-157.046,-161.205,-164.668,-160.62,-166.675,-168.951,-175.9
-161.209,-161.618,-163.678,-168.637,-164.444,-170.544,-171.06,-177.762
-166.315,-170.313,-170.539,-176.113,-171.969,-177.887,-174.137,-183.472
-185.489,-185.931,-182.786,-189.506,-183.021,-191.19,-182.157,-194.686
-207.296,-204.068,-197.03,-206.766,-195.899,-208.489,-195.773,-210.365
-221.17,-215.957,-209.283,-221.311,-208.457,-223.264,-211.538,-225.517
-231.664,-222.775,-220.944,-231.912,-221.002,-234.258,-227.729,-238.058
-245.915,-234.671,-236.808,-244.53,-236.823,-247.181,-246,-251.849
-262.004,-254.88,-258.385,-263.295,-258.027,-265.655,-267.435,-270.632
-276.993,-276.782,-281.206,-284.578,-280.771,-286.096,-287.888,-292.011
-293.589,-295.181,-299.38,-302.229,-298.839,-303.132,-303.365,-310.643
-310.62,-308.68,-310.219,-313.941,-309.64,-314.587,-316.163,-323.428
-320.455,-316.656,-314.693,-320.943,-314.346,-321.261,-326.621,-329.957
-320.96,-319.862,-314.983,-324.249,-315.009,-324.605,-328.841,-331.15
-315.823,-316.933,-310.704,-321.528,-311.448,-322.743,-320.78,-326.756
-304.363,-303.088,-298.973,-309.251,-300.601,-311.336,-306.35,-314.623
-284.251,-278.604,-279.797,-288.414,-281.718,-290.708,-288.798,-295.185
-261.659,-254.599,-260.076,-267.002,-261.512,-269.346,-272.93,-276.001
-246.437,-241.837,-246.63,-253.099,-246.72,-255.675,-263.994,-264.83
-239.888,-237.438,-238.06,-246.068,-236.234,-248.53,-258.787,-259.37
-233.854,-231.11,-229.945,-239.19,-227.807,-240.967,-248.555,-251.426
-218.589,-217.739,-219.7,-227.577,-220.013,-228.781,-230.453,-236.717
-196.413,-201.227,-207.03,-213.202,-209.931,-214.493,-212.171,-219.356
-182.536,-189.046,-195.62,-201.903,-199.154,-203.732,-201.747,-207.127
-182.857,-183.605,-188.065,-194.31,-191.24,-196.732,-196.009,-200.422
-186.618,-181.979,-181.687,-186.522,-184.124,-189.272,-189.008,-193.281
-183.015,-178.691,-172.313,-175.966,-173.709,-178.548,-180.342,-182.539
-171.155,-169.334,-158.944,-162.778,-160.234,-164.984,-169.309,-169.546
-157.044,-156.112,-144.499,-149.739,-146.825,-151.967,-154.7,-157.018
-146.077,-143.974,-133.021,-140.098,-135.919,-142.611,-140.27,-146.66
-140.093,-136.447,-129.061,-137.114,-131.359,-139.403,-133.802,-141.397
-141.123,-137.078,-134.156,-141.966,-135.447,-143.577,-138.464,-144.272
-148.527,-144.187,-141.574,-148.534,-142.435,-150.057,-146.835,-151.19
-152.692,-148.588,-142.364,-148.002,-143.96,-150.547,-148.241,-153.089
-144.343,-143.802,-134.461,-138.644,-137.58,-142.452,-140.55,-146.251
-128.302,-133.251,-122.561,-125.995,-126.981,-130.384,-130.741,-135.256
-117.26,-124.235,-111.98,-115.105,-116.86,-119.765,-123.723,-126.108
-116.069,-119.473,-105.252,-107.253,-109.748,-112.096,-117.075,-120.265
-118.517,-116.731,-102.592,-102.235,-106.401,-106.282,-108.495,-115.487
-117.994,-113.756,-102.266,-99.243,-105.505,-101.476,-101.983,-110.312
-117.514,-112.818,-104.318,-99.073,-106.798,-99.765,-104.38,-108.135
-122.883,-118.314,-111.439,-104.555,-112.895,-104.604,-115.263,-113.208
-131.195,-129.318,-122.23,-115.463,-123.218,-115.524,-126.497,-123.649
-134.757,-138.118,-129.85,-125.622,-131.515,-126.578,-132.782,-132.68
-130.787,-136.783,-128.652,-127.048,-131.592,-129.889,-132.579,-134.231
-122.439,-125.51,-119.589,-118.925,-123.476,-123.518,-125.926,-128.667
-112.448,-112.525,-108.7,-108.88,-113.078,-114.137,-117.614,-122.603
-101.311,-104.915,-101.59,-103.723,-106.49,-109.051,-113.443,-120.725
-90.507,-102.328,-99.542,-103.833,-105.102,-109.371,-113.66,-121.459
-80.708,-99.179,-98.782,-105.649,-104.477,-111.709,-114.417,-121.676
-68.749,-90.01,-93.019,-104.273,-97.708,-111.376,-111.317,-119.445
-48.843,-71.868,-77.629,-93.404,-80.969,-101.878,-99.234,-109.621
-19.272,-46.75,-55.278,-71.505,-58.417,-80.538,-77.15,-88.264
13.789,-20.88,-34.043,-46.468,-37.842,-54.776,-52.415,-62.013
41.974,0.831,-18.074,-27.449,-21.829,-34.772,-33.828,-42.124
58.926,14.898,-8.797,-18.839,-11.841,-25.64,-26.474,-34.335
62.259,17.637,-9.622,-21.758,-12.774,-28.304,-31.197,-38.57
53.27,6.14,-22.948,-36.162,-27.337,-42.577,-45.394,-53.466
35.271,-17.715,-45.916,-59.575,-51.44,-65.998,-66.289,-76.226
15.743,-42.993,-69.519,-83.614,-75.308,-90.088,-89.68,-99.266
-0.777,-59.816,-87.195,-100.816,-92.927,-107.113,-109.711,-116.502
-17.779,-70.665,-101.784,-113.142,-107.829,-118.805,-124.762,-129.447
-35.261,-82.46,-117.585,-125.943,-124.032,-130.819,-139.188,-141.755
-48.31,-96.001,-132.99,-139.09,-139.174,-143.63,-155.444,-153.943
-57.892,-108.261,-143.867,-147.716,-149.056,-152.413,-167.476,-162.85
-67.466,-117.556,-148.482,-149.685,-152.504,-154.781,-169.074,-165.094
-72.071,-121.15,-147.153,-147.834,-150.359,-153.87,-162.9,-161.519
-66.685,-116.262,-141.271,-144.384,-144.487,-151.874,-156.225,-156.341
-59.466,-106.716,-134.219,-139.259,-138.304,-147.553,-154.072,-152.854
-59.177,-99.125,-129.524,-133.601,-134.795,-141.456,-155.227,-151.056
-62.707,-97.104,-129.815,-132.022,-136.476,-139.231,-156.783,-151.944
-66.209,-101.185,-135.562,-137.981,-143.532,-145.152,-160.709,-158.875
-72.572,-106.915,-142.206,-147.164,-150.212,-154.421,-166.828,-169.364
-81.862,-108.428,-144.141,-151.597,-150.941,-158.529,-168.432,-174.391
-86.969,-106.423,-140.979,-148.992,-146.923,-155.321,-162.561,-170.264
-84.651,-106.552,-137.118,-145.113,-142.861,-150.91,-156.26,-164.139
-78.88,-109.893,-134.893,-145.375,-139.791,-151.23,-155.698,-162.668
-73.744,-111.278,-130.527,-145.246,-133.979,-152.207,-154.71,-161.76
-73.703,-108.823,-121.667,-137.728,-124.903,-146.16,-145.835,-154.73
-81.465,-107.656,-114.054,-127.701,-118.441,-136.633,-135.762,-144.717
-90.703,-109.873,-111.941,-124.163,-116.57,-132.627,-133.168,-139.403
-90.368,-107.22,-107.247,-121.429,-110.45,-129.295,-129.964,-135.303
-79.143,-93.325,-92.122,-108.098,-94.19,-115.175,-114.869,-122.652
-68.073,-75.651,-74.225,-88.686,-76.816,-94.961,-93.877,-103.585
-64.777,-63.044,-63.618,-75.307,-67.367,-81.686,-78.49,-88.186
-67.348,-57.395,-60.214,-71.251,-64.063,-77.978,-71.082,-81.447
-75.556,-63.949,-64.061,-76.295,-66.697,-82.036,-72.226,-84.574
-90.725,-85.003,-76.669,-89.76,-77.961,-93.992,-82.884,-95.883
-104.46,-104.44,-88.908,-102.25,-89.757,-106.442,-95.359,-105.906
-105.995,-104.968,-88.452,-102.237,-89.655,-107.712,-97.735,-105.079
-99.414,-94.428,-77.967,-92.46,-79.594,-99.271,-89.865,-96.817
-95.728,-89.979,-68.393,-83.184,-70.391,-91.068,-81.667,-89.134
-97.949,-91.23,-63.451,-76.765,-66.169,-85.274,-77.024,-82.848
-105.289,-90.844,-61.738,-72.055,-64.95,-80.088,-72.622,-77.841
-115.787,-90.854,-61.83,-69.952,-64.579,-76.068,-67.79,-75.206
-125.652,-94.986,-62.789,-69.927,-65.196,-73.358,-65.463,-73.475
-133.625,-99.49,-63.752,-69.825,-66.826,-71.594,-65.797,-71.284
-138.992,-98.944,-63.97,-69.277,-67.483,-71.4,-66.849,-69.702
-139.028,-96.282,-64.816,-71.087,-67.667,-74.328,-69.284,-71.202
-135.967,-100.183,-68.876,-77.993,-70.863,-82.017,-73.864,-77.14
-140.38,-113.875,-78.51,-89.985,-80.352,-94.987,-81.243,-86.831
-157.595,-131.765,-94.728,-104.872,-96.923,-110.967,-94.192,-98.995
-178.138,-147.216,-114.284,-120.344,-116.295,-126.707,-112.136,-113.716
-190.002,-158.39,-129.523,-133.774,-130.38,-139.685,-127.839,-129.732
-190.92,-164.579,-133.489,-139.99,-133.259,-145.15,-134.107,-139.7
-187.677,-164.755,-127.847,-136.794,-127.564,-140.605,-130.53,-137.916
-189.3,-160.323,-120.879,-129.196,-121.042,-131.247,-122.888,-128.736
-197.085,-154.502,-116.27,-122.275,-116.395,-122.908,-118.06,-119.203
-200.1,-149.455,-110.666,-115.663,-110.225,-115.56,-115.248,-110.114
-189.382,-144.663,-102.288,-107.283,-101.659,-107.344,-107.284,-99.627
-173.347,-139.308,-96.64,-98.554,-97.425,-99.363,-96.605,-90.482
-163.168,-132.518,-96.774,-90.564,-100.496,-91.489,-92.316,-84.855
-154.627,-121.699,-95.529,-80.657,-101.521,-80.868,-92.757,-79.259
-140,-106.313,-86.377,-67.592,-92.351,-67.717,-89.391,-71.216
-123.298,-90.5,-71.43,-53.597,-75.775,-55.042,-79.061,-61.469
-114.471,-79.355,-57.404,-42.535,-60.01,-45.46,-64.294,-51.137
-115.926,-75.159,-50.246,-37.778,-52.299,-40.493,-50.317,-42.436
-122.717,-79.533,-51.809,-41.04,-54.301,-41.351,-44.252,-39.883
-129.778,-89.857,-57.51,-49.473,-59.627,-46.15,-47.523,-44.398
-132.157,-94,-59.689,-53.523,-60.731,-46.541,-51.028,-47.247
-129.587,-87.863,-57.603,-49.872,-58.249,-40.347,-48.795,-42.161
-126.384,-82.933,-54.907,-46.916,-54.446,-37.15,-42.693,-34.47
-121.78,-83.521,-51.181,-48.143,-48.188,-40.105,-32.405,-28.742
-115.873,-84.887,-48.125,-50.134,-43.749,-43.507,-21.947,-24.515
-116.192,-89.663,-51.778,-55.017,-47.645,-48.335,-22.939,-24.798
-125.408,-101.297,-62.109,-65.834,-57.692,-58.89,-36.209,-33.015
-137.197,-114.059,-71.643,-77.142,-66.527,-70.887,-49.624,-44.977
-149.136,-124.272,-78.515,-84.571,-74.159,-79.724,-59.463,-55.621
-164.825,-136.961,-90.671,-94.121,-88.734,-90.523,-74.555,-68.141
-183.781,-154.524,-112.076,-111.437,-112.565,-108.296,-98.144,-87.549
-202.174,-172.129,-134.521,-131.243,-135.562,-127.972,-120.447,-110.373
-214.428,-181.333,-144.721,-141.132,-144.168,-137.594,-129.224,-123.891
-213.408,-177.127,-139.374,-135.895,-136.961,-131.7,-123.27,-119.913
-205.849,-170.398,-133.503,-128.823,-130.195,-123.271,-115.673,-110.393
-211.345,-178.465,-143.211,-136.898,-139.298,-129.879,-120.823,-114.818
-231.016,-197.69,-162.655,-155.623,-158.423,-147.876,-138.274,-132.516
-241.561,-206.8,-171.787,-164.326,-168.324,-156.682,-152.548,-144.185
-231.643,-199.446,-165.544,-156.308,-163.561,-149.021,-153.155,-141.11
-218.43,-190.293,-158.131,-145.598,-157.461,-138.423,-147.734,-134.18
-216.41,-187.424,-156.236,-141.338,-156.429,-133.972,-145.239,-131.038
-214.53,-183.339,-150.706,-137.176,-150.765,-129.437,-141.43,-126.379
-197.496,-171.793,-135.915,-126.699,-134.449,-118.185,-129.205,-115.027
-173.182,-156.679,-120.125,-113.601,-117.336,-103.781,-111.563,-99.742
-163.754,-146.903,-115.644,-107.56,-113.405,-96.74,-100.936,-89.881
-176.562,-148.799,-126.026,-115.104,-124.747,-104.655,-106.417,-94.972
-198.69,-162.039,-146.183,-134.11,-144.514,-125.272,-124.827,-115.182
-212.426,-175.327,-164.214,-150.991,-162.056,-143.803,-141.812,-134.9
-205.629,-170.643,-162.331,-146.743,-160.77,-140.376,-139.08,-132.102
-180.313,-146.299,-137.23,-120.967,-136.242,-114.962,-114.478,-106.141
-157.418,-127.267,-115.258,-101.889,-114.187,-96.428,-93.711,-86.663
-155.649,-132.912,-120.245,-110.749,-119.498,-105.591,-99.874,-95.788
-158.416,-141.595,-130.774,-123.621,-130.937,-117.838,-112.837,-109.17
-127.39,-113.615,-102.701,-98.003,-102.808,-90.939,-88.767,-82.773
-63.842,-51.341,-38.401,-38.547,-36.864,-30.38,-28.1,-20.803
-24.505,-10.222,1.758,-3.72,5.06,4.811,10.149,16.595
-45.084,-28.219,-19.545,-27.415,-15.715,-19.341,-10.807,-5.558
-76.051,-61.083,-52.417,-60.207,-48.881,-52.958,-40.815,-37.013
-49.01,-37.709,-25.401,-33.241,-21.842,-26.516,-9.467,-8.36
16.512,30.538,46.354,38.469,50.413,45.076,65.716,64.646
45.507,66.883,84.988,79.205,89.129,85.934,105.151,105.594
26.006,49.837,68.075,66.886,71.296,74.286,87.757,92.408
20.191,40.274,54.492,57.184,56.285,65.497,73.653,80.945
62.464,77.275,87.141,88.673,87.832,97.047,103.737,110.574
110.758,120.251,131.889,127.715,132.089,135.449,144.372,149.101
116.349,121.896,138.538,129.648,138.563,136.992,149.349,152.188
89.035,94.017,110.948,100.929,110.845,107.958,122.506,125.15
68.205,75.535,87.978,78.205,88.033,84.559,99.843,103.427
70.87,81.113,89.639,80.607,90.365,86.19,101.937,105.118
85.145,95.728,103.312,96.162,104.892,101.077,116.789,117.931
89.595,97.022,106.767,101.184,108.714,105.634,119.425,119.876
74.366,77.671,91.694,86.201,93.147,90.541,101.928,103.787
51.423,51.664,68.752,63.683,69.346,68.301,79.191,82.001
37.105,35.848,51.812,49.405,51.943,54.688,64.87,67.737
28.949,30.131,40.445,41.798,40.59,47.574,54.941,57.759
14.899,22.69,25.684,29.166,26.093,34.428,40.403,42.037
-3.462,7.974,8.415,11.408,9.32,15.687,23.376,23.29
-16.335,-7.25,-1.194,-0.11,0.495,3.89,12.811,12.644
-25.137,-16.561,-2.802,-3.512,-0.338,0.576,9.622,9.752
-34.217,-21.524,-5.617,-6.915,-3.25,-3.038,7.995,6.285
-36.344,-22.881,-9.731,-9.764,-8.593,-5.701,7.859,3.589
-29.343,-20.643,-11.147,-8.704,-11.237,-3.898,9.369,4.494
-29.479,-22.491,-17.372,-12.96,-17.804,-7.983,3.394,-0.27
-49.409,-37.801,-37.505,-33.032,-37.846,-28.497,-18.005,-19.91
-76.46,-62.311,-63.719,-61.672,-63.868,-57.358,-46.622,-46.848
-87.91,-79.354,-77.124,-79.304,-76.373,-75.226,-62.93,-62.568
-81.313,-81.551,-72.976,-79,-70.573,-75.43,-60.044,-60.817
-76.466,-81.13,-68.93,-75.981,-65.257,-72.409,-54.271,-56.498
-91.765,-94.27,-83.612,-88.386,-79.594,-84.062,-65.289,-67.749
-123.299,-119.253,-112.798,-113.924,-108.642,-108.859,-92.612,-94.025
-147.859,-138.507,-135.387,-133.129,-131.132,-127.43,-118.198,-117.331
-154.285,-146.699,-143.578,-137.883,-140.099,-131.063,-130.83,-126.878
-158.915,-157.85,-151.502,-142.466,-149.532,-134.538,-138.781,-132.606
-178.11,-180.973,-172.248,-161.629,-171.109,-153.917,-155.945,-149.929
-203.202,-206.448,-199.732,-189.528,-198.463,-183.105,-181.326,-176.977
-213.341,-216.44,-215.033,-205.726,-213.775,-200.029,-197.559,-193.546
-204.293,-206.064,-209.913,-201.693,-208.861,-195.823,-193.541,-188.944
-193.945,-192.048,-198.705,-192.15,-197.29,-186.467,-181.713,-178.806
-199.264,-193.491,-199.503,-193.863,-197.778,-189.331,-182.472,-181.94
-216.71,-209.419,-211.694,-204.98,-210.833,-201.578,-197.273,-195.163
-227.261,-221.366,-219.422,-211.202,-220.026,-207.939,-208.239,-201.744
-218.188,-215.768,-211.775,-204.128,-212.981,-200.477,-201.637,-194.164
-200.097,-201.195,-197.102,-192.312,-197.758,-188.577,-185.831,-183.114
-195.38,-198.555,-195.518,-193.624,-195.462,-190.076,-183.086,-185.719
-206.646,-211.991,-210.22,-208.995,-209.947,-205.64,-197.721,-200.701
-212.108,-219.438,-217.741,-214.941,-217.139,-211.811,-204.523,-204.53
-196.094,-201.26,-200.605,-195.963,-199.111,-193.263,-185.573,-183.94
-168.446,-168.496,-172.295,-167.341,-170.215,-165.469,-157.784,-155.638
-149.5,-149.007,-156.918,-152.895,-155.167,-152.049,-145.42,-142.613
-143.121,-149.306,-155.708,-151.761,-154.581,-151.664,-143.898,-142.917
-133.592,-145.676,-145.509,-139.653,-144.887,-139.971,-127.617,-131.919
-108.763,-118.198,-111.394,-103.143,-111.483,-103.845,-88.406,-95.868
-73.641,-76.219,-66.763,-57.914,-67.858,-59.144,-46.965,-50.591
-41.528,-41.997,-34.085,-26.971,-36.189,-28.722,-22.478,-20.081
-16.842,-21.754,-15.335,-10.882,-18.279,-12.765,-8.901,-5.427
11.311,0.116,8.418,11.267,4.889,9.548,13.71,15.302
49.97,36.188,46.006,49.216,42.406,47.425,51.392,52.833
85.682,73.403,79.92,84.432,76.969,82.539,86.061,88.207
101.893,90.125,90.793,96.224,88.847,94.722,97.29,100.095
106.099,91.904,88.168,94.022,86.891,92.912,92.962,97.48
124,108.914,102.052,108.495,100.673,106.925,104.703,110.315
163.033,150.714,140.185,148.295,137.913,145.415,143.366,147.683
199.282,189.072,175.221,185.493,171.733,181.293,180.932,183.374
208.543,197.602,182.247,191.936,178.15,187.047,188.641,189.543
197.567,184.623,168.469,172.866,165.042,167.553,173.275,170.555
193.22,175.026,158.092,155.759,155.864,149.898,162.386,154.331
202.708,175.38,159.132,153.796,157.125,147.814,164.131,154.368
205.355,171.457,157.983,153.995,154.929,148.524,162.091,155.915
185.962,151.631,142.177,139.476,137.949,134.257,143.852,141.089
157.126,124.536,118.887,114.331,114.55,108.761,118.835,115.93
145.675,114.643,109.352,102.098,105.888,96.247,108.654,104.579
159.073,129.834,119.871,112.155,117.23,106.368,118.969,113.561
174.889,144.803,130.294,123.658,128.246,118.167,130.397,122.531
172.926,138.199,123.903,118.594,122.488,113.606,126.161,117.742
161.671,124.118,111.203,108.304,109.638,103.729,114.898,109.386
159.346,125.357,111.013,111.523,108.308,107.345,114.489,111.904
163.24,136.804,120.524,123.138,117.282,119.892,122.471,122.114
154.169,134.177,119.003,121.412,116.413,119.305,119.153,121.726
121.16,104.877,92.571,94.576,90.417,92.967,92.281,96.223
75.319,60.759,48.313,51.459,45.724,49.687,49.465,51.995
43.504,27.215,12.872,16.428,9.829,14.334,15.487,16.971
35.932,15.028,5.039,5.351,1.955,3.194,6.799,9.108
28.942,6.735,7.019,2.781,3.878,1.063,6.028,9.035
1.223,-17.245,-10.531,-16.399,-13.634,-17.472,-13.688,-11.185
-29.504,-46.295,-38.895,-44.02,-41.268,-44.856,-42.449,-40.658
-28.825,-47.389,-39.597,-44.353,-41.146,-45.564,-42.766,-40.941
3.624,-11.733,-4.914,-9.822,-6.721,-11.747,-8.537,-6.227
28.747,20.573,22.417,18.365,19.867,15.999,17.441,20.307
14.134,6.255,4.063,2.381,1.813,0.535,-0.687,3.085
-25.122,-37.078,-38.751,-37.951,-39.829,-38.485,-39.919,-35.458
-35.579,-44.615,-45.206,-43.331,-45.504,-42.939,-42.356,-38.11
9.904,7.902,6.206,7.818,5.944,8.002,9.561,13.219
67.555,65.937,63.179,63.791,62.455,63.398,64.83,67.505
76.827,70.606,67.548,66.923,66.132,66.703,68.836,69.474
43.191,38.671,33.622,32.624,31.873,33.041,34.787,34.156
25.549,31.292,22.964,22.97,21.327,23.422,21.308,22.747
49.822,63.307,55.672,56.799,54.016,56.681,50.971,55.409
81.016,92.054,90.044,91.222,88.29,90.872,85.987,89.81
83.724,88.199,88.928,89.333,87.458,89.286,86.272,87.081
67.258,69.101,65.603,64.87,64.658,64.856,60.63,60.537
60.757,62.717,54.329,52.333,53.828,51.827,46.669,47.264
70.37,72.529,63.193,60.925,62.98,60.062,57.834,57.337
79.007,84.391,75.276,74.946,74.866,73.962,74.808,72.603
77.774,88.276,79.594,82.433,78.104,81.004,80.486,79.287
72.58,82.422,77.158,82.003,74.386,79.97,74.693,76.665
65.494,69.374,69.079,73.935,66.212,71.77,62.548,66.324
56.545,57.558,58.943,62.739,56.962,60.711,51.139,53.687
54.527,57.034,56.64,59.117,54.877,57.003,49.937,50.546
61.289,66.146,64.699,65.803,62.441,63.78,60.539,60.68
63.142,71.236,70.742,70.642,68.676,69.269,71.305,70.799
54.464,64.876,63.717,63.098,62.45,62.608,69.001,67.104
45.65,52.583,47.361,46.971,46.47,47.554,52.829,51.995
46.714,46.192,38.22,38.302,37.72,40.024,40.101,43.359
63.696,60.161,55.519,57.013,56.143,59.467,57,63.455
92.942,92.786,95.374,100.041,96.785,103.319,103.109,110.051
103.19,106.586,113.998,121.146,114.777,125.969,127.788,135.307
65.263,68.163,75.235,81.133,75.008,87.164,87.462,96.53
18.43,18.715,23.346,25.896,23.254,31.32,30.28,38.215
41.067,42.152,44.971,46.246,45.662,49.711,50.626,54.046
130.158,136.593,137.524,140.641,137.78,142.862,145.353,145.512
186.35,196.714,196.349,201.88,194.819,204.551,205.233,205.646
153.978,163.736,165.819,171.352,163.336,174.92,174.637,175.348
106.276,114.972,122.389,124.905,120.562,128.461,131.453,129.923
138.791,148.618,158.037,157.104,156.481,160.059,165.714,162.35
230.35,238.554,245.138,242.807,242.69,245.191,248.633,246.443
277.074,276.428,282.298,279.4,279.972,280.817,281.933,280.89
240.505,230.388,240.387,235.639,240.109,235.534,239.286,236.243
191.848,182.257,194.462,188.162,195.603,186.986,194.177,188.973
201.59,200.156,210.346,204.93,210.594,203.579,209.539,205.943
248.595,250.437,259.923,256.099,258.781,254.562,257.681,256.968
266.198,265.204,275.251,272.097,273.926,270.117,273.142,272.72
234.924,234.342,242.944,240.899,241.874,239.248,243.051,241.802
198.152,200.621,208.77,208.324,207.309,207.824,210.855,210.381
196.454,197.258,207.584,207.103,205.214,207.207,208.206,210.127
215.341,211.79,222.723,220.752,219.364,220.486,218.514,223.221
215.463,212.24,218.987,216.948,214.546,216.215,210.702,217.385
187.959,191.227,189.68,189.724,184.109,188.825,180.664,187.956
155.701,165.013,157.247,158.404,151.277,157.482,149.691,156.059
137.335,143.357,140.02,138.465,135.429,137.59,134.127,138.044
126.809,123.739,132.43,126.099,130.622,125.16,127.727,128.626
107.735,104.392,118.599,110.904,118.614,110.089,115.943,115.006
80.642,84.166,94.768,91.005,93.772,91.046,95.22,94.782
64.049,64.673,73.323,73.675,69.958,74.628,74.428,76.024
65.731,56.06,65.786,66.335,61.766,67.365,63.601,66.933
73.113,62.643,69.344,68.313,66.666,69.054,64.559,68.368
79.428,73.349,76.306,74.668,74.953,75.424,73.624,76.384
88.7,77.259,82.595,81.504,81.936,82.573,84.186,85.718
93.906,76.377,84.35,84.935,84.266,86.698,88.298,90.735
84.185,75.74,80.006,82.247,80.205,85.123,84.365,88.622
68.209,72.417,73.612,74.54,73.847,78.088,76.134,80.685
63.45,66.102,70.928,67.861,71.503,70.831,67.89,72.538
69.938,65.627,72.857,68.024,73.791,69.938,64.948,70.535
74.251,71.541,72.61,70.454,73.259,72.17,65.951,71.52
68.727,69.657,62.453,63.47,62.237,65.659,60.398,63.708
56.678,55.43,46.616,47.57,45.285,49.539,46.512,45.844
48.721,45.509,40.026,39.083,37.872,39.983,37.838,34.14
51.688,51.407,47.601,45.703,45.74,46.146,42.964,39.064
57.788,60.61,55.105,53.021,54.466,54.068,51.677,47.813
52.982,53.413,46.499,44.255,46.959,45.744,47.216,41.526
37.87,32.23,25.702,24.1,26.865,25.369,27.459,21.509
29.126,22.677,13.6,13.397,15.308,14.551,8.926,7.247
32.653,33.618,17.592,18.664,19.523,20.174,4.303,8.011
31.44,38.927,18.693,20.913,20.503,22.764,3.432,8.962
10.198,16.963,-0.663,2.535,0.894,4.435,-11.622,-7.496
-21.683,-18.421,-31.782,-27.967,-30.703,-25.85,-38.664,-35.753
-41.703,-40.498,-51.142,-47.279,-50.435,-44.454,-55.787,-52.892
-41.757,-41.875,-48.44,-45.981,-47.213,-42.733,-51.386,-49.101
-31.916,-33.301,-36.448,-35.312,-34.24,-32.72,-39.121,-37.762
-24.361,-26.864,-33.181,-29.643,-30.834,-27.941,-36.431,-34.07
-23.375,-25.747,-39.805,-31.296,-38.271,-29.445,-42.077,-37.74
-23.525,-24.706,-42.669,-31.533,-41.791,-28.957,-42.335,-37.946
-20.261,-22.286,-35.879,-25.843,-34.769,-23.194,-33.151,-30.687
-22.454,-26.251,-31.691,-24.332,-29.9,-22.002,-28.369,-27.604
-40.011,-42.789,-44.134,-39.071,-42,-36.489,-42.422,-41.023
-63.219,-64.334,-67.222,-63.356,-65.043,-60.285,-67.648,-63.437
-72.279,-73.996,-79.818,-76.254,-77.565,-73.228,-80.098,-74.461
-65.221,-67.468,-75.245,-72.1,-73.23,-69.523,-72.841,-69.407
-59.028,-60.135,-69.395,-68.185,-67.975,-66.154,-64.845,-64.726
-65.385,-64.681,-74.907,-76.285,-73.492,-74.646,-70.143,-71.325
-76.8,-73.766,-84.155,-85.428,-82.156,-83.739,-79.296,-80.005
-75.405,-73.616,-82.553,-80.65,-80.811,-78.86,-77.364,-78.06
-56.056,-62.34,-68.491,-63.783,-67.884,-62.448,-64.704,-65.658
-36.369,-47.816,-54.177,-48.432,-53.888,-47.818,-54.642,-52.998
-34.357,-40.014,-51.299,-44.569,-50.274,-43.868,-56.906,-49.791
-41.248,-39.279,-55.677,-47.285,-54.423,-45.173,-62.056,-51.749
-32.829,-31.378,-49.066,-39.639,-48.337,-35.884,-49.285,-41.114
-7.274,-11.4,-26.646,-17.627,-25.909,-13.497,-19.966,-15.446
11.962,4.414,-8.53,-0.813,-7.36,2.431,-2.47,1.563
10.278,3.248,-9.874,-4.235,-8.864,-1.948,-11.015,-5.58
-1.565,-5.027,-17.403,-14.679,-16.721,-12.746,-24.891,-19.352
-3.479,-0.822,-10.642,-10.099,-9.721,-8.226,-19.215,-14.842
9.69,15.921,7.335,7.119,8.945,8.826,2.623,4.494
24.685,25.411,18.088,16.68,20.499,18.136,17.753,16.096
28.652,19.765,13.832,10.707,16.27,11.827,13.535,10.391
23.749,11.725,2.423,-1.586,3.618,-1.197,-0.879,-3.329
20.957,10.225,-4.472,-9.964,-4.322,-10.483,-9.564,-12.645
15.967,3.632,-11.056,-19.165,-10.484,-19.721,-15.953,-21.025
-21.846,-36.09,-47.885,-56.371,-46.443,-55.806,-51.327,-56.959
-120.792,-134.385,-146.615,-152.062,-145.047,-150.283,-147.392,-152.26
-267.489,-280.346,-294.97,-297.81,-293.657,-295.766,-294.117,-298.604
-408.08,-419.333,-433.361,-437.219,-431.836,-435.975,-434.699,-439.439
-487.58,-496.438,-505.778,-512.471,-503.502,-512.187,-511.056,-516.259
-482.872,-493.638,-498.49,-505.675,-495.75,-505.352,-504.721,-509.558
-416.991,-434.095,-438.417,-442.744,-436.205,-441.666,-441.642,-444.431
-342.604,-362.364,-369.048,-369.989,-368.317,-368.904,-369.561,-369.602
-293.735,-307.323,-317.897,-317.123,-319.113,-316.963,-320.67,-317.998
-267.416,-271.017,-287.087,-285.187,-289.854,-285.63,-295.305,-289.423
-248.491,-246.645,-267.373,-263.132,-270.776,-263.526,-278.119,-269.636
-227.972,-226.459,-247.122,-240.416,-250.535,-240.998,-255.944,-248.096
-201.266,-201.09,-216.942,-210.003,-220.088,-211.22,-222.275,-218.119
-165.587,-166.724,-177.027,-171.823,-179.971,-173.199,-179.832,-178.53
-129.091,-132.4,-140.2,-136.698,-143.254,-137.254,-143.866,-141.497
-106.966,-109.756,-118.518,-116.295,-121.657,-115.902,-126.967,-121.171
-95.289,-96.285,-106.371,-106.007,-109.255,-105.483,-118.204,-111.681
-74.413,-80.066,-90.196,-91.719,-92.469,-91.506,-98.552,-95.894
-45.095,-59.196,-70.062,-71.675,-71.63,-71.501,-71.583,-72.486
-28.26,-43.491,-56.608,-56.747,-57.955,-56.669,-54.954,-55.521
-27.635,-35.995,-51.339,-50.668,-52.744,-51.158,-50.731,-49.995
-26.004,-29.792,-45.303,-44.702,-46.572,-45.489,-46.71,-45.251
-16.866,-22.406,-35.019,-33.042,-36.367,-33.116,-37.192,-33.749
-9.32,-15.305,-24.221,-19.682,-25.642,-19.019,-24.808,-20.02
-6.453,-7.577,-15.242,-10.194,-16.059,-10.136,-13.042,-10.259
-4.187,-1.232,-9.791,-6.705,-9.971,-7.794,-6.038,-5.967
-3.311,-1.537,-9.382,-8.103,-9.439,-9.197,-5.613,-6.099
-4.405,-6.992,-10.563,-9.89,-10.253,-9.929,-6.712,-7.04
-1.196,-7.688,-7.428,-7.486,-6.06,-6.611,-3.258,-4.381
9.405,1.441,0.265,-1.039,2.415,0.051,3.398,1.819
21.622,14.811,8.235,7.194,9.714,7.889,9.497,8.994
29.714,24.756,14.601,15.309,14.651,15.23,15.519,15.7
35.673,29.542,20.875,21.276,20.707,20.431,22.677,21.479
47.052,36.29,30.593,28.852,31.439,27.606,32.537,30.438
64.804,51.685,44.94,43.717,45.997,42.582,46.113,46.365
78.326,70.104,57.678,59.594,57.686,59.095,58.481,61.523
81.185,80.903,62.471,66.224,62.159,66.493,64.677,66.721
80.723,81.743,63.505,67.894,64.787,68.65,68.671,68.467
82.52,77.482,67.249,73.824,70.616,75.095,74.811,76.459
81.409,72.092,69.779,78.967,73.853,80.829,78.033,83.802
76.058,67.713,66.061,75.089,69.451,76.753,74.014,80.572
73.253,67.214,60.053,66.957,62.485,67.379,66.708,71.364
75.734,71.707,56.574,62.579,58.451,61.632,60.273,64.829
79.203,76.677,53.878,61.025,55.327,59.249,54.005,61.122
77.514,74.097,46.917,56.052,47.319,53.693,44.899,54.764
67.888,61.356,35.824,45.864,35.125,42.69,33.881,43.899
53.164,46.506,27.463,36.314,27.07,32.514,27.108,34.319
42.543,42.577,27.913,35.273,28.44,31.799,28.697,33.537
46.162,53.028,36.401,43.657,36.393,41.089,36.169,41.477
58.012,63.202,43.937,51.85,42.586,50.085,42.106,48.764
60.835,59.558,43.317,51.925,41.914,50.877,41.898,48.596
54.864,50.242,39.534,48.212,39.052,47.345,38.994,44.574
55.012,48.922,40.11,47.126,39.948,45.26,38.383,41.903
61.79,52.918,42.93,47.231,42.688,43.958,39.92,40.262
60.774,51.235,41.121,43.933,41.415,40.082,38.978,36.497
48.994,43.156,34.518,37.532,35.609,33.692,32.838,30.076
39.402,37.539,29.101,32.152,30.323,28.066,24.522,23.571
39.027,36.64,25.762,27.645,26.501,23.248,16.122,16.596
41.437,32.473,19.548,19.666,19.903,15.205,5.611,5.902
36.282,18.658,7.97,6.108,8.39,1.261,-8.088,-8.878
18.835,-1.896,-6.506,-10.379,-5.959,-16.146,-22.818,-24.473
-1.669,-19.163,-18.398,-23.829,-18.081,-30.375,-34.178,-36.46
-9.573,-23.893,-22.594,-28.82,-22.545,-35.337,-38.001,-40.516
-4.934,-15.278,-18.252,-24.291,-18.148,-29.978,-33.294,-34.958
-1.094,-1.24,-9.506,-14.876,-9.148,-19.913,-23.695,-24.79
1.044,9.757,-0.813,-6.14,0.117,-11.381,-14.982,-16.738
8.196,14.636,4.587,-0.873,6.479,-6.191,-10.73,-12.548
13.674,14.542,3.552,-0.997,6.088,-5.469,-9.961,-11.923
14.131,14.969,1.025,-2.973,3.694,-6.509,-6.737,-11.076
22.978,22.149,8.478,2.212,11.728,-0.722,3.813,-2.214
44.024,34.54,25.62,15.499,30.045,13.507,19.142,14.862
60.733,44.942,40.017,28.042,45.385,27.045,33.264,30.704
62.808,51.436,47.632,36.527,53.753,35.689,44.826,41.289
61.752,59.182,57.257,47.528,64.174,46.612,57.968,53.271
71.479,70.758,72.929,64.027,79.893,63.827,74.578,70.265
91.531,85.044,89.804,82.103,95.765,82.728,92.415,88.449
113.063,101.87,104.748,98.769,109.742,99.035,108.812,104.519
127.331,118.008,116.347,111.615,120.914,110.676,119.937,116.161
135.773,131.459,126.213,122.129,130.103,120.442,127.277,125.062
150.669,147.912,141.747,138.531,144.61,136.969,141.146,139.822
175.896,169.195,164.87,162.854,167.211,162.011,164.758,163.633
197.674,185.422,184.585,183.461,187.119,183.762,185.576,185.602
202.795,188.572,189.76,188.892,192.657,190.391,191.521,193.051
199.218,186.035,185.674,183.881,188.691,185.976,187.217,188.313
202.602,189.851,186.588,182.621,189.675,184.385,186.446,184.937
208.559,197.848,193.516,188.101,196.896,189.128,192.319,188.496
201.733,196.794,193.509,188.879,197.091,189.583,193.136,189.517
187.013,186.053,184.762,181.894,188.301,182.461,184.807,183.082
192.363,190.624,190.403,188.836,193.733,188.649,188.92,188.863
232.552,229.688,227.182,226.478,229.59,225.168,223.241,224.195
277.909,274.452,267.351,266.688,268.21,264.71,261.389,261.96
280.618,274.063,265.553,263.199,265.619,261.115,258.272,256.641
238.707,229.291,225.81,220.52,226.177,218.421,217.411,213.437
210.9,202.397,205.705,197.807,206.583,195.539,196.967,191.054
243.516,235.296,239.191,230.088,240.633,227.809,231.427,223.203
302.043,290.512,288.14,279.541,290.093,277.651,280.921,271.644
317.227,303.207,295.474,287.886,297.077,286.385,286.741,279.04
283.279,268.562,261.266,253.13,261.616,251.593,249.641,243.83
255.868,240.8,235.088,225.713,234.216,223.805,220.717,215.433
264.32,251.79,243.46,234.745,242.107,232.334,227.685,222.637
282.743,272.088,259.834,252.711,258.613,250.015,244.444,239.645
278.591,262.29,249.611,242.555,248.482,240.218,234.512,230.444
248.371,226.213,215.651,207.981,214.538,206.139,198.207,197.168
213.407,196.104,188.229,181.212,187.491,179.064,168.091,170.891
193.988,185.978,182.443,176.724,182.112,173.806,164.281,167.041
187.887,182.133,183.65,177.848,183.533,174.531,171.936,169.535
180.784,172.302,175.642,167.897,176.082,164.418,169.882,161.348
169.165,160.421,161.548,151.771,162.632,148.085,157.838,146.864
161.143,154.464,152.132,142.163,153.199,138.536,146.829,137.974
161.375,155.607,150.139,141.786,150.818,138.696,141.58,137.304
165.48,160.622,152.367,145.946,152.918,143.493,140.648,140.512
167.114,164.316,154.471,149.239,155.206,146.93,141.061,142.199
165.134,160.945,151.031,146.554,152.046,143.953,137.787,138.159
162.979,151.291,141.683,137.876,143.001,135.251,129.031,129.6
159.373,139.657,131.064,126.75,132.973,124.384,118.937,119.562
148.314,127.23,121.071,114.451,123.751,111.788,110.606,107.564
130.151,115.743,111.204,102.321,114.17,98.778,102.275,94.108
110.104,104.723,99.901,91.135,102.641,87.023,90.225,81.062
90.409,89.75,84.776,79.32,87.118,75.451,73.704,68.199
71.151,72.318,66.963,66.555,68.812,63.643,55.829,55.102
57.161,62.131,54.261,57.062,55.899,55.153,43.002,45.428
59.176,66.678,56.293,58.874,57.782,57.271,43.534,47.48
77.589,80.078,70.623,71.953,71.011,70.397,56.522,61.695
91.205,84.885,78.505,79.426,77.406,78.64,65.477,71.019
77.558,69.402,64.399,65.225,63.192,65.917,54.798,59.264
44.966,43.577,37.585,38.508,37.528,40.51,30.907,35.55
26.297,29.919,22.224,24.062,22.905,26.419,15.824,23.321
30.625,32.992,24.102,27.182,24.621,28.853,17.121,26.359
29.994,31.273,23.279,26.839,23.457,27.332,17.462,24.527
6.089,8.159,4.031,7.431,3.885,6.845,0.101,4.4
-23.297,-22.557,-22.033,-18.57,-22.617,-19.853,-26.07,-21.461
-35.668,-37.028,-34.647,-30.66,-35.531,-32.079,-40.405,-34.288
-37.691,-37.695,-37.575,-32.99,-38.654,-33.8,-43.591,-38.393
-50.767,-46.586,-50.342,-45.894,-51.784,-45.775,-54.395,-52.252
-76.905,-69.919,-75.626,-72.534,-77.437,-72.13,-77.707,-77.889
-98.768,-91.887,-97.015,-95.755,-98.896,-95.758,-98.275,-98.935
-105.985,-100.172,-104.182,-104.286,-105.479,-104.517,-105.25,-105.898
-105.51,-101.61,-105.82,-106.633,-105.662,-106.665,-106.325,-108.142
-109.293,-108.98,-114.311,-115.343,-112.601,-115.347,-113.649,-117.326
-122.307,-122.901,-127.983,-128.894,-125.974,-129.476,-127.36,-131.297
-135.878,-130.393,-133.113,-133.407,-132.421,-134.877,-134.084,-136.651
-132.268,-118.269,-118.405,-117.821,-119.532,-119.975,-120.174,-122.244
-109.511,-91.996,-90.581,-90.571,-92.762,-93.187,-92.533,-95.575
-89.743,-74.79,-72.07,-75.218,-74.287,-78.299,-76.249,-79.889
-90.198,-80.376,-76.009,-82.907,-77.632,-86.437,-84.281,-87.37
-100.237,-94.78,-89.632,-97.858,-90.513,-101.587,-100.316,-103.137
-97.671,-93.927,-90.033,-96.647,-90.372,-99.977,-99.036,-102.677
-80.438,-76.367,-74.451,-78.6,-74.372,-80.911,-79.849,-84.01
-66.63,-62.817,-62.492,-65.687,-61.865,-67.088,-66.49,-70.202
-65.981,-63.74,-66.43,-70.518,-65.216,-71.791,-71.639,-75.396
-69.867,-67.706,-75.358,-80.358,-73.828,-82.014,-81.293,-86.299
-67.813,-62.507,-73.956,-78.561,-72.647,-80.506,-78.985,-85.364
-62.185,-53.379,-65.492,-69.006,-65.055,-70.916,-69.214,-76.422
-66.469,-56.085,-67.348,-69.9,-68.001,-71.29,-69.762,-77.159
-88.359,-76.599,-86.648,-88.851,-87.712,-89.152,-88.27,-95.017
-117.062,-104.007,-110.238,-113.535,-110.68,-112.717,-112.53,-118.413
-137.424,-125.805,-125.119,-130.181,-124.41,-128.893,-128.244,-133.3
-150.897,-142.638,-137.419,-142.291,-135.859,-140.987,-139.491,-143.081
-168.481,-161.36,-157.647,-160.515,-156.131,-159.293,-157.297,-160.314
-188.735,-181.758,-181.041,-183.481,-180.279,-182.969,-178.909,-184.309
-198.506,-195.892,-195.839,-199.651,-196.076,-200.44,-193.776,-201.497
-197.682,-199.556,-200.579,-204.204,-201.703,-205.598,-200.104,-206.167
-205.319,-203.31,-205.641,-207.384,-206.731,-208.465,-206.631,-209.502
-231.847,-222.231,-220.806,-221.965,-220.995,-223.015,-222.451,-224.535
-264.271,-253.474,-244.146,-246.436,-244.191,-248.033,-247.017,-250.14
-284.62,-276.875,-262.718,-265.976,-263.739,-267.895,-267.85,-271.92
-286.45,-278.45,-264.446,-268.311,-266.086,-269.9,-270.647,-275.808
-274.376,-263.098,-250.212,-255.281,-251.764,-256.095,-254.688,-261.969
-258.869,-246.083,-233.224,-239.89,-234.796,-239.98,-235.316,-244.43
-249.548,-239.213,-226.346,-234.829,-227.887,-234.625,-228.292,-236.792
-246.204,-240.175,-228.65,-239.484,-229.654,-239.314,-232.106,-238.124
-239.302,-236.695,-227.45,-240.902,-227.867,-241.013,-232.172,-236.408
-224.52,-224.929,-216.859,-232.831,-217.013,-233.768,-222.416,-226.942
-210.215,-213.125,-205.454,-222.536,-205.799,-224.719,-211.095,-217.021
-204.154,-206.342,-200.393,-214.897,-201.726,-217.996,-204.545,-211.194
-198.999,-197.484,-193.756,-201.918,-196.415,-205.027,-195.673,-201.446
-183.235,-177.988,-175.471,-176.287,-178.843,-178.395,-175.959,-178.902
-160.852,-152.175,-150.579,-146.499,-154.104,-147.299,-151.152,-149.973
-144.3,-132.358,-131.217,-126.759,-134.719,-127.201,-133.372,-129.836
-137.852,-124.935,-122.053,-120.467,-125.156,-121.549,-126.174,-124.343
-135.819,-125.007,-117.801,-119.46,-119.963,-121,-122.667,-124.444
-128.021,-120.794,-109.1,-113.559,-110.343,-115.014,-113.926,-117.975
-109.882,-106.645,-94.192,-100.839,-95.587,-102.251,-100.2,-104.531
-88.989,-89.355,-81.269,-87.717,-83.835,-89.113,-88.502,-91.552
-77.554,-78.054,-77.384,-80.358,-80.6,-81.136,-81.734,-83.03
-77.991,-72.672,-79.731,-77.781,-82.522,-77.633,-77.448,-78.436
-79.532,-66.197,-78.4,-72.724,-80.629,-72.513,-71.72,-74.465
-74.843,-57.114,-69.356,-62.448,-70.968,-63.007,-63.302,-69.386
-70.219,-51.497,-59.16,-52.805,-59.636,-53.498,-54.939,-65.16
-71.182,-52.233,-54.022,-48.627,-53.627,-48.341,-50.398,-63.003
-70.987,-54.031,-52.3,-48.021,-52.337,-46.86,-51.696,-61.839
-61.154,-49.651,-47.751,-45.427,-49.165,-44.229,-54.228,-58.273
-45.282,-38.715,-37.746,-38.457,-40.189,-37.59,-48.72,-49.938
-33.256,-27.791,-28.663,-32.662,-30.994,-32.258,-36.689,-42.503
-27.603,-22.396,-28.827,-35.147,-30.065,-35.309,-31.19,-44.091
-24.852,-22.231,-36.095,-43.259,-36.224,-43.414,-35.576,-51.974
-25.465,-24.982,-41.937,-48.433,-42.192,-47.777,-41.807,-57.141
-35.11,-32.404,-46.214,-50.751,-47.659,-49.399,-48.099,-59.259
-54.206,-45.911,-54.39,-56.752,-56.294,-55.449,-57.249,-64.32
-72.484,-58.812,-64.238,-65.49,-65.102,-64.491,-65.319,-72.213
-78.407,-62.291,-66.229,-68.37,-65.81,-67.448,-64.125,-75.411
-71.31,-57.225,-56.574,-61.785,-55.872,-61.211,-52.912,-69.425
-63.064,-52.634,-44.682,-52.654,-44.669,-53.01,-42.857,-59.982
-63.965,-54.268,-41.951,-48.954,-43.026,-49.618,-43.745,-55.605
-72.562,-61.883,-49.002,-51.94,-51.199,-51.516,-53.278,-58.851
-82.216,-71.629,-58.832,-58.177,-61.829,-56.753,-63.396,-66.326
-86.233,-77.115,-65.227,-63.045,-68.273,-61.888,-68.365,-72.334
-80.285,-74.385,-65.796,-63.16,-68.202,-62.596,-67.946,-73.241
-69.218,-65.725,-61.79,-57.944,-63.562,-57.246,-65.423,-68.898
-65.454,-59.382,-58.84,-52.168,-60.598,-50.622,-63.357,-63.14
-72.645,-61.045,-61.407,-51.83,-63.395,-49.291,-62.586,-60.901
-81.103,-66.203,-66.759,-55.762,-68.359,-52.861,-63.561,-62.764
-85.155,-70.303,-71.936,-60.054,-72.856,-57.436,-66.562,-66.727
-87.745,-74.852,-76.833,-63.861,-77.696,-61.201,-69.515,-70.241
-91.606,-80.224,-79.674,-66.592,-80.704,-63.295,-70.268,-70.982
-98.762,-85.847,-79.923,-68.008,-80.593,-64.339,-70.59,-70.587
-109.002,-93.489,-81.152,-70.609,-81.591,-67.242,-73.513,-73.582
-117.054,-103.015,-85.512,-76.328,-86.547,-73.389,-79.291,-81.053
-118.114,-109.563,-89.408,-82.006,-91.149,-79.229,-85.439,-88.449
-116.454,-111.948,-91.534,-86.021,-93.567,-83.413,-92.028,-94.068
-123.575,-118.186,-99.53,-95.065,-101.935,-92.955,-103.914,-104.659
-144.603,-135.14,-119.922,-115.387,-122.679,-113.966,-124.193,-126.074
-172.191,-159.293,-147.688,-143.322,-150.075,-142.564,-149.74,-154.351
-194.833,-181.217,-171.09,-168.737,-172.484,-168.768,-173.563,-179.384
-206.792,-195.36,-184.426,-185.27,-184.906,-186.232,-190.137,-195.059
-211.279,-202.872,-191.327,-194.117,-191.521,-195.698,-197.947,-202.588
-215.819,-207.271,-196.726,-199.371,-197.276,-201.108,-198.977,-205.876
-221.138,-210.687,-201.11,-203.613,-202.117,-205.451,-198.468,-207.944
-218.535,-212.167,-200.864,-204.991,-202.127,-207.353,-199.372,-208.421
-207.546,-210.689,-195.121,-201.056,-196.566,-204.421,-199.161,-205.791
-201.552,-208.473,-190.322,-195.605,-191.722,-199.547,-196.963,-202.123
-204.666,-206.861,-189.693,-192.309,-190.32,-195.384,-194.232,-198.67
-204.87,-202.283,-185.408,-185.846,-184.397,-187.086,-187.04,-190.601
-194.788,-190.669,-171.521,-170.59,-168.886,-170.169,-170.177,-174.112
-179.881,-175.608,-155.337,-152.798,-152.039,-151.119,-149.142,-155.072
-166.473,-165.344,-146.007,-142.664,-142.416,-139.921,-134.8,-141.941
-156.11,-160.433,-141.85,-139.802,-137.333,-136.15,-127.713,-134.697
-147.965,-152.219,-134.554,-134.261,-128.793,-129.762,-118.556,-125.778
-135.924,-132.599,-116.701,-116.705,-110.117,-111.507,-99.15,-106.845
-114.162,-104.107,-88.627,-88.892,-81.696,-83.7,-70.81,-78.734
-88.391,-79.524,-60.738,-63.258,-53.901,-59.099,-44.43,-53.199
-67.524,-65.677,-41.151,-46.359,-35.161,-43.498,-27.108,-36.835
-51.19,-54.625,-26.35,-32.183,-21.716,-29.813,-13.666,-23.835
-36.096,-38.722,-10.907,-16.073,-7.109,-13.477,1.633,-9.288
-24.82,-24.115,2.143,-3.009,5.949,-0.183,14.314,2.708
-18.615,-18.282,9.383,3.602,13.265,6.75,19.288,8.999
-10.834,-15.414,15.18,9.13,18.88,13.111,20.706,14.331
1.759,-7.654,22.155,16.301,26.067,21.19,23.526,21.299
11.763,2.31,26.62,20.898,31.28,26.078,26.987,26.161
13.896,9.47,27.466,21.922,32.459,26.808,29.665,27.943
14.716,15.874,29.161,24.404,33.861,28.579,32.898,30.675
21.294,24.626,34.463,31.352,39.285,34.262,38.646,36.412
31.101,33.48,40.582,40.004,45.91,41.304,46.238,43.131
41.831,41.63,46.456,48.47,51.318,48.532,53.583,50.419
55.897,51.947,54.863,57.544,58.286,57.022,60.205,59.392
72.414,65.914,66.856,67.749,69.357,66.705,68.409,69.915
87.501,82.668,81.036,80.163,83.358,78.187,80.329,82.209
99.976,98.958,94.743,94.202,96.719,91.378,93.741,95.535
112.303,113.731,107.622,108.84,109.105,106.016,107.32,109.607
125.438,129.027,121.696,125.212,122.703,123.205,123.042,125.524
137.859,144.123,135.848,142.298,135.924,141.387,138.07,141.278
151.131,157.407,146.672,156.362,145.696,156.718,146.285,153.543
168.662,169.973,154.744,166.735,153.477,168.528,150.552,163.478
192.054,184.841,167.894,179.823,166.953,182.512,162.975,177.583
216.017,202.625,189.86,199.822,189.091,202.118,185.716,198.225
227.862,219.123,210.175,218.8,209.234,219.867,205.718,217.062
227.171,232.418,221.249,230.121,219.9,230.121,217.239,228.384
231.345,245.111,230.515,239.22,228.296,238.312,228.138,237.62
247.378,256.442,243.437,249.931,240.083,247.739,241.034,248.691
262.616,260.817,252.942,256.381,249.111,253.047,248.428,256.689
268.466,255.965,253.294,255.343,249.812,252.233,247.482,258.136
265.929,246.456,248.588,252.089,245.329,250.635,244.016,256.733
253.812,237.037,242.698,249.69,239.178,250.075,240.239,255.085
236.134,229.117,235.466,246.041,231.91,247.421,234.112,251.437
226.285,223.921,228.392,240.756,225.259,241.932,228.231,244.939
230.158,223.562,225.277,236.224,222.336,236.046,226.938,238.468
238.411,225.9,226.063,231.98,222.896,230.041,226.655,233.696
236.921,222.005,221.674,221.825,218.652,218.972,217.72,225.056
222.295,209.744,206.902,204.931,204.745,202.427,200.812,210.276
208.281,201.599,194.102,193.028,192.813,191.056,189.191,199.923
212.383,207.845,198.498,196.483,197.318,194.092,191.703,204.006
235.69,224.24,218.321,212.193,216.909,208.633,207.261,219.554
259.655,238.83,238.393,228.511,237.533,223.897,228.677,235.521
266.183,243.622,247.007,236.94,246.937,231.821,243.744,243.78
255.895,239.633,243.61,236.723,242.75,231.747,243.219,243.088
239.383,230.107,233.901,230.959,231.09,226.906,231.537,236.061
221.681,215.585,223.336,223.439,219.465,220.899,221.098,227.128
206.178,199.997,214.48,217.277,210.663,216.005,215.72,219.728
198.738,190.512,208.329,213.694,204.544,212.856,209.709,214.124
197.571,187.28,203.875,211.017,200.079,210.291,200.33,208.903
195.542,184.954,198.393,206.882,195.112,206.7,192.137,203.872
193.071,185.045,193.647,203.051,191.025,203.524,189.888,201.446
193.489,191.977,195.306,203.076,193.222,203.246,192.371,202.741
194.583,199.14,202.748,206.171,201.534,205.016,196.36,205.38
192.324,196.967,207.478,207.89,207.198,205.676,200.494,207.41
188.488,190.993,206.31,207.215,206.357,204.977,204.453,210.15
192.076,193.847,207.845,209.863,207.753,208.003,211.42,217.092
207.145,206.57,219.704,220.979,219.454,219.202,226.065,230.907
224.411,221.235,237.265,237.548,237.014,235.816,245.537,249.352
232.875,232.29,249.831,251.133,249.752,249.916,259.327,263.505
233.6,240.601,255.287,258.773,255.532,258.589,263.202,268.466
235.762,250.844,261.504,266.081,262.034,267.149,266.277,271.789
242.969,263.435,272.025,276.105,272.473,278.243,277.276,280.753
251.968,274.007,283.557,286.206,283.719,289.356,293.015,293.555
261.01,281.74,294.945,295.178,295.669,299.559,305.473,305.674
272.285,290.959,306.701,304.256,308.921,308.976,313.712,315.216
287.036,304.366,317.602,314.82,319.915,317.944,323.828,325.046
300.943,319.022,328.49,327.358,328.622,328.38,338.38,339.242
311.319,332.086,343.897,342.273,342.266,342.227,354.789,357.26
322.229,343.764,362.868,358.589,361.111,358.009,370.879,374.264
332.041,350.566,375.55,371.41,373.831,370.705,383.254,385.411
330.64,346.466,375.105,376.301,373.343,376.778,387.1,388.966
316.875,334.05,364.705,373.854,363.378,376.378,381.417,385.837
301.97,323.101,350.491,366.065,349.44,370.185,369.074,377.506
291.003,315.215,333.925,352.079,332.659,357.182,352.652,364.126
279.936,304.501,315.94,333.091,315.097,339.143,334.714,346.999
270.691,291.194,301.422,315.31,302.254,322.31,317.556,330.657
268.649,280.68,291.617,302.321,293.441,309.624,301.712,317.392
270.153,276.888,282.659,293.511,282.563,299.987,289.721,306.844
264.602,277.338,273.269,287.576,269.943,292.78,283.981,299.749
248.123,271.958,265.123,281.921,260.705,286.475,281.049,295.264
231.546,256.945,260.027,274.752,256.645,279.126,276.44,289.902
225.653,242.209,258.349,266.819,255.727,270.805,269.931,281.736
225.663,236.213,256.95,259.608,254.242,263.381,264.48,273.349
222.733,234.928,251.771,253.319,249.227,257.788,262.133,267.453
216.459,231.727,243.798,246.965,242.161,252.657,260.752,262.585
206.985,225.401,235.867,239.388,235.702,246.139,255.597,256.32
191.415,214.636,225.514,228.749,227.127,236.835,244.231,247.287
174.606,200.13,211.285,216.334,213.85,226.623,230.848,236.242
168.273,188.174,198.283,207.512,199.647,219.896,220.788,226.8
174.033,181.937,190.459,203.708,189.383,216.45,213.283,221.229
178.587,177.965,185.215,199.967,182.864,211.481,205.219,216.846
171.495,173.587,178.879,193.013,177.036,203.535,196.387,210.49
159.436,171.499,175.2,187.939,174.335,198.335,191.572,206.33
153.82,171.519,179.155,189.265,178.926,199.03,194.331,207.95
153.916,168.375,184.604,190.966,184.591,198.854,197.958,208.012
151.692,163.353,182.614,187.461,182.077,193.3,193.926,200.929
145.397,160.898,175.741,183.31,174.222,187.936,185.007,192.83
141.974,159.788,172.449,183.195,170.658,187.538,179.955,189.946
144.772,158.222,173.524,183.151,172.924,188.229,179.854,189.443
146.722,156.15,172.654,178.42,174.026,185.099,178.558,186.241
143.068,152.627,166.408,171.468,168.502,179.774,173.568,180.946
141.115,149.244,159.501,167.363,160.398,176.621,169.659,178.14
149.318,151.832,160.222,168.384,160.216,177.779,172.304,180.923
158.942,158.445,164.167,169.568,164.703,178.442,175.965,183.657
150.698,155.776,154.012,159.736,154.8,167.844,166.337,174.074
124.898,138.393,127.259,137.056,127.142,144.7,142.068,151.274
103.31,116.874,103.097,114.952,102.312,122.604,119.744,129.856
99.83,104.636,95.903,105.729,95.569,113.243,111.696,120.54
106.309,103.381,99.079,106.024,99.266,112.818,112.047,118.35
106.189,100.752,97.408,102.619,97.414,109.098,107.894,112.67
97.203,89.831,87.666,90.828,87.788,98.105,95.333,101.071
92.519,81.648,79.636,79.548,80.476,87.371,82.294,90.171
99.802,84.656,80.052,78.029,80.569,85.261,80.164,88.396
112.674,90.383,85.833,84.885,84.813,91.729,90.177,96.975
119.494,91.15,89.745,90.084,88.302,97.351,99.879,105.264
114.703,90.195,85.862,85.548,85.441,92.761,97.437,100.985
107.344,91.381,76.693,75.345,76.65,81.337,85.794,87.037
112.06,97.485,74.046,72.61,73.434,76.967,78.841,79.89
126.33,105.79,80.519,79.484,79.504,82.464,81.01,84.921
133.022,104.352,83.515,82.573,82.366,84.336,81.47,88.44
126.498,91.069,76.581,75.636,75.094,76.476,73.862,81.58
116.491,77.443,66.402,65.895,64.191,66.682,63.597,70.443
109.847,68.519,59.692,58.465,57.077,59.765,55.718,61.414
102.753,61.097,56.228,51.745,54.018,53.16,49.579,53.995
91.785,56.085,53.031,45.568,50.387,46.682,44.11,47.806
80.219,54.74,48.166,40.968,43.404,42.263,39.591,43.465
66.4,48.703,37.455,32.762,31.697,35.285,32.612,36.229
48.244,34.309,21.979,20.301,18.074,24.63,21.923,25.728
37.269,25.491,14.584,15.208,12.966,20.628,15.852,22.448
40.862,30.211,20.259,20.659,19.363,25.638,19.067,28.537
46.973,34.642,25.922,23.953,25.021,27.721,22.568,31.227
42.051,26.685,20.059,16.425,19.721,19.2,16.125,22.134
27.112,11.759,6.002,2.93,6.747,4.812,1.913,7.703
12.535,0.454,-6.199,-6.782,-5.282,-5.681,-8.763,-0.962
6.488,-0.833,-8.808,-6.804,-8.964,-6.012,-7.963,0.217
7.504,5.641,-1.978,0.116,-2.621,0.691,0.534,6.579
5.292,7.495,2.506,3.215,2.658,3.444,3.952,9.016
-4.093,0.223,-3.029,-2.426,-2.099,-2.199,-2.74,4.268
-10.068,-3.588,-7.957,-8.099,-7.053,-7.607,-8.997,-0.804
-7.382,2.292,-3.27,-7.528,-2.811,-7.053,-6.817,-1.994
-8.253,3.652,0.813,-8.368,0.724,-8.295,-4.621,-5.634
-21.009,-9.908,-6.874,-17.63,-7.971,-18.041,-12.723,-16.205
-33.97,-24.88,-18.894,-27.649,-21.347,-28.046,-25.156,-26.019
-38.256,-31.128,-25.658,-32.285,-28.476,-31.671,-32.509,-30.392
-47.573,-43.335,-35.517,-42.114,-36.543,-39.969,-41.135,-39.661
-71.616,-69.043,-56.63,-63.937,-54.424,-60.892,-58.43,-59.576
-97.133,-92.746,-79.456,-87.375,-74.756,-84.478,-77.705,-80.64
-114.889,-105.859,-96.277,-104.949,-91.507,-102.856,-94.359,-97.883
-132.923,-118.237,-115.325,-122.914,-112.655,-122.067,-115.688,-118.729
-155.178,-137.349,-141.42,-145.116,-140.846,-145.693,-143.342,-144.548
-177.24,-159.811,-166.747,-166.08,-166.763,-167.167,-168.148,-166.053
-199.872,-182.985,-187.353,-183.971,-187.575,-184.074,-187.425,-181.716
-224.437,-205.875,-204.972,-201.814,-205.897,-200.934,-205.024,-199.124
-245.722,-224.316,-219.002,-219.243,-219.856,-218.96,-220.445,-220
-257.188,-237.045,-229.168,-233.063,-228.945,-234.133,-231.896,-237.305
-257.906,-246.552,-236.614,-240.865,-235.863,-242.402,-240.265,-244.698
-258.543,-255.422,-244.55,-246.133,-244.064,-247.477,-248.72,-247.788
-271.276,-265.627,-256.868,-255.71,-256.679,-257.35,-259.441,-257.405
-288.823,-273.134,-269.158,-266.576,-269.198,-268.631,-268.151,-269.687
-290.261,-268.392,-269.453,-266.426,-269.558,-268.07,-267.087,-269.856
-271.143,-250.503,-254.5,-251.639,-254.599,-252.703,-254.353,-255.22
-251.828,-233.295,-236.752,-234.158,-237.169,-235.53,-237.73,-239.148
-250.297,-228.838,-229.041,-227.096,-229.802,-229.198,-228.685,-233.483
-262.024,-234.436,-231.087,-230.95,-231.758,-232.805,-230.828,-236.399
-270.439,-240.63,-233.8,-235.002,-234.189,-235.041,-234.17,-236.171
-264.913,-241.063,-229.999,-230.542,-230.365,-228.535,-227.01,-225.933
-250.386,-237.345,-222.523,-223.035,-222.857,-220.421,-213.288,-214.155
-242.691,-237.742,-220.499,-223.469,-219.858,-221.001,-205.786,-211.75
-248.936,-244.652,-225.683,-230.799,-222.91,-227.654,-206.717,-216.263
-257.536,-249.021,-230.218,-235.045,-225.479,-231.198,-209.242,-219.532
-255.675,-243.693,-228.505,-232.186,-223.682,-229.226,-209.627,-219.278
-244.905,-233.028,-222.404,-225.152,-219.675,-223.768,-207.169,-215.749
-231.244,-221.869,-213.813,-214.403,-213.302,-213.636,-199.547,-206.432
-216.62,-207.989,-201.715,-198.839,-201.393,-198.392,-186.662,-191.463
-201.073,-189.927,-185.865,-180.878,-184.911,-181.497,-172.416,-175.464
-183.534,-170.958,-168.156,-164.083,-167.908,-165.776,-158.863,-161.183
-165.475,-156.314,-152.993,-151.552,-153.679,-153.733,-146.784,-150.247
-152.499,-149.261,-143.986,-144.54,-144.423,-146.959,-139.051,-144.314
-151.104,-149.594,-142.717,-143.215,-143.224,-145.539,-139.089,-143.793
-160.917,-154.278,-148.873,-147.522,-150.484,-149.494,-145.578,-147.884
-170.75,-157.583,-155.074,-152.291,-156.941,-154.516,-149.514,-151.813
-173.263,-157.587,-155.342,-153.636,-155.741,-156.999,-147.363,-153.254
-172.959,-160.506,-156.741,-157.887,-154.893,-162.525,-149.605,-158.79
-173.362,-170.062,-166.15,-168.813,-162.713,-174.124,-162.115,-170.774
-172.687,-178.251,-176.355,-176.767,-173.695,-181.853,-173.267,-178.581
-171.97,-175.806,-176.936,-173.133,-176.601,-177.307,-171.442,-173.939
-175.902,-169.46,-171.965,-166.05,-172.04,-169.322,-163.951,-165.432
-185.775,-175.605,-175.756,-170.664,-173.838,-173.744,-166.435,-168.308
-197.072,-194.764,-190.587,-187.67,-187.178,-191.475,-180.107,-184.454
-203.748,-209.045,-201.738,-201.296,-198.646,-206.048,-191.124,-199.18
-201.452,-205.628,-196.306,-198.199,-194.087,-203.15,-188.083,-197.612
-190.183,-189.408,-178.293,-182.293,-176.512,-186.858,-173.837,-181.693
-176.848,-175.094,-163.69,-168.828,-162.475,-173.229,-161.891,-166.99
-169.135,-171.159,-161.078,-165.74,-160.582,-170.384,-160.683,-163.313
-163.801,-169.859,-161.446,-165.464,-160.482,-170.663,-162.972,-164.769
-150.703,-158.668,-153.567,-157.691,-151.588,-163.491,-157.26,-160.469
-132.878,-139.635,-141.144,-144.184,-140.074,-149.955,-144.799,-149.44
-126.347,-126.053,-133.909,-134.07,-134.881,-139.102,-134.841,-139.304
-133.516,-123.242,-131.833,-130.245,-132.876,-134.708,-129.949,-133.958
-136.067,-122.75,-127.753,-127.219,-127.076,-131.861,-125.14,-129.272
-122.372,-115.015,-118.674,-120.096,-116.992,-125.15,-117.632,-121.204
-103.2,-101.353,-108.378,-110.556,-107.063,-115.379,-109.934,-111.976
-90.262,-88.912,-98.715,-100.647,-98.312,-104.465,-101.876,-102.913
-81.209,-80.228,-87.489,-89.489,-87.825,-92.205,-90.083,-91.809
-72.801,-73.138,-76.571,-79.091,-76.918,-81.319,-76.869,-81.07
-66.791,-65.456,-69.743,-72.406,-69.656,-74.997,-68.894,-75.426
-63.41,-59.017,-66.265,-69.033,-66.344,-72.34,-68.184,-74.558
-59.148,-57.193,-63.721,-67.507,-64.401,-70.85,-70.091,-74.576
-50.898,-58.727,-61.995,-66.886,-62.205,-69.243,-69.952,-72.773
-44.61,-61.785,-62.918,-68.118,-61.69,-69.598,-68.149,-70.88
-51.569,-68.415,-69.162,-75.161,-67.622,-77.062,-69.088,-74.743
-69.371,-77.262,-80.401,-88.123,-79.746,-91.313,-76.317,-85.961
-79.232,-80.926,-88.355,-97.17,-87.634,-101.247,-84.923,-94.915
-72.063,-77.801,-86.741,-95.699,-84.891,-99.821,-86.972,-94.009
-62.257,-76.054,-82.939,-92.402,-80.267,-95.991,-84.877,-90.948
-63.638,-81.481,-85.837,-96.794,-82.375,-99.6,-86.147,-94.652
-70.269,-90.301,-91.539,-104.426,-86.749,-106.668,-91.21,-100.824
-71.18,-94.142,-91.791,-105.76,-86.326,-108.012,-94.554,-101.49
-68.519,-90.492,-88.211,-100.8,-84.086,-103.488,-93.416,-97.584
-70.811,-85.616,-86.827,-96.069,-84.86,-99.164,-91.064,-94.118
-77.461,-85.387,-87.06,-93.896,-85.485,-96.823,-90.964,-92.042
-82.142,-88.952,-87.112,-93.028,-84.326,-95.001,-91.658,-91.036
-81.529,-89.058,-86.71,-90.868,-83.655,-91.94,-88.809,-89.957
-73.741,-79.825,-83.847,-85.215,-82.063,-86.541,-82.83,-86.387
-59.41,-65.69,-78.42,-77.989,-77.513,-80.348,-78.523,-80.966
-44.8,-55.056,-71.936,-70.905,-70.371,-73.875,-74.97,-74.9
-35.903,-49.383,-64.779,-62.874,-62.151,-65.845,-67.933,-67.411
-29.558,-43.774,-57.006,-54.244,-54.288,-57.261,-58.7,-59.5
-21.947,-37.563,-49.932,-48.539,-47.84,-51.808,-52.462,-55.132
-20.522,-37.314,-46.684,-49.03,-44.861,-52.03,-52.295,-56.55
-29.49,-43.076,-47.759,-53.516,-45.255,-55.25,-55.695,-60.212
-37.836,-45.587,-49.45,-56.269,-45.621,-56.594,-57.601,-61.374
-35.074,-39.932,-49.015,-54.031,-44.799,-53.966,-55.607,-58.854
-25.797,-32.112,-48.329,-49.713,-45.504,-50.199,-52.621,-55.289
-22.455,-33.57,-51.102,-50.321,-49.311,-51.485,-54.287,-55.899
-29.243,-46.972,-57.171,-57.286,-54.46,-59.27,-61.056,-62.216
-40.146,-61.424,-64.375,-65.69,-60.591,-69.105,-68.921,-70.834
-52.132,-69.864,-74.133,-74.753,-70.4,-79.399,-78.039,-80.932
-70.247,-79.772,-89.382,-89.174,-85.485,-93.684,-92.348,-96.108
-93.964,-96.821,-108.022,-108.531,-103.375,-112.065,-110.136,-115.927
-112.196,-114.812,-124.363,-125.83,-119.91,-128.664,-125.346,-133.213
-121.702,-130.025,-137.48,-139.163,-134.106,-141.575,-138.847,-144.946
-131.37,-144.11,-149.146,-151.171,-145.992,-152.979,-152.822,-154.299
-143.637,-154.035,-158.795,-161.214,-155.359,-162.284,-163.959,-162.863
-152.391,-158.727,-168.699,-170.174,-166.353,-170.582,-175.082,-172.478
-158.982,-167.32,-183.737,-183.231,-182.893,-182.998,-193.452,-187.167
-170.746,-186.032,-202.813,-201.716,-201.361,-200.968,-215.62,-206.803
-184.978,-205.492,-218.621,-218.436,-215.661,-217.717,-231.582,-224.255
-195.203,-216.123,-227.374,-227.238,-224.769,-227.064,-239.145,-234.021
-203.989,-221.966,-232.027,-231.398,-230.511,-231.652,-242.456,-238.972
-211.94,-226.925,-235.558,-235.704,-234.004,-236.132,-243.94,-243.663
-214.087,-228.596,-238.994,-240.631,-237.389,-241.402,-246.289,-249.083
-212.651,-229.028,-242.905,-245.52,-242.059,-246.756,-251.578,-254.164
-214.504,-233.712,-246.729,-249.488,-246.539,-251.066,-257.111,-257.443
-219.934,-241.252,-249.688,-251.059,-249.549,-252.74,-259.733,-258.27
-225.363,-245.993,-252.585,-250.687,-252.099,-251.974,-259.815,-257.602
-231.69,-249.067,-257.972,-253.426,-256.683,-254.155,-261.378,-259.99
-240.712,-254.445,-265.792,-262.791,-263.202,-263.818,-267.623,-269.435
-247.895,-259.695,-272.268,-273.807,-268.993,-276.194,-275.534,-281.409
-246.475,-260.224,-274.209,-278.124,-272.025,-281.874,-279.714,-286.18
-236.518,-254.572,-268.906,-272.365,-268.465,-276.569,-277.228,-279.946
-223.843,-244.007,-256.264,-260.59,-256.537,-264.614,-267.937,-268.611
-212.619,-232.257,-241.825,-249.023,-241.889,-252.85,-254.798,-258.41
-206.452,-223.028,-231.026,-239.592,-230.325,-243.375,-242.246,-249.028
-206.161,-215.245,-223.575,-230.522,-221.771,-234.486,-231.653,-238.781
-203.209,-205.458,-215.518,-219.961,-213.256,-224.266,-220.009,-227.64
-189.504,-192.939,-203.596,-206.471,-201.815,-210.849,-204.438,-214.086
-167.275,-175.983,-185.193,-186.806,-183.973,-190.806,-184.028,-194.14
-144.048,-154.426,-160.109,-160.624,-158.761,-164.217,-160.124,-167.675
-124.852,-135.121,-134.452,-135.547,-132.015,-139.058,-137.412,-142.212
-109.225,-120.99,-116.239,-118.245,-112.984,-121.843,-119.897,-124.162
-96.598,-107.89,-108.452,-107.891,-106.615,-111.461,-108.441,-113.266
-88.368,-96.006,-105.968,-100.934,-106.535,-104.239,-101.473,-106.295
-82.158,-86.665,-99.535,-94.031,-100.402,-96.892,-94.905,-99.488
-71.931,-73.669,-85.384,-83.623,-85.105,-86.224,-84.728,-89.94
-54.89,-53.452,-67.549,-68.271,-67.398,-71.141,-71.368,-77.455
-37.504,-36.042,-53.008,-52.574,-53.878,-55.815,-60.495,-65.085
-29.127,-31.25,-46.107,-43.879,-46.826,-46.821,-56.078,-56.836
-28.799,-34.143,-45.782,-43.991,-45.134,-45.957,-55.29,-54.312
