EEG 1,EEG 2,EEG 3,EEG 4,EEG 5,EEG 6,EEG 7,EEG 8
31.101,18.554,-1.527,10.874,-1.011,11.867,8.739,9.112
24.859,13.696,-7.302,4.709,-7.304,5.856,0.585,1.208
21.144,13.225,-2.702,6.886,-2.634,8.231,3.958,2.998
14.807,14.086,2.193,8.8,2.597,10.031,6.71,3.396
5.667,10.352,-0.493,2.733,0.416,3.399,2.132,-3.487
-0.244,2.514,-6.491,-7.202,-5.129,-7.346,-6.092,-12.295
1.471,-0.542,-7.45,-10.882,-6.026,-11.768,-11.509,-15.688
7.001,4.51,-2.33,-5.147,-1.179,-6.183,-9.626,-11.769
8.331,6.755,0.156,0.018,1.009,-0.699,-5.187,-8.614
5.011,-1.124,-5.905,-4.084,-5.349,-4.715,-6.513,-12.892
5.094,-7.004,-11.008,-8.561,-10.761,-9.329,-8.437,-15.215
12.735,1.337,-3.819,-2.033,-3.424,-2.979,-0.125,-6.367
22.095,14.737,9.372,9.118,10.329,7.83,13.184,4.774
27.529,18.802,16.277,13.869,17.415,12.357,18.668,8.388
30.115,15.586,16.886,13.1,17.848,11.505,16.401,7.585
31.918,16.323,18.911,14.283,20.008,12.292,16.817,9.323
33.37,23.088,24.897,20.608,26.498,18.314,24.792,16.04
34.851,28.267,29.835,27.446,32.104,25.834,33.559,23.94
36.413,29.711,30.303,29.847,33.215,29.664,35.669,28.065
37.466,31.809,28.555,28.725,31.845,29.654,32.249,27.757
37.338,33.469,26.543,26.635,30.07,27.934,28.944,25.233
32.941,27.5,19.863,20.427,23.462,21.872,24.965,19.328
18.851,9.979,1.458,2.974,4.651,4.634,10.314,3.908
-1.526,-10.737,-22.485,-20.648,-19.748,-19.193,-14.275,-18.328
-12.821,-18.955,-32.542,-30.935,-29.986,-30.38,-28.458,-30.759
-6.95,-11.7,-21.918,-19.551,-19.806,-19.94,-20.559,-23.971
3.898,-3.523,-6.401,-1.771,-4.982,-2.475,-5.437,-9.37
4.496,-4.602,-0.825,5.66,0.057,5,-0.905,-2.694
-2.414,-7.551,-1.49,4.589,-1.108,3.792,-4.174,-3.806
-5.852,-5.436,-0.562,3.405,-0.478,2.273,-4.65,-4.197
-6.129,-5.095,0.229,1.253,0.532,-0.276,-2.579,-4.033
-9.748,-12.506,-2.428,-5.324,-1.73,-7.102,-3.385,-8.149
-14.555,-21.59,-6.457,-12.948,-5.529,-14.684,-7.593,-14.621
-12.798,-21.8,-5.862,-12.756,-4.755,-14.479,-9.061,-14.387
-6.897,-12.316,0.985,-2.487,2.226,-4.218,-2.544,-3.688
-7.93,-5.743,4.199,5.344,5.476,4.11,5.13,5.695
-14.884,-11.21,-4.021,0.578,-2.659,0.062,3.398,1.749
-14.904,-20.62,-14.683,-7.87,-13.389,-8.374,-5.445,-8.39
-3.173,-18.773,-13.199,-4.941,-12.437,-5.991,-8.907,-8.523
15.024,-3.832,0.612,8.991,0.972,7.743,-1.154,3.277
28.66,8.376,10.932,17.84,11.739,16.799,7.259,11.962
24.512,6.872,6.821,12.406,8.428,11.726,5.307,7.852
9.522,3.393,-0.434,5.515,1.095,5.724,1.164,2.361
9.288,11.375,5.508,11.684,5.646,13.134,6.462,8.737
23.07,18.628,16.45,19.716,15.051,21.383,12.325,16.003
21.883,7.47,11.827,10.658,10.01,11.121,4.432,6.418
1.2,-11.271,-4.787,-7.027,-6.502,-7.574,-10.477,-11.29
-13.59,-15.548,-11.44,-11.68,-13.654,-12.256,-14.753,-16.148
-15.471,-9.37,-5.521,-5.095,-8.453,-5.959,-8.062,-9.95
-22.348,-13.472,-4.979,-5.186,-8.056,-7.169,-5.593,-10.09
-33.265,-26.836,-11.936,-11.408,-14.647,-14.162,-8.945,-15.76
-24.296,-25.511,-7.287,-5.305,-9.418,-7.598,-2.038,-8.104
4.909,-2.837,12.85,14.962,11.364,13.649,17.177,14.316
23.59,16.978,27.416,28.352,26.44,27.559,29.18,28.802
16.345,15.671,23.826,24.216,23.147,23.638,24.669,24.148
3.407,5.393,14.492,16.591,13.748,16.211,16.247,15.054
8.379,5.792,15.545,20.323,14.093,19.659,17.016,17.094
24.717,15.275,24.812,30.236,22.593,28.605,25.263,26.68
25.717,16.189,26.113,29.851,24.317,27.355,28.32,27.82
7.076,5.094,15.089,17.678,14.943,15.384,21.424,17.035
-0.885,3.659,11.234,14.751,12.617,13.481,20.388,14.641
20.058,25.565,28.078,32.96,30.101,32.271,37.444,33.509
44.169,49.883,46.423,52.064,48.769,51.342,55.503,53.195
43.596,51.879,44.611,51.687,47.31,51.413,55.082,53.151
31.671,41.015,34.972,44.035,37.388,44.861,47.334,46.055
36.577,42.921,41.626,50.891,42.845,52.447,52.184,52.52
55.478,58.444,60.461,67.65,60.477,69.025,64.624,66.962
62.308,65.19,67.59,72.16,67.075,72.907,66.508,68.994
53.592,56.295,59.432,61.368,58.486,61.64,57.102,57.072
50.408,48.97,55.13,54.038,53.24,53.985,50.78,49.283
54.319,49.251,59.265,56.146,56.112,55.634,51.344,51.145
45.833,41.374,55.181,52.639,51.033,51.606,46.422,47.929
25.736,22.526,39.793,39.474,35.625,38.254,32.132,35.092
16.597,13.981,32.209,34.226,29.115,33.502,26.086,29.944
24.533,24.682,40.354,44.638,38.525,44.894,39.113,41.937
31.755,36.523,48.531,54.339,47.44,55.213,53.961,54.875
25.43,33.851,43.014,48.61,42.253,49.436,50.141,50.603
13.305,22.537,29.769,34.573,29.028,35.521,34.237,35.355
10.956,18.29,23.783,29.215,22.931,30.947,28.594,29.009
20.594,26.043,27.502,34.878,26.998,37.609,35.558,34.204
29.608,34.032,29.054,37.989,29.185,41.584,36.38,36.316
29.008,30.427,21.996,30.909,22.141,34.889,24.456,29.016
22.921,19.763,14.146,21.939,13.684,25.247,15.163,20.569
20.695,15.507,15.408,22.898,14.331,24.724,20.956,20.995
21.436,19.19,21.785,30.61,20.059,31.215,30.153,27.603
15.078,20.593,21.149,30.943,18.724,30.973,25.01,26.889
3.801,17.605,15.71,24.48,13.012,24.167,13.675,18.664
0.593,17.121,17.776,25.139,15.305,24.864,14.969,18.64
5.772,19.909,25.925,32.87,23.969,33.252,24.348,29.195
9.167,21.694,29.542,35.866,28.353,36.838,27.845,36.392
11.718,24.136,30.657,36.321,30.047,37.605,30.646,39.371
21.208,30.843,38.676,45.473,37.948,47.474,43.304,50.296
35.203,41.546,53.414,61.632,52.316,64.276,61.578,67.76
48.88,55.926,69.073,75.879,67.961,77.953,77.097,79.951
59.83,67.022,78.911,82.717,77.96,83.9,84.508,82.244
60.803,63.495,76.803,78.807,76.187,80.518,79.708,76.116
51.424,50.935,67.381,68.407,67.628,71.568,68.498,66.903
44.247,45.944,61.175,62.078,62.186,65.949,62.448,62.557
46.671,50.814,59.964,63.178,60.702,66.741,62.89,64.77
51.448,54.913,58.506,65.46,58.354,68.583,62.826,67.152
50.751,54.536,55.168,65.364,54.352,68.589,60.088,66.651
49.896,57.016,55.129,67.901,53.76,71.703,59.872,69.496
54.969,63.244,60.387,74.245,58.628,78.594,64.511,77.518
58.08,62.444,62.725,75.292,61.404,79.947,67.546,80.329
52.343,52.59,57.059,67.569,56.687,72.614,64.109,73.256
48.633,49.031,54.148,63.073,54.368,68.739,61.888,68.096
58.92,61.367,64.197,70.67,64.862,76.323,68.378,72.778
71.529,73.655,75.771,78.355,77.052,82.471,73.526,76.051
66.776,66.116,72.795,71.642,74.289,73.525,65.63,66.962
50.646,47.265,61.487,57.751,62.418,58.028,53.143,53.286
44.836,41.981,59.961,54.087,60.127,53.198,52.814,49.875
52.248,54.483,70.074,61.911,69.97,60.019,64.369,57.885
59.701,66.407,76.341,66.825,76.206,64.868,70.499,63.514
63.847,69.628,72.551,63.723,72.009,62.349,64.547,59.872
69.856,73.3,70.038,62.357,69.064,60.673,59.793,56.151
76.348,80.297,77.003,68.196,76.355,65.381,67.121,60.294
77.398,82.46,86.504,75.081,86.644,72.237,80.379,67.61
71.168,75.293,86.395,74.914,86.767,74.077,83.992,68.738
61.633,64.365,75.685,67.809,75.776,69.379,72.672,62.797
54.213,58.133,65.213,61.238,65.455,63.406,59.331,57.379
51.585,58.834,61.945,59.724,62.722,60.702,56.286,56.416
52.098,62.045,62.539,60.604,63.291,60.266,59.482,56.556
53.433,63.807,63.158,61.481,63.04,60.857,60.539,56.045
59.268,67.464,67.344,66.392,66.171,66.454,63.555,60.43
70.524,75.885,77.593,76.747,76.022,77.485,73.961,72.16
77.014,80.731,86.192,83.641,85,84.397,82.223,81.149
71.507,73.794,84.66,79.564,83.949,80.147,79.284,77.67
58.502,60.016,74.916,68.482,74.313,69.29,71.588,65.881
48.29,50.81,66.133,60.343,65.498,61.801,67.594,57.078
46.109,49.467,63.086,59.011,62.46,61.246,65.887,55.318
43.435,47.749,60.556,57.853,59.736,60.628,61.761,54.455
32.348,40.896,53.488,51.651,52.287,54.543,55.131,49.791
22.635,36.283,46.541,45.779,45.215,48.427,49.843,45.644
25.642,38.839,46.082,45.865,45.101,48.295,49.169,46.44
33.776,40.867,48.277,46.804,47.671,49.499,50.596,47.147
34.279,36.743,45.819,42.335,45.072,45.357,48.427,41.919
30.689,34.175,41.908,37.721,40.931,40.164,43.534,35.897
35.348,41.476,46.001,42.529,45.515,43.739,44.053,38.512
47.734,54.166,57.771,55.365,58.127,55.861,53.402,49.333
53.617,59.814,63.878,62.909,64.588,63.465,61.177,56.647
48.808,55.56,57.867,58.581,58.527,59.24,57.313,53.524
46.297,52.744,51.445,52.422,51.931,52.659,49.06,47.629
50.879,56.072,52.675,51.85,52.792,51.362,46.526,46.038
49.846,52.997,52.22,48.549,52.217,47.763,45.183,43.202
36.222,35.512,41.291,34.92,41.653,34.459,36.63,32.538
21.649,17.951,27.433,20.129,27.819,19.935,25.13,20.379
20.611,18.191,25.741,19.202,25.662,18.644,23.759,19.346
30.175,30.115,37.342,30.462,37.321,29.37,34.437,28.826
33.89,34.585,46.987,37.92,47.484,36.903,43.583,35.216
24.828,28.811,45.02,34.732,45.292,34.164,42.376,32.213
13.575,22.787,36.917,27.974,36.204,27.622,35.679,26.414
12.193,19.871,30.772,24.186,29.634,24.081,29.985,24.873
18.89,18.551,29.198,24.233,28.919,24.79,27.498,27.948
23.965,21.226,32.125,28.6,33.236,29.987,29.572,33.787
25.736,29.511,37.949,37.075,39.596,39.165,35.651,41.898
30.986,39.52,44.554,46.647,45.614,49.132,43.979,51.655
39.617,46.825,49.849,53.383,50.513,55.749,52.924,59.545
40.219,48.285,47.585,51.55,48.696,53.427,53.955,57.223
30.325,43.445,35.435,39.772,36.758,41.118,39.951,42.247
24.46,37.097,24.658,28.445,25.485,29.133,23.074,27.813
29.362,33.137,23.245,26.458,24.006,26.615,19.781,25.789
32.118,29.245,22.153,27.826,23.671,28.469,24.961,29.533
21.667,21.101,12.495,22.055,14.272,23.626,22.381,25.286
6.59,10.996,1.47,10.667,2.296,11.769,10.878,12.113
2.866,8.029,0.62,5.092,0.252,4.469,2.099,2.039
10.106,13.737,8.159,8.982,7.094,7.14,0.845,1.544
12.153,15.769,12.15,12.028,10.674,9.785,1.372,2.17
2.332,5.998,7.792,6.552,6.262,3.977,-1.818,-3.551
-6.769,-4.609,4.025,0.841,2.997,-1.83,-4.226,-7.139
-5.325,-3.37,8.446,3.934,8.066,1.73,1.155,-0.768
-0.805,2.423,13.479,7.762,13.559,5.872,6.784,4.209
-2.937,-0.865,8.233,0.93,8.44,-1.242,-0.775,-4.559
-8.294,-7.784,-2.29,-9.77,-2.553,-11.995,-15.445,-17.717
-4.322,-0.425,-1.044,-6.571,-2.102,-8.207,-15.611,-16.229
13.1,21.289,15.578,11.949,13.894,10.702,2.239,0.243
29.448,35.234,28.665,25.681,26.327,24.255,15.687,12.025
28.746,30.238,25.078,23.113,21.741,21.59,11.796,10.044
18.818,23.461,19.222,19.307,14.985,18.045,7.042,9.558
22.393,34.083,30.415,32.008,26.231,31.089,21.083,25.539
41.897,55.957,52.074,54.162,49.169,53.615,46.542,49.248
57.992,69.537,62.94,66.126,61.733,66.054,59.376,60.749
63.09,70.314,59.642,65.557,59.563,65.889,54.901,58.24
68.636,71.587,58.123,66.994,58.532,67.366,53.367,58.813
80.302,82.094,67,76.83,67.345,76.801,65.674,69.846
87.329,91.248,75.376,83.56,75.189,83.025,76.554,77.468
82.064,86.924,73.484,78.45,73.302,77.969,73.405,72.081
74.653,77.738,70.703,72.467,71.439,72.745,67.522,66.643
75.651,77.145,77.05,76.953,78.186,77.834,71.127,73.225
77.245,80.185,83.519,83.246,84.028,83.87,76.544,81.44
67.556,75.379,78.271,78.55,78.488,78.401,72.096,77.202
53.135,65.1,67.012,67.298,67.47,66.634,61.963,65.503
49.292,60.143,62.348,62.074,62.267,61.325,57.266,59.425
55.116,61.311,63.002,62.406,61.713,61.36,55.751,57.407
55.901,58.752,57.882,57.458,56.097,55.647,46.716,48.853
48.048,49.924,46.561,46.635,45.103,44.19,32.552,36.353
44.408,44.444,40.664,41.484,39.627,38.886,26.372,32.409
49.005,45.6,43.307,44.791,42.968,42.421,29.704,37.413
47.22,42.912,42.791,44.316,43.371,42.539,30.014,38.636
30.125,29.698,31.038,32.273,31.773,31.355,20.25,29.332
6.133,12.668,13.909,15.261,14.445,15.065,6.71,15.019
-9.94,3.446,3.624,4.935,5.158,4.922,-0.663,5.305
-9.17,6.067,5.853,6.11,9.073,5.734,0.937,5.152
1.791,11.138,11.394,10.706,15.204,9.638,5.43,9.096
11.125,10.821,10.061,10.132,13.455,8.128,8.118,9.975
17.349,11.546,6.918,9.19,10.042,6.373,10.632,10.625
24.068,21.702,12.239,16.74,15.166,13.878,15.694,17.618
33.529,38.901,25.576,31.119,27.689,28.894,23.764,29.5
43.341,51.284,35.338,40.413,36.177,38.811,30.367,36.787
46.194,50.261,33.863,37.578,33.552,36.401,30.332,35.139
42.454,43.447,29.683,31.777,28.392,31.199,27.523,33.14
41.817,44.465,34.709,34.947,32.477,35.22,30.901,38.697
45.243,50.627,44.009,41.789,41.182,42.445,38.774,44.804
42.619,48.187,43.785,38.358,41.127,38.253,38.872,40.298
33.208,37.472,35.038,26.88,33.249,25.541,29.281,29.052
27.404,30.396,29.144,20.877,28.145,19.299,21.294,23.408
24.939,27.075,26.01,20.176,25.049,19.776,18.025,23.43
16.109,18.437,18.087,14.388,16.784,15.678,12.041,19.263
4.918,7.73,8.968,5.162,7.644,7.584,4.568,10.97
5.892,6.886,10.084,4.364,9.047,6.837,6.84,10.228
16.329,12.717,19.426,11.564,18.558,13.248,16.905,18.364
17.999,11.559,21.581,13.04,20.857,13.847,17.453,21.151
9.214,5.297,13.765,6.087,13.875,6.33,7.295,13.973
7.043,6.853,10.234,3.497,11.751,3.358,6.046,10.349
18.348,17.41,18.14,12.009,20.315,11.522,19.039,18.687
29.028,24.768,26.116,21.089,28.001,20.486,28.004,28.436
23.765,19.45,20.956,17.694,22.832,17.486,21.606,26.116
9.134,8.437,7.751,5.947,10.202,6.349,9.659,14.624
2.973,5.504,1.382,-0.138,4.366,0.729,4.103,6.833
5.184,8.672,2.179,0.086,5.573,1.498,2.76,5.065
1.612,4.079,-2.6,-5.357,0.998,-3.44,-4.865,-1.089
-10.847,-11.029,-15.63,-19.014,-12.574,-17.147,-18.588,-14.342
-24.04,-26.352,-25.802,-29.838,-23.915,-28.323,-24.926,-22.661
-38.215,-37.884,-30.454,-34.768,-29.243,-33.153,-24.14,-23.519
-61.139,-53.308,-42.111,-45.823,-40.231,-43.364,-35.968,-33.078
-86.206,-72.985,-63.841,-66.438,-60.805,-62.893,-62.599,-55.937
-93.915,-81.804,-77.642,-80.295,-74.737,-76.583,-77.999,-71.713
-79.572,-71.302,-69.949,-75.029,-68.304,-72.63,-67.6,-65.899
-62.632,-56.714,-53.567,-61.83,-52.224,-61.009,-49.455,-51.643
-62.257,-57.1,-49.722,-59.046,-47.155,-58.551,-45.509,-48.789
-72.796,-67.679,-58.315,-65.949,-54.612,-64.671,-53.773,-56.407
-73.125,-67.228,-60.746,-65.772,-57.112,-63.745,-56.528,-56.942
-55.035,-47.371,-46.657,-49.987,-43.91,-47.925,-43.414,-41.025
-32.731,-23.333,-27.482,-29.875,-25.55,-28.125,-23.761,-19.739
-24.926,-14.292,-21.292,-21.94,-19.664,-20.012,-16.095,-10.239
-32.62,-20.397,-29.17,-27.881,-27.573,-25.592,-24.026,-15.717
-39.648,-27.265,-36.241,-35.774,-34.645,-34.069,-32.433,-25.146
-36.112,-27.183,-34.395,-37.054,-32.716,-36.457,-31.503,-28.615
-28.88,-24.205,-29.97,-33.959,-28.502,-33.398,-28.241,-27.031
-23.193,-21.332,-27.414,-30.065,-26.873,-28.443,-27.641,-24.529
-14.03,-15.718,-21.784,-23.466,-22.332,-21.224,-23.191,-18.98
-3.344,-8.988,-12.662,-15.004,-13.609,-13.3,-14.038,-9.734
-3.332,-10.46,-9.937,-12.981,-10.588,-12.191,-11.601,-5.775
-14.169,-20.22,-16.76,-18.831,-17.205,-18.5,-19.595,-11.69
-20.581,-22.584,-20.642,-19.871,-21.488,-19.717,-24.305,-16.278
-17.058,-10.774,-13.334,-9.886,-14.568,-9.995,-15.869,-10.594
-13.825,0.92,-4.322,-0.742,-5.233,-0.966,-3.106,-2.515
-18.883,-1.578,-6.186,-4.463,-6.571,-4.515,-1.08,-3.126
-29.447,-15.484,-18.943,-18.367,-19.224,-18.333,-14.9,-13.063
-32.745,-25.04,-28.811,-28.205,-29.072,-28.523,-31.096,-22.623
-19.5,-19.532,-23.663,-23.838,-23.607,-24.791,-30.663,-21.353
-3.16,-9.219,-12.588,-13.926,-12.04,-14.822,-18.263,-12.793
-3.293,-10.298,-13.246,-13.685,-12.32,-13.172,-14.831,-10.504
-12.244,-17.967,-21.745,-20.334,-20.995,-18.402,-21.168,-15.349
-8.694,-14.523,-19.499,-18.068,-19.699,-16.389,-19.336,-13.245
2.6,-0.518,-7.382,-6.343,-8.685,-5.822,-7.849,-1.9
-1.391,3.782,-5.816,-3.292,-7.7,-3.246,-4.959,0.559
-21.811,-9.842,-20.05,-16.372,-22.302,-16.636,-16.378,-14.693
-37.798,-25.919,-33.188,-31.212,-36.018,-32.545,-28.261,-31.56
-38.002,-30.987,-33.968,-35.058,-37.4,-37.333,-31.322,-34.911
-31.584,-31.392,-29.379,-32.632,-33.238,-35.01,-31.427,-31.207
-31.589,-36.948,-29.483,-33.63,-33.496,-36.111,-37.175,-33.175
-36.377,-42.595,-32.998,-37.359,-36.827,-40.371,-45.361,-39.838
-34.624,-37.996,-31.35,-36.096,-34.891,-39.31,-43.592,-40.363
-25.11,-25.724,-22.088,-27.505,-25.42,-30.32,-30.036,-30.275
-18.54,-18.176,-13.726,-19.147,-16.802,-21.776,-20.662,-19.46
-20.005,-19.201,-13.813,-18.545,-16.671,-21.559,-25.665,-19.37
-22.286,-19.651,-17.232,-20.904,-20.278,-23.987,-33.1,-24.615
-18.787,-13.254,-15.812,-16.858,-19.264,-19.028,-29.933,-22.268
-14.249,-8.008,-13.793,-11.376,-17.039,-12.361,-22.761,-16.215
-18.99,-15.313,-21.987,-18.645,-24.276,-19.152,-26.166,-22.014
-31.195,-28.724,-36.772,-34.483,-38.366,-35.02,-38.496,-36.899
-34.894,-29.715,-40.904,-37.466,-42.679,-37.673,-42.816,-40.375
-26.309,-19.699,-32.054,-25.824,-34.165,-25.356,-35.975,-30.214
-19.625,-16.612,-25.926,-19.964,-27.728,-19.449,-31.449,-24.288
-20.31,-21.791,-28.209,-25.443,-29.427,-25.585,-32.014,-26.808
-20.571,-22.937,-29.707,-28.441,-30.951,-28.556,-30.06,-26.545
-16.635,-17.624,-24.212,-22.694,-25.991,-21.678,-24.739,-19.93
-13.898,-14.663,-17.449,-18.138,-19.327,-16.426,-22.097,-16.085
-20.267,-21.46,-20.152,-25.209,-21.421,-24.014,-27.454,-23.903
-32.743,-32.417,-29.705,-37.132,-30.381,-36.498,-35.602,-36.54
-34.845,-32.812,-29.133,-36.067,-29.765,-35.173,-32.818,-35.525
-22.443,-22.003,-16.513,-21.765,-17.353,-20.352,-19.968,-19.645
-15.317,-17.51,-11.669,-15.055,-12.517,-13.717,-14.939,-11.034
-24.341,-24.935,-20.454,-22.902,-21.123,-22.287,-21.31,-18.713
-32.586,-28.018,-24.507,-26.819,-25.126,-26.704,-22.742,-23.881
-24.819,-18.33,-14.811,-16.003,-15.673,-15.609,-13.431,-13.831
-12.938,-9.323,-5.895,-5.101,-6.971,-4.333,-7.05,-2.797
-15.76,-12.533,-11.123,-8.788,-12.123,-8.001,-13.98,-7.104
-29.254,-21.926,-24.52,-20.825,-25.365,-19.535,-27.324,-20.404
-34.99,-26.92,-32.278,-27.387,-32.813,-24.618,-33.402,-26.207
-26.679,-23.672,-29.579,-24.469,-29.408,-20.351,-27.741,-20.643
-17.143,-17.26,-24.51,-19.765,-23.86,-15.773,-20.67,-14.39
-20.792,-18.227,-27.182,-23.189,-27.091,-20.451,-24.87,-17.524
-30.753,-25.502,-33.071,-31.457,-34.162,-29.548,-34.875,-24.851
-28.393,-24.515,-29.25,-31.183,-31.114,-29.054,-34,-23.192
-13.718,-11.527,-16.421,-20.345,-18.424,-17.63,-21.718,-11.934
-2.696,-0.033,-7.33,-10.79,-9.424,-7.697,-12.534,-2.302
-0.65,0.736,-7.029,-9.485,-9.612,-6.426,-10.479,0.537
2.37,-1.781,-7.085,-9.808,-10.316,-7.472,-5.808,1.829
7.836,-1.283,-3.424,-7.381,-7.152,-5.983,-0.236,2.686
1.578,-6.545,-6.48,-10.891,-10.739,-9.814,-9.023,-4.863
-15.621,-19.366,-18.673,-22.522,-23.324,-21.55,-27.637,-19.376
-21.915,-23.597,-23.995,-28.162,-28.19,-27.9,-32.397,-26.123
-10.873,-12.974,-14.935,-20.356,-18.043,-20.891,-19.234,-18.942
-3.249,-4.581,-7.006,-11.957,-9.413,-12.314,-8.629,-9.469
-14.454,-12.322,-14.692,-16.865,-17.184,-16.458,-15.488,-12.099
-31.877,-27.169,-30.007,-29.045,-32.978,-28.046,-32.964,-23.118
-37.778,-35.392,-37.375,-34.203,-40.346,-32.331,-43.666,-25.622
-35.61,-37.771,-36.927,-34.396,-38.95,-32.755,-43.401,-24.484
-37.229,-41.562,-40.877,-42.799,-41.786,-45.064,-47.556,-42.789
-42.202,-47.369,-52.698,-58.589,-53.165,-65.756,-62.912,-72.911
-44.953,-51.645,-63.148,-68.914,-63.555,-76.925,-74.004,-85.25
-47.299,-54.776,-66.942,-71.128,-67.355,-76.704,-73.616,-80.115
-51.081,-58.955,-68.653,-72.225,-69.742,-75.731,-73.835,-77.725
-54.557,-65.911,-73.674,-76.476,-76.2,-78.632,-80.68,-81.615
-59.975,-76.849,-81.613,-83.952,-84.923,-84.945,-87.858,-85.813
-68.129,-85.292,-84.926,-89.073,-87.541,-90.295,-89.778,-88.508
-71.666,-81.654,-76.552,-83.543,-78.316,-86.325,-84.69,-85.068
-66.026,-69.027,-61.063,-68.581,-63.121,-72.062,-74.352,-71.077
-58.496,-59.881,-50.671,-56.25,-53.531,-59,-64.333,-54.464
-55.066,-58.266,-49.207,-54.196,-52.306,-56.673,-57.58,-47.816
-51.454,-58.583,-50.911,-58.563,-53.707,-61.906,-54.53,-53.05
-50.495,-61.093,-55.907,-65.91,-58.323,-69.267,-60.604,-65.011
-61.73,-70.671,-68.352,-76.612,-70.655,-77.731,-76.249,-78.658
-77.755,-82.404,-81.709,-85.925,-84.271,-84.238,-88.37,-87.29
-83.8,-88.505,-86.906,-89.492,-89.301,-86.803,-88.55,-87.554
-82.651,-91.945,-87.731,-92.096,-88.599,-89.981,-84.721,-86.206
-85.87,-97.826,-92.166,-97.722,-91.222,-95.928,-86.917,-89.705
-92.226,-100.473,-96.85,-99.602,-95.674,-97.381,-92.081,-91.009
-91.2,-92.808,-93.149,-91,-92.7,-88.444,-88.509,-80.699
-83.575,-81.169,-82.969,-78.278,-82.195,-75.659,-74.024,-64.906
-81.215,-77.16,-77.913,-73.873,-75.702,-70.893,-62.76,-59.079
-86.047,-81.475,-84.378,-81.008,-81.421,-77.457,-67.941,-68.42
-88.933,-86.792,-95.508,-90.974,-93.379,-87.21,-82.45,-81.494
-88.873,-91.662,-101.724,-96.082,-100.818,-92.416,-90.096,-86.406
-93.556,-99.881,-102.917,-98.639,-102.363,-94.993,-89.931,-86.675
-101.577,-107.934,-102.182,-101.103,-101.403,-97.439,-90.167,-89.663
-100.574,-105.09,-95.783,-96.565,-95.024,-93.068,-87.896,-88.558
-82.39,-85.4,-76.338,-76.31,-75.805,-73.131,-71.267,-70.063
-51.463,-53.225,-43.099,-42.259,-42.615,-39.47,-38.434,-35.156
-19.098,-19.199,-6.843,-7.345,-6.792,-5.197,-3.943,-0.822
-0.069,-0.753,12.218,9.749,10.693,10.673,11.836,12.36
-11.235,-16.851,-2.966,-6.554,-6.553,-7.332,-4.976,-8.215
-49.244,-59.332,-41.772,-46.119,-46.637,-48.132,-44.6,-49.629
-84.552,-94.898,-74.183,-78.921,-79.306,-80.847,-78.987,-82.862
-102.169,-112.87,-93.104,-97.444,-97.92,-98.479,-99.145,-102.749
-115.348,-128.28,-111.462,-115.148,-115.394,-115.523,-116.086,-122.377
-126.146,-138.709,-124.745,-127.884,-127.213,-127.774,-127.73,-135.249
-119.77,-129.945,-119.937,-122.595,-120.97,-121.713,-124.384,-128.399
-103.751,-114.669,-107.669,-110.455,-107.546,-108.906,-114.766,-114.74
-101.27,-114.895,-106.046,-109.357,-104.909,-107.654,-111.955,-111.969
-106.767,-121.23,-107.906,-110.361,-106.328,-108.783,-108.575,-111.223
-96.319,-111.984,-97.651,-97.102,-96.397,-95.686,-94.252,-97.861
-75.187,-93.823,-83.201,-79.469,-82.262,-78.167,-80.276,-81.778
-72.251,-91.041,-84.758,-79.799,-83.78,-78.594,-84.948,-83.471
-92.735,-107.248,-103.617,-98.798,-102.977,-97.818,-106.207,-102.494
-113.887,-123.958,-121.803,-117.629,-121.898,-116.856,-124.858,-119.991
-122.664,-130.812,-128.935,-127.114,-128.999,-126.34,-130.985,-127.674
-126.711,-133.724,-131.509,-133.305,-130.814,-132.451,-132.501,-133.066
-135.01,-139.856,-137.647,-141.558,-137.157,-140.777,-140.407,-142.365
-145.237,-149.074,-145.937,-150.606,-147.209,-150.166,-154.651,-153.601
-145.012,-153.754,-146.534,-152.755,-149.705,-152.676,-161.853,-157.639
-127.756,-147.921,-133.501,-140.856,-137.55,-141.021,-151.969,-146.8
-108.373,-137.662,-116.33,-122.354,-120.437,-123.005,-134.502,-128.846
-105.908,-132.351,-108.54,-112.493,-112.241,-113.809,-125.18,-119.41
-114.182,-130.327,-108.326,-111.517,-111.317,-112.933,-124.443,-119.053
-115.842,-125.48,-105.455,-108.008,-107.824,-108.672,-122.082,-115.497
-114.81,-122.036,-101.871,-102.908,-103.86,-102.842,-116.446,-108.218
-122.739,-128.455,-106.278,-106.497,-108.118,-106.539,-114.928,-108.347
-132.128,-141.091,-116.048,-116.621,-117.978,-116.943,-119.016,-116.242
-133.23,-148.366,-122.634,-122.6,-124.265,-122.611,-122.411,-121.831
-133.871,-148.414,-126.173,-124.097,-126.758,-123.638,-122.936,-123.412
-140.425,-148.702,-131.901,-128.738,-131.82,-127.933,-125.806,-128.153
-143.385,-151.186,-138.744,-136.128,-139.363,-134.939,-133.125,-136.583
-138.718,-153.999,-143.711,-140.768,-145.256,-139.404,-141.092,-143.223
-141.646,-161.505,-151.849,-146.83,-153.013,-145.737,-150.258,-150.865
-164.067,-179.261,-170.892,-164.588,-171.125,-164.153,-168.054,-169.144
-196.625,-205.16,-199.685,-194.603,-199.917,-195.254,-197.315,-199.909
-222.773,-229.849,-225.722,-223.853,-226.456,-226.028,-226.818,-231.357
-234.338,-243.694,-235.617,-238.433,-236.389,-242.057,-240.717,-247.996
-229.793,-243.14,-227.875,-235.724,-228.704,-240.14,-236.315,-244.987
-215.195,-233.428,-213.437,-223.943,-215.128,-228.735,-225.071,-231.619
-206.496,-227.467,-206.394,-216.4,-209.079,-221.705,-219.978,-223.408
-212.85,-232.87,-211.679,-220.971,-214.277,-226.941,-225.199,-228.586
-224.396,-239.023,-219.424,-229.224,-221.124,-235.631,-233.157,-238.485
-226.164,-230.667,-216.187,-225.312,-217.421,-231.847,-231.58,-236.561
-215.641,-212.202,-202.34,-208.768,-203.987,-215.372,-218.756,-220.898
-204.628,-201.134,-191.072,-195.291,-193.488,-201.602,-206.951,-207.009
-200.674,-199.779,-186.958,-190.92,-189.749,-196.251,-201.612,-201.84
-193.808,-195.173,-180.462,-184.758,-182.952,-189.244,-193.183,-194.941
-175.718,-182.906,-168.252,-172.061,-170.337,-176.559,-178.675,-181.669
-158.047,-171.456,-159.757,-162.788,-161.939,-167.717,-168.985,-171.971
-155.279,-166.902,-160.275,-163.027,-162.447,-167.958,-169.01,-171.602
-162.836,-165.863,-163.399,-165.74,-164.415,-169.665,-169.978,-172.827
-169.45,-166.28,-165.629,-166.564,-164.9,-168.903,-168.558,-171.5
-174.274,-172.01,-172.636,-171.062,-171.146,-172.157,-173.095,-175.18
-176.384,-178.265,-182.092,-177.171,-181.067,-177.208,-181.362,-182.585
-170.002,-171.774,-180.372,-172.591,-179.943,-171.66,-178.153,-178.814
-158.254,-153.672,-166.056,-157.944,-165.676,-157.166,-161.912,-162.375
-151.965,-141.78,-155.409,-149.189,-154.987,-149.548,-149.035,-151.235
-152.875,-144.232,-156.025,-151.545,-156.021,-152.508,-148.549,-153.411
-149.609,-147.895,-154.805,-151.828,-155.241,-152.788,-149.777,-155.09
-132.577,-138.031,-139,-139.181,-139.391,-140.551,-138.748,-143.027
-109.504,-118.13,-115.182,-119.6,-115.185,-121.316,-117.82,-122.098
-96.737,-102.936,-99.715,-106.84,-99.141,-107.88,-101.631,-106.819
-93.154,-95.519,-93.848,-101.987,-92.737,-102.202,-94.118,-100.096
-81.727,-83.689,-81.165,-90.65,-79.737,-90.999,-82.198,-88.817
-60.242,-62.472,-55.987,-66.479,-54.11,-67.273,-59.853,-66.849
-43.43,-42.586,-34.511,-42.802,-32.296,-43.625,-40.444,-46.692
-33.747,-30.598,-27.662,-31.513,-26.292,-32.299,-34.031,-38.084
-20.054,-19.002,-24.565,-26.147,-24.675,-27.197,-30.883,-33.111
-2.009,-1.925,-12.916,-15.354,-13.354,-17.04,-18.655,-21.496
9.564,13.228,1.968,-1.238,1.875,-3.875,-2.718,-7.118
12.061,18.187,8.986,6.327,8.314,2.723,3.912,-0.44
12.892,17.74,8.534,5.682,6.998,1.508,1.374,-2.298
16.188,20.388,8.201,3.675,6.781,-0.445,-0.025,-3.992
18.925,25.11,10.468,4.665,9.7,0.741,3.914,-0.828
18.521,26.93,11.753,6.156,11.403,1.913,7.778,2.295
20.826,27.006,12.091,6.914,11.901,2.337,8.546,2.879
32.026,30.561,17.427,12.003,16.882,7.858,12.269,7.642
45.775,39.674,28.963,23.58,27.219,19.961,22.359,19.676
55.336,51.53,40.92,35.977,38.004,32.133,32.828,32.076
63.117,60.948,48.793,43.368,45.947,39.154,38.43,38.378
67.51,64.923,52.798,45.997,50.857,41.875,41.379,40.215
66.261,66.739,57.286,49.606,55.769,45.606,47.182,44.345
65.875,69.964,64.277,56.702,62.813,52.884,55.367,52.328
64.75,68.572,65.891,58.573,65.479,55.846,56.54,54.948
52.717,55.862,55.579,47.74,57.249,46.666,46.999,45.531
39.422,42.491,44.287,35.778,47.312,35.184,39.804,35.079
45.813,46.699,47.811,40.189,50.607,38.475,47.279,39.661
66.524,65.468,61.861,57.07,63.878,54.245,61.923,55.857
77.661,77.522,68.155,67.172,69.641,64.389,68.193,65.228
75.008,76.345,63.028,64.955,63.845,62.575,64.717,61.784
74.022,76.478,61.006,62.949,61.009,60.23,63.548,58.337
77.091,83.569,66.757,67.232,66.771,64.033,67.491,61.84
70.602,84.578,66.578,67.326,67.678,64.628,64.146,61.4
55.713,74.201,55.395,57.373,57.414,55.562,50.297,50.344
50.496,64.985,46.279,48.091,48.256,46.508,39.859,40.175
61.359,67.458,49.465,51.101,51.035,49.52,42.972,43.725
75.68,77.3,60.784,63.875,61.958,62.807,54.788,57.292
80.706,84.408,70.595,74.695,71.062,74.383,64.895,67.841
79.917,87.908,76.341,79.206,75.775,79.228,70.381,72.899
84.651,94.301,81.491,82.575,80.036,82.434,75.356,78.659
93.019,103.357,85.521,86.311,83.832,85.904,79.686,83.542
94.667,107.679,85.532,87.014,84.195,86.224,78.684,82.065
90.38,105.237,84.107,85.428,83.086,83.866,74.032,77.225
88.548,102.352,86.296,85.937,85.323,83.586,73.938,76.62
91.047,103.37,91.28,89.85,90.414,87.588,81.067,83.032
91.79,104.723,92.35,92.825,91.867,91.624,87.699,90.886
86.157,101.673,86.027,89.46,86.132,89.163,86.119,91.134
81.216,96.993,80.293,84.183,81.079,83.82,83.23,86.878
87.9,98.577,87.41,90.254,88.882,89.337,94.1,93.791
102.102,108.103,104.95,108.841,106.663,107.817,115.268,113.528
109.75,117.529,116.786,123.547,117.881,123.185,126.756,128.459
106.663,118.137,115.601,123.492,115.931,124.137,123.995,129.254
101.862,112.555,110.735,117.191,111.149,118.624,121.43,125.367
108.086,115.349,114.951,119.885,115.763,121.422,128.462,128.969
126.467,132.389,129.235,133.472,129.614,134.369,140.579,140.081
142.079,148.423,142.24,144.902,141.758,145.125,149.413,148.515
145.967,149.452,146.176,145.414,145.688,145.437,152.011,148.687
144.892,142.366,144.657,140.258,144.997,140.172,150.023,145.186
141.038,137.709,141.01,135.185,141.872,134.764,143.878,141.591
128.274,130.286,131.627,126.665,132.38,125.957,132.646,134.218
112.178,115.727,118.438,114.484,119.201,113.762,120.545,123.017
107.703,107.501,113.722,109.813,114.669,109.007,116.87,117.207
115.684,115.021,121.422,117.685,121.893,116.344,124.427,121.38
123.239,125.359,128.417,125.829,127.809,124.176,132.56,126.829
125.111,125.375,124.92,123.504,123.768,122.714,130.206,124.85
126.982,122.57,119.607,118.537,119.056,119.216,123.867,120.702
131.455,129.16,123.379,122.818,123.878,124.428,126.678,124.073
134.671,140.595,130.957,132.079,131.832,134.12,134.689,131.535
134.447,144.282,131.612,134.79,132.176,137.183,135.995,133.031
132.624,139.032,126.364,130.866,126.872,133.409,131.457,129.078
131.274,134.276,122.9,128.258,123.773,130.547,127.888,126.935
131.792,135.731,122.251,128.583,123.353,130.424,125.322,127.231
134.206,138.799,119.754,126.441,121.132,128.068,121.37,125.151
133.58,136.31,114.626,119.854,116.642,121.379,117.288,119.366
126.871,130.252,112.19,114.491,114.456,115.406,116.246,114.768
123.042,129.662,117.803,116.966,119.462,116.791,121.378,118.048
127.41,133.243,127.339,123.882,128.578,122.899,130.488,126.957
127.715,128.709,128.723,123.762,130.495,122.652,133.006,128.734
115.919,114.597,118.842,113.879,121.266,112.91,123.187,117.787
101.946,101.273,106.534,102.304,108.736,101.32,109.44,103.457
95.509,93.747,99.416,95.611,100.816,94.64,103.539,96.499
94.338,90.276,98.417,94.93,99.537,94.241,106.08,97.635
91.53,88.084,99.075,96.784,100.627,96.652,106.623,99.633
84.328,85.789,97.448,97.176,99.096,97.772,101.11,98.572
77.796,85.817,96.388,97.298,97.574,98.285,98.697,98.011
80.361,91.529,100.377,100.588,101.624,101.284,104.847,101.01
91.131,101.055,106.989,105.842,109.044,106.228,112.589,105.494
99.748,107.965,109.424,107.849,111.978,108.5,114.992,107.823
103.017,108.931,106.21,105.379,108.236,106.312,114.069,107.43
105.754,107.817,102.985,103.889,103.851,104.639,113.203,106.732
104.772,108.479,102.544,106.464,102.474,107.196,110.305,106.632
92.764,106.587,99.229,107.044,98.553,108.29,103.032,103.682
77.328,98.445,90.176,100.613,88.938,102.086,94.427,95.753
73.692,91.437,83.77,94.319,82.366,95.477,90.203,89.585
79.689,92.111,85.839,95.741,84.888,97.042,91.521,91.18
82.511,96.063,90.86,100.109,90.504,102.158,95.046,94.814
82.772,98.792,94.911,101.477,94.773,103.796,98.762,95.356
88.196,103.068,101.442,103.231,101.277,104.864,102.18,97.271
99.201,113.005,112.415,110.374,112.644,110.856,107.525,104.447
110.888,125.348,122.442,119.969,123.203,119.661,117.042,113.685
115.583,129.143,123.737,123.803,124.027,123.604,123.678,118.667
111.057,121.119,117.606,120.376,116.423,120.575,120.958,117.604
107.585,114.195,114.867,118.466,112.225,118.359,117.68,116.859
113.454,119.276,121.118,123.988,117.829,123.267,122.793,121.709
122.573,129.926,128.808,130.594,126.157,130.013,129.134,126.653
126.651,135.852,130.102,131.302,129.053,131.429,128.996,125.265
128.807,138.55,129.779,130.95,130.039,131.446,128.899,123.091
134.898,143.665,134.284,136.261,134.702,136.682,134.892,127.782
138.721,146.438,136.851,141.014,136.8,141.092,138.494,133.41
130.85,136.987,127.831,134.068,127.74,133.103,129.469,127.775
116.817,119.911,112.838,119.231,113.186,116.517,113.818,112.96
110.003,111.174,105.568,111.63,106.124,107.602,106.501,104.275
111.804,113.472,106.603,114.175,106.962,110.224,108.764,106.302
111.2,114.23,104.246,114.692,104.291,111.865,107.616,106.77
102.416,106.591,93.931,105.969,93.885,104.162,96.892,97.393
92.338,95.663,82.471,93.279,82.817,91.627,83.771,83.917
86.678,86.673,74.936,83.222,75.805,81.058,75.545,74.055
83.834,82.131,71.989,78.713,72.664,76.015,73.068,71.025
85.225,86.08,75.956,82.458,75.284,79.793,76.219,76.728
92.711,95.681,85.244,91.533,82.773,89.399,83.983,86.683
99.295,99.941,91.554,95.974,88.148,93.811,90.146,90.43
97.464,96.594,90.736,92.638,87.444,89.518,88.61,85.935
88.405,93.425,86.883,88.498,83.827,84.738,82.722,81.087
77.42,91.823,85.098,87.646,82.068,84.308,80.773,80.472
70.09,86.766,86.362,87.593,83.426,84.892,83.298,81.807
71.769,81.325,89.353,88.346,86.376,85.612,86.035,83.588
80.382,82.012,91.835,91.746,88.411,88.309,88.171,85.752
84.388,83.857,89.694,93.22,86.074,88.975,87.294,84.557
79.113,81.259,83.837,90.048,81.042,85.712,82.031,79.958
75.68,82.238,83.821,90.384,82.388,86.777,81.022,81.035
83.056,91.816,92.322,98.011,91.804,94.787,89.164,90.239
93.661,97.753,96.879,101.772,96.7,98.088,94.93,95.325
94.438,90.305,88.947,93.814,88.884,90.178,88.951,88.112
82.09,77.47,76.198,81.792,76.436,79.339,78.107,76.183
63.85,67.024,66.575,72.946,67.662,71.348,70.134,68.452
49.12,56.422,57.275,64.617,58.969,62.907,62.324,63.673
41.68,46.149,45.917,55.3,46.874,53.789,51.876,57.884
40.631,42.187,38.57,49.607,38.433,48.795,45.388,52.854
46.803,47.228,41.981,51.688,42.011,50.607,50.149,53.107
56.654,55.429,51.267,57.469,52.048,55.08,58.799,56.58
56.833,55.887,53.092,56.485,53.757,53.615,57.028,55.091
43.929,46.804,45.234,46.689,45.29,45.083,45.856,47.024
35.938,39.041,40.441,38.998,40.286,38.917,39.345,41.026
46.079,41.913,47.899,42.671,47.708,42.568,45.372,45.13
61.044,52.492,61.318,53.912,61.032,52.698,58.655,56.391
61.342,59.764,67.591,61.215,67.489,59.497,68.082,63.441
49.754,57.76,62.662,58.825,63.106,57.487,68.135,60.403
43.005,51.376,53.921,51.989,54.869,51.385,62.274,53.559
44.161,45.889,47.123,46.934,48.1,47.377,55.323,49.423
40.289,38.04,38.397,40.973,38.76,42.429,46.148,43.909
26.963,26.885,25.577,31.565,24.742,33.337,32.877,33.843
16.502,21.045,17.164,25.139,15.325,26.434,22.505,27.331
16.735,23.766,18.855,25.408,17.49,25.995,23.06,29.669
20.812,25.847,22.417,25.322,22.759,25.777,28.478,32.427
20.051,19.441,17.472,17.719,19.121,18.717,26.787,26.337
11.628,8.084,6.85,6.57,9.038,8.055,19.243,16.297
-0.683,2.541,2.251,3.022,4.678,4.659,15.667,14.684
-5.796,8.062,7.041,9.547,9.137,11.252,17.94,21.601
0.726,15.52,12.098,14.756,13.556,16.15,20.221,23.821
7.354,13.624,10.423,10.56,11.806,11.133,19.2,16.636
8.557,7.165,8.696,6.18,10.268,6.55,19.484,13.269
14.419,8.47,16.456,13.2,17.562,14.408,26.611,23.259
24.706,15.756,27.515,24.332,27.622,25.622,33.783,34.333
25.163,17.09,28.17,24.535,27.67,24.28,28.858,31.441
16.912,11.788,21.147,16.242,20.704,14.474,15.558,20.114
15.864,10.6,21.341,14.256,21.097,11.759,11.102,15.431
22.587,16.034,30.813,21.301,30.775,17.815,21.842,20.147
24.49,19.081,37.254,26.633,37.734,21.994,35.008,25.369
21.337,16.943,36.108,26.833,37.225,22.229,39.669,28.176
24.023,19.007,36.754,30.464,38.226,27.317,42.457,35.564
37.122,31.139,45.421,40.883,47.238,39.453,52.79,48.627
53.522,45.094,55.383,49.805,57.714,49.367,65.854,58.067
61.342,49.69,57.412,50.419,59.846,50.291,70.476,58.335
55.553,45.709,51.537,45.834,53.525,46.054,64.12,53.669
43.365,42.681,44.865,42.93,46.428,44.075,54.126,50.301
36.3,43.545,41.926,43.434,43.361,45.471,47.768,49.283
35.461,40.115,39.181,41.569,40.992,43.227,42.959,45.654
32.189,28.446,32.554,34.239,35.483,34.5,35.707,37.667
26.507,18.623,26.852,28.901,30.751,28.388,31.587,32.91
27.39,19.526,27.01,30.276,30.443,29.992,34.075,34.72
33.767,25.667,28.756,31.369,30.919,31.396,35.357,35.146
35.115,26.695,27.139,26.579,29.14,27.175,30.179,29.488
29.071,21.844,24.212,19.995,27.396,22.007,22.646,22.447
24.822,20.365,25.198,18.59,29.209,21.438,20.728,20.718
30.106,28.192,31.867,24.791,35.101,26.388,30.102,27.794
41.775,38.802,40.262,34.735,41.693,34.69,44.785,39.887
49.215,41.474,44.433,41.681,44.351,41.87,50.231,47.74
45.448,35.257,42.545,42.444,41.549,43.707,43.78,47.409
35.957,30.379,39.476,41.096,37.958,42.313,37.96,44.301
32.422,34.192,39.969,42.388,38.932,42.886,38.561,43.61
36.149,40.95,40.748,43.179,41.457,43.303,38.06,42.696
36.63,40.407,35.243,36.944,37.571,36.812,31.112,36.237
30.004,32.313,24.727,25.419,27.402,25.193,22.895,26.568
25.915,27.841,19.189,19.385,21.666,19.991,23.078,23.714
29.697,33.025,23.496,23.575,25.974,25.749,31.758,30.246
34.637,38.87,30.413,29.382,32.691,32.374,37.42,35.955
36.466,38.723,33.586,30.178,35.392,32.381,35.738,35.238
38.118,38.481,35.361,29.967,36.992,30.758,35.564,34.316
38.14,38.771,35.662,29.834,37.49,30.155,39.111,34.853
29.253,30.465,27.767,22.91,29.859,24.167,35.139,28.822
12.651,15.297,12.432,9.537,14.907,12.506,20.103,15.981
-0.168,5.612,0.286,-0.51,3.401,4.128,6.403,6.934
-4.741,1.929,-4.844,-4.611,-1.151,1.084,2.246,4.731
-7.575,-5.525,-9.34,-9.459,-5.641,-3.392,0.001,1.484
-13.537,-18.535,-17.667,-18.994,-14.429,-12.923,-10.538,-8.379
-22.561,-29.338,-26.465,-29.211,-23.378,-23.317,-25.56,-21.048
-32.326,-31.969,-29.81,-32.802,-26.134,-27.085,-31.484,-27.218
-37.342,-28.933,-27.907,-28.988,-23.792,-23.398,-25.258,-23.802
-34.484,-25.858,-26.611,-25.218,-23.325,-20.19,-18.457,-18.726
-30.779,-26.71,-30.039,-27.539,-27.947,-23.457,-20.117,-20.035
-32.638,-30.903,-34.989,-32.128,-32.558,-28.357,-24.526,-24.022
-33.312,-29.932,-33.788,-30.026,-29.83,-25.526,-20.657,-20.756
-28.246,-22.557,-28.655,-23.659,-23.827,-18.244,-12.345,-12.635
-27.482,-22.832,-31.103,-25.415,-26.445,-19.835,-14.477,-13.082
-36.042,-34.585,-40.153,-34.764,-36.118,-29.826,-25.722,-22.581
-41.766,-42.478,-42.115,-38.017,-39.068,-33.906,-28.607,-26.713
-37.458,-38.828,-34.902,-32.845,-32.914,-29.343,-20.72,-21.922
-32.549,-32.514,-29.62,-29.577,-28.159,-26.695,-17.226,-19.383
-31.661,-29.53,-28.835,-29.569,-27.306,-27.208,-20.474,-21.21
-28,-26.137,-24.71,-24.482,-22.854,-21.837,-17.744,-17.62
-22.109,-20.285,-17.555,-14.723,-15.835,-11.261,-9.225,-8.54
-23.933,-18.42,-19.022,-12.387,-18.517,-8.543,-10.857,-7.411
-35.183,-26.041,-31.882,-22.737,-32.685,-18.988,-26.347,-19.457
-44.959,-35.47,-41.191,-33.61,-42.029,-30.181,-38.499,-31.417
-46.642,-36.997,-37.825,-34.019,-38.039,-31.152,-36.253,-32.359
-46.31,-36.658,-33.714,-31.277,-33.917,-28.892,-30.346,-30.268
-50.288,-45.302,-40.361,-36.535,-40.869,-34.365,-33.488,-36.206
-56.725,-58.47,-50.633,-46.374,-50.653,-44.248,-42.604,-46.063
-61.235,-63.222,-52.77,-50.092,-51.528,-47.487,-47.15,-48.873
-63.254,-59.282,-49.141,-47.326,-46.916,-43.518,-44.185,-44.172
-64.255,-57.411,-49.997,-47.324,-47.332,-42.562,-40.092,-40.968
-64.324,-60.58,-57.057,-53.421,-53.866,-48.81,-40.986,-43.38
-64.565,-62.366,-64.352,-59.56,-60.405,-55.218,-45.542,-46.452
-66.373,-59.524,-68.466,-61.31,-63.687,-56.133,-48.765,-45.892
-68.515,-57.168,-71.725,-62.573,-66.22,-56.233,-51.153,-46.129
-70.961,-61.783,-77.552,-68.757,-72.126,-62.189,-57.928,-53.702
-75.657,-71.972,-84.172,-77.341,-80.054,-71.031,-69.482,-65.907
-81.98,-81.486,-87.26,-81.91,-85.002,-75.536,-80.071,-74.54
-89.609,-89.131,-89.028,-83.368,-88.316,-77.198,-86.663,-78.87
-104.158,-100.532,-98.5,-90.822,-98.832,-85.738,-94.754,-87.784
-130.078,-120.573,-120.163,-110.282,-121.047,-106.414,-112.244,-107.684
-157.381,-143.347,-144.885,-134.115,-145.795,-130.562,-135.835,-131.192
-166.68,-153.535,-156.752,-146.263,-157.446,-142.137,-149.372,-142.952
-157.462,-149.037,-154.716,-144.983,-155,-140.318,-147.895,-141.61
-154.617,-150.077,-157.37,-149.128,-156.511,-144.773,-150.077,-145.108
-167.499,-163.354,-170.541,-164.36,-168.233,-160.921,-164.075,-159.03
-172.822,-165.587,-173.339,-168.06,-171.092,-165.102,-168.369,-162.501
-157.585,-147.609,-155.807,-149.589,-155.616,-146.56,-150.655,-145.149
-140.15,-133.217,-137.718,-130.974,-139.631,-128.483,-131.206,-127.174
-135.787,-136.246,-134.586,-129.439,-136.996,-128.426,-129.634,-125.757
-135.232,-138.207,-134.973,-131.325,-137.013,-131.817,-135.787,-129.173
-127.744,-122.781,-124.919,-119.483,-127.157,-120.976,-129.656,-120.139
-118.671,-102.959,-111.242,-101.431,-113.886,-103.183,-113.228,-103.741
-113.109,-96.135,-104.904,-91.409,-107.07,-92.127,-101.273,-92.845
-105.496,-96.492,-102.002,-86.202,-103.208,-84.738,-94.141,-84.977
-92.02,-89.356,-94.142,-75.759,-94.741,-72.2,-82.558,-71.841
-78.182,-75.251,-82.628,-61.645,-82.638,-57.072,-67.367,-56.199
-72.505,-66.883,-75.297,-53.523,-74.525,-48.951,-57.002,-47.296
-73.845,-66.869,-72.645,-51.982,-71.936,-47.884,-52.583,-45.045
-69.416,-63.528,-65.428,-46.749,-66.209,-43.075,-47.058,-39.309
-53.37,-52.815,-50.295,-34.435,-52.585,-30.824,-35.723,-26.462
-39.808,-46.709,-37.081,-24.944,-39.248,-21.054,-23.538,-15.707
-45.582,-54.201,-35.517,-27.264,-36.532,-22.78,-20.922,-16.283
-62.821,-65.258,-41.33,-36.062,-41.985,-30.702,-27.51,-24.064
-65.617,-61.91,-40.139,-36.396,-41.307,-30.399,-27.927,-25.063
-48.309,-43.272,-25.98,-23.565,-26.977,-17.742,-14.102,-14.477
-36.269,-30.79,-14.132,-14.327,-13.852,-9.371,-2.512,-7.312
-47.749,-41.199,-22.975,-25.741,-21.683,-21.878,-12.546,-18.917
-65.102,-59.898,-42.317,-45.59,-41.083,-42.64,-33.545,-38.547
-62.819,-60.599,-45.804,-48.399,-44.841,-45.909,-38.213,-42.784
-46.988,-46.564,-33.371,-35.939,-32.264,-33.613,-25.037,-31.695
-42.496,-44.199,-30.073,-32.481,-29.226,-30.6,-19.297,-27.628
-51.516,-58.37,-43.631,-44.151,-44.056,-43.337,-32.097,-39.139
-51.802,-62.928,-51.06,-48.86,-52.934,-49.587,-43.208,-47.353
-37.048,-43.57,-36.953,-32.712,-39.445,-35.252,-34.403,-36.864
-25.366,-21.071,-18.229,-12.596,-20.724,-16.794,-17.437,-19.964
-22.559,-15.546,-12.87,-7.035,-15.654,-12.166,-11.02,-13.922
-16.814,-18.716,-14.021,-9.872,-17.292,-15.348,-13.057,-15.995
-7.124,-16.093,-10.518,-7.726,-13.592,-13.42,-12.341,-14.905
-5.083,-12.155,-7.602,-3.576,-9.988,-9.262,-9.971,-10.982
-14.336,-18.202,-13.953,-8.2,-15.959,-13.41,-14.256,-12.944
-22.713,-26.963,-21.581,-16.741,-23.436,-21.305,-21.02,-18.951
-16.042,-20.982,-15.127,-12.9,-17.021,-17.359,-15.916,-15.865
2.163,-2.641,2.801,3.603,0.196,-1.365,1.08,-1.927
11.952,5.206,12.078,12.844,8.567,7.611,10.377,6.241
4.845,-7.397,4.586,4.948,1.007,-0.027,2.137,-0.301
-2.339,-20.193,-2.752,-3.773,-5.735,-8.55,-6.618,-7.393
3.608,-13.58,4.397,1.33,1.987,-3.22,-0.015,-2.293
9.144,-0.612,14.544,8.898,12.654,5.127,10.789,4.736
-1.995,-4.22,10.326,2.515,8.741,-0.178,7.347,-1.365
-19.608,-17.541,-2.401,-10.301,-4.217,-12.03,-6.065,-13.781
-22.842,-17.998,-5.407,-11.355,-7.475,-12.258,-11.22,-14.709
-14.298,-8.066,0.341,-3.731,-1.515,-4.19,-6.031,-6.435
-13.374,-8.715,-2.222,-5.732,-3.847,-6.384,-6.423,-7.386
-22.968,-23.264,-16.418,-19.905,-18.054,-21.18,-19.537,-21.303
-27.598,-33.781,-26.354,-30.004,-27.874,-32.088,-31.326,-32.901
-20.552,-29.106,-22.248,-26.333,-23.389,-29.119,-29.323,-31.876
-12.662,-19.297,-15.104,-18.503,-15.771,-21.338,-23.179,-25.198
-12.956,-16.697,-16.675,-18.13,-16.995,-20.366,-25.859,-23.203
-16.712,-19.05,-21.279,-22.362,-21.716,-24.072,-31.968,-25.123
-15.192,-18.857,-19.168,-22.398,-20.026,-24.071,-29.939,-24.008
-8.565,-16.511,-12.801,-18.574,-13.511,-20.749,-21.298,-19.588
-6.687,-19.012,-12.031,-19.805,-11.761,-22.947,-18.391,-19.83
-13.92,-25.671,-19.152,-27.906,-18.32,-31.801,-25.962,-27.246
-20.146,-25.721,-25.347,-32.548,-25.397,-36.374,-33.647,-32.487
-14.812,-15.296,-21.738,-26.157,-22.928,-29.544,-29.745,-26.919
-0.913,-2.086,-9.95,-13.9,-11.14,-16.973,-16.386,-14.301
8.29,3.919,-2.475,-8.218,-3.237,-11.074,-8.5,-7.99
3.825,-1.877,-7.714,-14.681,-8.52,-17.634,-14.268,-15.066
-6.971,-12.115,-16.348,-23.149,-17.225,-26.427,-22.532,-25.184
-9.925,-13.756,-14.908,-20.469,-15.649,-23.327,-20.729,-23.9
-4.758,-6.227,-6.664,-9.63,-7.577,-11.241,-13.671,-12.851
-1.186,-0.631,-3.045,-3.427,-4.532,-4.579,-10.683,-4.786
1.018,-0.327,-2.476,-2.676,-4.416,-4.857,-8.203,-2.6
9.153,1.41,3.995,1.948,1.899,-1.326,0,1.753
21.411,7.649,14.297,11.11,11.87,7.7,9.45,10.154
27.481,13.6,18.444,16.209,15.461,13.118,12.683,14.628
23.698,14.69,15.407,14.573,12.46,11.699,9.972,11.155
22.307,15.482,16.905,15.157,15.038,12.385,9.87,8.667
33.744,23.346,29.026,24.195,28.623,21.496,18.423,16.179
44.811,33.409,39.239,32.669,39.588,29.959,27.455,25.935
39.899,34.358,36.204,30.62,36.222,27.84,26.208,25.6
31.704,29.585,30.992,26.138,30.26,23.24,22.294,21.612
41.654,35.134,41.313,35.14,40.147,31.856,33.109,31.033
64.088,52.162,62.311,54.776,61.181,51.038,55.262,51.73
75.105,61.815,71.595,63.896,70.651,60.103,64.415,61.142
67.79,55.638,62.783,54.822,61.715,51.406,52.865,50.6
59.564,49.648,53.949,45.446,52.586,42.861,42.032,39.662
65.033,57.297,58.61,50.526,57.525,49.021,48.942,45.156
75.853,67.613,67.128,60.085,66.986,59.099,61.625,56.375
76.524,66.076,65.368,59.455,65.835,58.225,59.681,56.043
66.94,57.447,55.437,51.546,55.527,50.113,45.24,46.317
57.195,51.921,47.866,45.843,47.362,44.62,35.582,39.4
52.162,49.279,45.08,42.91,44.708,41.748,34.616,38.015
48.274,44.512,40.197,37.254,40.346,35.728,31.398,34.537
42.785,37.859,31.651,28.845,31.769,26.971,23.792,26.359
44.175,38.057,31.325,28.125,30.693,26.054,24.613,23.971
58.527,49.549,44.76,39.939,43.369,37.441,37.106,32.735
70.24,60.412,56.415,50.712,54.731,47.845,45.111,40.571
64.827,59.782,54.252,49.367,52.425,47.083,40.414,39.044
55.862,55.65,48.82,44.752,46.902,43.717,35.985,36.959
58.211,57.117,49.642,45.324,48.205,44.912,39.59,39.692
59.137,55.022,46.425,41.707,45.995,41.134,37.956,36.061
42.695,37.2,28.979,23.966,29.126,23.439,19.109,17.355
16.993,8.562,4.13,-2.232,3.879,-2.354,-8.79,-9.116
-0.124,-14.941,-14.852,-23.836,-15.919,-24.181,-28.794,-30.203
-5.009,-24.665,-22.161,-33.174,-23.518,-34.487,-34.21,-38.525
-8.878,-26.921,-23.032,-34.067,-23.698,-35.897,-33.669,-37.625
-18.438,-30.358,-25.814,-36.019,-25.354,-37.506,-37.501,-37.489
-24.789,-32.172,-30.45,-39.948,-29.246,-41,-42.773,-40.829
-20.002,-26.17,-30.935,-38.479,-29.202,-39.185,-40.71,-40.841
-16.123,-20.078,-30.521,-34.589,-28.109,-34.563,-36.548,-38.504
-27.919,-28.568,-40.532,-41.921,-38.069,-40.747,-44.841,-46.085
-41.927,-44.072,-55.315,-55.684,-54.007,-53.452,-59.135,-59.864
-34.603,-42.161,-53.032,-53.109,-52.809,-50.508,-55.018,-57.354
-12.268,-20.82,-30.269,-31.053,-29.791,-28.654,-30.48,-34.054
1.921,-1.99,-7.146,-9.656,-6.026,-7.258,-8.298,-10.448
1.115,-0.546,-0.355,-3.837,0.549,-1.032,-3.336,-3.338
-9.54,-14.961,-11.395,-14.124,-10.946,-10.897,-14.806,-13.533
-25.789,-36,-30.922,-33.49,-30.324,-30.157,-35.396,-32.934
-40.979,-53.454,-46.207,-52.251,-45.2,-49.47,-54.027,-51.701
-46.866,-61.46,-51.168,-62.782,-49.933,-60.92,-61.729,-62.279
-42.223,-59.525,-48.581,-63.139,-47.155,-61.384,-58.8,-62.088
-34.67,-50.027,-42.715,-57.059,-40.943,-54.544,-51.584,-54.73
-33.2,-40.476,-38.24,-53.135,-36.195,-50.708,-46.501,-49.207
-39.52,-41.388,-41.947,-59.089,-39.924,-58.094,-49.051,-53.62
-47.69,-53.42,-53.443,-71.11,-51.471,-71.16,-58.47,-64.363
-50.843,-62.637,-60.104,-74.945,-58.113,-74.869,-62.88,-67.289
-44.493,-54.44,-51.112,-61.651,-49.245,-61.457,-51.982,-54.8
-30.372,-33.683,-33.61,-40.265,-31.931,-40.456,-34.339,-36.991
-17.922,-21.346,-24.9,-28.472,-23.38,-28.599,-27.209,-29.186
-12.328,-23.739,-28.365,-29.008,-27.011,-28.263,-31.227,-31.574
-8.727,-24.121,-30.767,-28.282,-29.314,-26.665,-32.165,-31.306
-3.315,-11.693,-22.985,-18.303,-20.889,-16.298,-22.791,-20.985
0.496,2.437,-11.734,-7.026,-8.831,-4.812,-10.887,-7.758
-1.758,3.528,-8.736,-6.388,-5.396,-4.063,-7.786,-4.47
-5.595,-3.859,-11.134,-13.559,-7.49,-11.731,-10.822,-10.16
3.175,0.757,-2.172,-10.895,1.83,-10.491,-4.18,-7.748
26.417,21.09,20.452,6.445,24.368,4.964,14.562,8.077
40.552,31.676,34.497,18.297,37.839,15.3,25.184,18.025
31.127,19.901,28.397,12.832,30.946,9.109,17.617,10.977
20.708,9.728,21.5,8.05,22.989,4.343,10.713,5.069
30.43,18.688,29.787,19.29,30.434,16.427,20.009,15.817
43.009,30.333,40.478,32.994,40.997,31.616,32.977,30.474
36.799,27.584,37.925,31.989,38.648,31.958,33.897,32.4
24.693,20.466,30.221,23.974,31.479,24.944,30.355,28.306
28.94,26.099,32.573,25.543,35.191,27.283,36.523,33.138
44.134,40.508,39.835,32.976,44.131,34.86,45.761,42.205
50.184,47.519,36.221,30.988,41.508,32.624,41.874,40.047
43.47,43.432,21.796,19.408,27.124,21.221,27.003,27.638
37.363,37.935,11.787,12.647,16.474,14.9,18.14,21.001
39.321,38.255,15.199,18.651,18.962,20.925,22.301,27.394
41.254,39.601,23.332,28.186,26.06,30.133,28.523,35.019
37.795,35.729,25.091,30.452,26.519,32.248,27.159,32.468
37.142,33.43,26.112,31.288,26.343,33.125,26.04,28.003
42.234,40.672,35.506,39.666,35.563,41.535,34.517,33.171
42.124,48.32,43.535,46.48,44.506,48.65,42.026,39.802
31.651,40.944,34.991,36.858,37.18,39.722,32.917,33.032
21.002,21.393,16.908,16.796,20.322,20.239,15.64,17.786
22.171,10.608,11.247,8.52,15.878,12.134,12.574,13.522
35.033,19.137,23.036,18.953,28.425,22.339,25.209,24.752
44.43,31.336,33.669,29.21,39.061,31.696,33.232,33.379
38.068,30.29,30.172,24.088,34.983,25.146,27.331,27.02
28.488,23.776,23.938,15.309,27.74,15.42,21.084,18.324
33.536,26.239,27.06,18.036,29.685,18.307,24.023,20.922
42.216,32.049,30.137,24.028,31.877,25.078,25.314,25.703
31.739,27.096,20.245,18.402,21.528,20.329,14.951,18.776
5.113,11.459,1.459,3.185,2.811,6.071,0.353,3.681
-16.543,-4.662,-14.894,-10.633,-12.476,-6.967,-8.017,-7.666
-25.124,-16.343,-26.793,-19.992,-22.627,-15.854,-12.886,-13.168
-27.97,-24.859,-39.022,-29.06,-33.795,-24.185,-23.047,-20.1
-29.955,-31.083,-51.691,-39.087,-46.556,-33,-38.57,-31.739
-28.82,-34.943,-59.634,-46.134,-54.813,-39.148,-49.906,-41.681
-22.442,-34.805,-58.019,-45.319,-53.254,-38.547,-48.063,-41.23
-14.258,-28.948,-47.528,-36.794,-43.004,-31.284,-35.932,-31.447
-13.148,-23.599,-37.725,-29.09,-33.785,-25.268,-27.373,-24.041
-21.542,-26.384,-36.13,-28.86,-33.209,-26.774,-28.763,-24.981
-26.854,-30.019,-35.605,-29.754,-34.334,-29.346,-29.499,-25.618
-22.201,-25.274,-28.955,-25.149,-28.995,-25.683,-22.894,-20.07
-23.693,-23.608,-27.799,-24.905,-27.777,-24.685,-23.358,-20.375
-42.749,-39.13,-44.502,-39.909,-43.9,-37.71,-42.267,-37.172
-63.589,-62.072,-67.153,-59.949,-66.435,-56.33,-64.61,-57.853
-69.891,-73.603,-75.989,-67.785,-75.073,-63.971,-71.413,-64.357
-67.573,-72.706,-71.849,-64.551,-70.324,-60.726,-66.067,-59.447
-68.012,-71.934,-68.598,-63.809,-66.781,-59.75,-62.074,-57.93
-68.248,-72.306,-67.332,-66.757,-65.882,-63.208,-59.046,-60.744
-60.404,-62.758,-57.646,-61.546,-56.801,-59.345,-47.656,-55.435
-49.056,-46.074,-41.172,-47.522,-40.928,-46.305,-31.81,-41.264
-44.078,-37.929,-33.034,-38.829,-33.564,-38.028,-26.411,-32.978
-44.796,-40.319,-38.563,-41.202,-40.018,-41.013,-34.652,-37.021
-39.521,-37.888,-43.549,-41.985,-45.498,-42.296,-41.093,-40.842
-19.315,-19.357,-32.558,-27.725,-34.037,-27.562,-30.814,-30.192
6.91,6.201,-11.206,-4.197,-11.811,-2.956,-10.237,-9.247
20.014,19.341,1.355,10.979,0.824,12.818,2.044,5.19
15.476,14.862,0.032,12.138,-1.199,13.883,1.717,6.476
9.132,7.871,-1.268,10.552,-2.744,11.883,2.494,5.301
14.078,13.055,7.846,16.876,6.881,17.272,13.515,12.983
22.57,24.709,20.055,26.686,19.493,25.624,24.96,24.149
22.932,27.851,24.359,29.71,23.746,27.933,24.816,26.098
20.115,23.549,23.831,27.88,22.769,26.85,19.656,21.383
23.661,25.036,29.08,31.724,26.921,31.648,24.714,24.487
30.21,31.892,38.838,40.257,35.285,40.405,37.833,35.837
31.911,30.444,40.954,40.493,36.882,40.729,42.079,39.04
31.433,22.474,36.089,32.267,32.943,32.662,37.349,30.99
35.925,26.358,39.765,32.34,38.219,32.402,41.752,30.164
44.365,43.352,53.592,44.991,53.045,44.244,56.002,43.802
49.66,52.18,59.364,52.359,58.782,50.859,60.09,53.404
46.879,43.648,49.105,43.822,48.093,41.983,49.462,46.377
39.397,35.1,38.909,34.239,37.664,32.431,43.193,38.086
39.162,43.348,45.709,41.87,44.391,40.027,54.197,47.3
52.656,62.13,65.302,63.146,63.988,61.133,73.598,68.692
69.317,74.253,80.283,79.982,79.141,78.233,85.908,83.38
75.685,74.761,82.211,83.962,81.186,83.027,87.568,85.151
73.954,74.14,78.694,83.595,77.526,83.431,86.583,84.342
73.949,79.266,78.829,87.168,77.87,87.46,88.55,88.219
75.425,81.6,80.006,89.479,80.145,90.028,90.368,90.58
71.665,74.007,75.524,83.909,76.911,84.455,87.473,85.395
66.217,65.691,68.682,76.787,70.27,76.978,82.212,78.575
71.062,68.081,69.532,78.552,69.996,78.108,82.688,79.683
83.808,76.93,78.297,86.602,77.152,85.433,89.969,87.397
86.709,79.546,84.307,89.093,82.039,87.324,94.166,90.89
77.054,75.63,84.62,84.558,81.694,82.164,91.613,86.817
74.277,77.647,89.025,84.64,85.315,81.105,92.33,85.222
89.754,89.782,103.002,96.184,98.47,91.228,102.5,94.194
107.385,100.111,116.219,109.588,111.505,104.184,112.241,105.927
104.119,97.082,114.591,110.629,110.469,106.523,109.822,106.493
83.514,85.439,101.219,101.093,97.94,99.273,99.787,96.765
70.681,79.501,93.242,95.781,90.673,95.627,95.296,90.713
74.03,82.351,95.457,98.394,93.464,98.47,96.99,92.536
75.599,81.537,93.306,95.881,91.972,95.471,92.775,90.307
64.083,69.732,79.178,81.957,78.739,81.159,79.816,77.893
51.879,56.339,66.829,69.759,66.931,68.438,70.746,67.576
50.272,51.652,67.929,70.073,67.418,67.943,71.986,69.228
54.329,53.741,74.521,74.359,72.966,71.604,74.746,73.804
57.903,54.616,75.149,71.058,73.546,67.844,71.729,69.923
61.643,51.027,70.666,62.708,69.873,58.986,65.88,60.922
66.049,48.34,68.041,58.713,67.996,55.008,63.058,56.529
66.573,50.308,67.916,60.346,68.564,57.512,64.149,57.826
58.621,50.174,63.889,59.963,65.436,58.345,64.107,57.339
46.66,42.564,53.485,53.403,55.762,53.073,58.522,50.779
41.541,34.807,44.063,46.5,46.53,47.345,50.504,43.707
46.748,35.296,42.857,45.461,45.275,46.728,48.185,43.422
52.205,38.549,45.41,45.717,48.071,46.607,52.153,46.062
47.031,34.237,42.977,39.429,45.933,39.879,52.099,41.883
35.189,24.494,36.772,29.166,39.334,29.173,43.314,31.858
29.137,19.505,34.884,23.859,36.646,22.972,35.988,26.371
29.583,19.909,37.171,24.299,38.715,22.509,36.866,27.811
23.791,15.36,33.265,21.529,35.28,19.659,34.979,25.874
9.65,5.215,22.436,14.314,25.015,12.901,24.427,17.043
4.057,3.936,19.647,15.048,22.543,13.705,20.907,14.598
14.85,15.33,29.159,27.291,32.062,25.839,31.565,25.138
25.687,24.128,34.792,36.059,37.178,35.172,38.023,33.776
19.774,19.072,25.456,29.695,26.933,29.747,27.389,26.678
1.478,5.384,9.282,15.235,10.474,15.931,11.29,11.579
-11.41,-4.001,0.548,7.907,2.523,9.228,7.313,5.961
-8.923,-1.406,5.1,13.814,7.779,15.963,17.588,14.432
2.425,7.55,16.74,25.02,19.102,27.747,29.126,25.812
13.328,12.314,25.504,31.48,27.128,34.129,32.874,30.546
24.541,15.601,31.531,35.887,32.841,37.823,35.732,33.755
34.82,26.311,41.13,46.124,42.342,47.358,45.811,43.815
35.327,37.474,50.428,56.898,51.392,58.404,56.487,55.038
28.496,37.279,51.524,58.257,52.649,61.2,59.088,57.045
26.072,31.522,47.917,54.018,50.08,58.845,57.53,53.304
31.043,33.383,48.199,54.311,51.664,60.757,59.825,54.675
38.364,41.791,51.216,57.525,55.388,64.904,64.462,59.507
40.986,44.751,48.412,53.71,52.519,60.971,62.437,56.141
37.448,41.49,41.046,45.033,44.747,51.301,54.053,46.617
36.373,43.946,40.538,44.7,43.81,50.002,51.211,45.911
41.667,52.386,47.244,52.726,49.855,57.601,56.616,54.352
42.839,49.905,46.299,52.724,47.861,57.173,56.715,53.903
31.314,29.766,30.615,37.103,31.084,40.492,42.805,36.072
13.933,9.566,13.46,20.069,13.191,22.076,25.814,16.123
2.794,5.104,8.876,16.528,8.248,17.638,18.966,10.12
-0.244,7.859,11.268,19.807,10.171,20.544,16.716,11.708
-5.116,1.788,6.342,13.813,4.193,13.957,6.085,5.345
-17.91,-12.206,-7.078,-1.955,-10.515,-2.973,-11.672,-9.767
-29.905,-20.92,-18.489,-14.409,-22.742,-16.598,-25.233,-22.1
-32.699,-21.18,-23.447,-18.981,-27.831,-21.716,-30.47,-26.541
-31.535,-22.212,-27.584,-23.734,-31.769,-26.475,-33.557,-29.32
-33.172,-27.228,-34.21,-32.094,-38.417,-34.648,-40.252,-35.302
-36.232,-30.696,-38.94,-37.464,-43.275,-39.597,-47.879,-40.523
-39.543,-31.433,-38.491,-36.347,-42.328,-37.796,-49.469,-40.34
-46.004,-34.311,-37.38,-34.779,-40.367,-35.678,-44.336,-37.878
-54.176,-41.018,-41.034,-38.509,-43.802,-39.206,-40.234,-39.383
-58.114,-47.615,-48.433,-45.688,-51.034,-46.064,-43.401,-45.862
-56.658,-50.487,-55.63,-51.853,-56.834,-51.262,-50.513,-52.575
-53.821,-49.946,-60.463,-55.371,-59.837,-53.576,-54.558,-54.966
-54.615,-51.117,-65.012,-59.142,-63.958,-56.821,-57.469,-56.01
-62.058,-58.27,-72.534,-66.139,-72.52,-64.02,-65.819,-61.725
-71.845,-66.32,-79.626,-72.804,-80.886,-71.051,-75.213,-69.238
-75.898,-68.498,-80.015,-73.967,-81.822,-72.556,-75.403,-70.938
-75.053,-68.548,-76.058,-72.107,-77.281,-71.12,-68.618,-68.067
-77.966,-73.196,-76.384,-74.309,-76.445,-73.978,-67.577,-69.251
-84.452,-78.31,-81.17,-79.445,-80.723,-79.809,-74.163,-74.887
-83.724,-73.859,-79.68,-76.913,-79.648,-77.48,-74.385,-73.753
-71.315,-58.572,-66.064,-62.755,-66.49,-63.088,-60.417,-60.489
-55.763,-42.687,-49.993,-48.111,-50.455,-48.385,-44.509,-46.485
-48.257,-37.499,-45.007,-45.407,-45.35,-45.842,-42.388,-45.491
-48.314,-41.089,-48.58,-50.615,-48.908,-50.973,-50.595,-53.067
-43.001,-39.158,-45.273,-48.348,-45.858,-48.458,-51.308,-51.703
-28.141,-27.09,-31.81,-35.341,-32.649,-35.342,-39.296,-37.8
-19.115,-18.996,-23.235,-26.272,-23.797,-26.109,-30.3,-28.084
-25.698,-24.503,-28.568,-30.623,-28.838,-30.136,-34.977,-32.752
-34.641,-32.503,-36.517,-37.623,-37.274,-36.921,-41.088,-39.615
-34.697,-31.505,-35.537,-35.907,-36.923,-35.178,-36.804,-36.718
-33.383,-27.193,-31.335,-31.501,-32.932,-30.855,-30.612,-31.131
-35.754,-26.485,-32.472,-32.384,-34.554,-31.742,-31.898,-31.777
-36.687,-26.831,-36.705,-35.591,-39.259,-34.515,-35.805,-35.102
-35.925,-26.977,-39.056,-37.111,-40.712,-35.271,-36.263,-35.794
-37.934,-29.524,-40.624,-38.978,-40.394,-36.735,-36.446,-36.298
-42.637,-34.276,-45.322,-44.475,-43.949,-42.685,-41.26,-41.583
-44.545,-37.54,-50.941,-50.768,-49.731,-49.939,-46.498,-48.779
-37.475,-35.511,-49.724,-50.322,-49.221,-49.962,-44.366,-48.592
-21.694,-26.739,-39.914,-41.482,-39.935,-40.809,-36.822,-39.141
-10.278,-17.675,-31.547,-33.799,-31.991,-32.921,-33.903,-31.655
-18.036,-20.248,-34.692,-36.893,-35.713,-36.499,-40.155,-35.811
-36.398,-31.424,-43.219,-45.053,-44.43,-45.304,-48.075,-44.394
-42.553,-34.591,-43.664,-46.287,-44.127,-46.76,-48.714,-45.566
-38.247,-31.731,-39.715,-45.101,-39.079,-45.552,-46.277,-44.159
-44.425,-41.228,-47.698,-55.923,-46.779,-56.409,-53.6,-53.822
-60.768,-61.482,-67.925,-76.381,-67.865,-76.865,-72.482,-73.289
-68.996,-72.713,-82.677,-89.356,-83.551,-89.868,-89.029,-87.017
-66.586,-69.911,-83.241,-89.107,-83.885,-89.893,-92.827,-87.992
-66.803,-65.738,-78.974,-85.659,-78.435,-86.774,-89.627,-84.982
-74.253,-68.401,-79.172,-86.48,-77.884,-87.61,-89.258,-86.075
-79.511,-74.38,-82.165,-89.173,-81.55,-89.816,-92.167,-88.269
-77.479,-78.28,-83.739,-90.519,-84.596,-90.562,-93.653,-87.049
-76.675,-80.763,-85.452,-92.696,-86.887,-93.069,-92.76,-85.975
-83.191,-85.88,-90.509,-98.164,-91.201,-99.873,-92.075,-89.904
-90.714,-93.359,-97.026,-103.887,-96.922,-106.393,-93.041,-95.947
-92.039,-95.767,-98.819,-103.611,-98.508,-105.562,-92.75,-96.297
-87.008,-86.612,-92.313,-94.968,-91.962,-95.95,-87.654,-87.877
-81.982,-72.488,-84.056,-85.103,-83.824,-85.292,-82.531,-78.887
-84.083,-66.506,-83.724,-82.598,-83.756,-81.968,-84.327,-78.481
-89.274,-69.575,-88.177,-84.357,-87.917,-83.372,-88.747,-81.987
-86.191,-72.137,-86.782,-82.273,-85.57,-81.86,-87.8,-80.043
-74.203,-69.989,-79.042,-76.428,-77.415,-76.846,-82.637,-73.869
-64.339,-67.451,-73.43,-72.144,-72.743,-72.869,-79.159,-69.881
-61.975,-66.756,-71.84,-69.947,-72.296,-70.201,-77.677,-68.005
-61.467,-63.217,-67.223,-65.377,-67.547,-64.605,-73.046,-63.512
-60.496,-57.313,-60.054,-59.958,-59.585,-58.345,-66.227,-58.073
-64.653,-59.988,-61.629,-62.935,-60.919,-61.1,-67,-59.888
-75.697,-73.993,-73.502,-75.317,-72.741,-73.664,-77.741,-69.758
-84.911,-83.536,-81.01,-83.422,-79.899,-82.3,-85.53,-76.321
-78.051,-73.917,-71.99,-74.371,-70.714,-74.282,-77.112,-68.289
-53.246,-50.543,-50.668,-51.32,-49.38,-52.33,-54.967,-47.783
-32.112,-32.989,-34.072,-32.303,-32.141,-33.44,-37.552,-31.068
-32.778,-33.319,-34.682,-31.577,-31.602,-31.674,-38.61,-31.113
-42.089,-41.581,-44.229,-41.02,-40.77,-40.155,-47.124,-39.659
-40.594,-40.973,-46.261,-43.125,-43.721,-42.255,-46.918,-40.387
-34.581,-32.938,-41.33,-38.342,-40.036,-37.984,-43.129,-35.013
-37.305,-30.97,-41.617,-39.468,-41.078,-39.474,-45.854,-36.228
-43.062,-36.551,-48.516,-47.36,-48.289,-47.22,-50.938,-43.735
-41.149,-37.929,-52.16,-50.819,-51.909,-49.836,-50.877,-46.483
-38.178,-33.992,-51.406,-49.086,-50.737,-46.86,-49.641,-44.817
-49.65,-41.444,-59.198,-57.385,-57.742,-54.371,-59.646,-53.187
-73.615,-65.448,-79.442,-80.255,-77.135,-77.363,-81.898,-75.078
-90.219,-85.717,-95.938,-99.53,-93.209,-97.293,-99.486,-93.49
-89.044,-86.745,-96.581,-101.385,-94.048,-99.824,-101.182,-95.354
-81.402,-80.168,-92.796,-96.461,-90.702,-94.833,-98.503,-90.209
-83.056,-82.644,-98.968,-99.382,-97.05,-96.41,-104.168,-92.042
-90.712,-86.777,-103.967,-101.449,-101.98,-97.168,-106.523,-92.757
-85.829,-74.97,-87.656,-84.972,-85.898,-81.258,-88.372,-75.758
-66.156,-53.004,-57.135,-56.711,-55.907,-55.087,-59.245,-48.23
-52.415,-43.354,-39.014,-42.132,-37.643,-42.297,-43.819,-34.713
-52.425,-48.286,-39.268,-47.155,-36.504,-48.03,-44.228,-40.572
-47.787,-47.125,-37.066,-49.597,-32.866,-50.747,-39.454,-44.015
-30.737,-33.405,-23.191,-37.668,-19.139,-39.116,-24.911,-32.87
-20.519,-26.469,-16.078,-30.414,-13.192,-31.891,-21.462,-25.36
-29.721,-38.392,-28.372,-43.189,-25.931,-44.367,-37.916,-37.401
-41.83,-52.032,-42.636,-57.966,-40.082,-58.829,-53.812,-52.495
-35.735,-45.691,-37.184,-50.716,-35.241,-51.494,-49.611,-47.041
-20.184,-29.268,-22.185,-32.597,-21.29,-33.783,-36.278,-30.929
-20.48,-28.997,-23.178,-31.954,-22.565,-33.922,-36.524,-31.218
-36.522,-43.933,-39,-47.765,-38.182,-50.302,-49.746,-47.298
-47.126,-54.195,-49.481,-58.571,-49.059,-61.476,-59.553,-58.993
-47.18,-57.367,-51.187,-61.128,-51.403,-64.427,-62.741,-63.487
-51.533,-65.893,-57.565,-68.811,-57.765,-71.999,-70.148,-73.299
-68.597,-82.895,-72.995,-85.143,-72.935,-87.849,-84.491,-89.664
-87.34,-98.166,-85.855,-98.538,-86.089,-101.432,-94.176,-99.919
-91.865,-100.673,-85.745,-98.128,-86.948,-101.634,-91.864,-96.56
-82.212,-89.614,-76.21,-86.224,-78.898,-89.664,-85.074,-85.745
-70.667,-74.396,-66.928,-73.296,-71.067,-76.114,-81.693,-76.848
-60.034,-60.9,-57.828,-61.804,-62.304,-64.203,-75.722,-68.289
-45.975,-47.354,-43.608,-47.448,-46.917,-49.603,-60.161,-53.577
-35.07,-37.129,-31.406,-36.007,-33.173,-37.756,-44.741,-39.477
-39.713,-40.145,-36.025,-40.657,-37.151,-41.916,-46.411,-41.599
-61.098,-59.802,-59.023,-62.577,-60.199,-63.196,-67.289,-62.345
-82.639,-81.597,-80.421,-82.372,-81.313,-81.932,-86.462,-81.294
-82.08,-81.065,-76.272,-76.587,-76.555,-75.073,-79.289,-74.012
-56.254,-53.403,-47.732,-46.202,-47.983,-44.266,-48.177,-42.875
-25.175,-21.638,-19.034,-15.777,-19.731,-13.895,-18.098,-14.083
-7.708,-5.006,-4.092,-0.34,-4.687,1.491,-2.18,-1.49
-1.508,3.613,5.754,9.283,5.669,11.067,8.075,6.169
7.744,18.229,19.727,24.342,19.674,26.133,21.574,20.068
23.363,35.514,33.734,40.571,33.568,42.693,35.558,34.837
36.284,44.131,41.668,48.986,41.809,51.322,45.621,42.177
41.835,44.43,45.57,49.943,45.67,51.521,53.315,43.912
44.674,46.829,52.242,52.072,51.3,52.3,61.718,47.695
45.805,52.794,61.67,58.194,59.744,57.499,68.993,54.451
39.494,50.594,63.811,58.911,62.217,57.431,68.895,54.942
29.067,37.594,54.733,50.029,53.894,47.516,60.431,45.697
27.083,28.37,44.949,42.421,43.397,39.48,50.591,37.065
37.335,34.436,45.106,45.493,41.592,42.671,45.04,37.398
46.119,46.821,50.317,51.825,45.428,48.383,41.573,40.203
36.709,45.578,46.974,47.516,42.089,43.06,34.985,35.239
17.839,30.721,37.264,36.849,33.268,32.521,29.081,27.945
15.813,24.908,37.97,38.204,35.095,34.878,33.457,32.293
31.832,35.811,50.402,52.178,48.404,49.261,44.474,45.451
40.048,42.968,55.071,57.786,53.223,54.565,45.814,48.798
28.479,31.33,41.56,45.039,38.911,41.652,32.061,35.746
13.339,14.351,25.03,29.811,21.466,26.536,17.419,22.059
10.973,10.547,22.442,27.928,18.963,24.763,15.898,21.898
15.81,15.216,27.012,32.765,24.028,29.898,22.6,27.868
12.914,11.347,20.333,27.808,17.078,25.608,20.365,23.148
-0.454,-4.1,-0.135,9.49,-3.712,7.882,2.851,4.551
-13.749,-17.144,-17.356,-8.249,-20.238,-9.827,-14.894,-12.754
-20.388,-18.222,-19.032,-13.098,-20.799,-14.943,-17.642,-16.253
-24.361,-15.745,-14.3,-11.437,-15.387,-13.324,-12.067,-13.343
-26.831,-19.912,-15.968,-15.007,-16.826,-16.795,-12.238,-16.003
-22.401,-24.785,-18.675,-19.57,-19.474,-21.363,-14.789,-19.385
-10.291,-17.826,-9.311,-11.949,-9.938,-13.652,-6.457,-10.668
2.027,-2.408,7.689,4.523,7.42,3.22,9.408,5.708
6.715,2.598,13.501,9.939,13.527,9.214,14.155,10.186
4.691,-6.697,5.593,0.034,5.535,-0.364,3.688,-0.389
4.613,-8.234,3.758,-3.798,3.065,-4.5,-2.745,-5.278
8.625,7.554,15.681,9.172,13.976,7.817,6.465,5.655
7.496,17.204,22.821,19.302,20.472,17.499,16.282,14.833
-0.112,6.668,15.193,12.857,13.22,10.895,14.258,9.946
-2.497,-4.329,7.619,5.36,6.392,3.641,10.484,4.218
1.86,-1.322,8.186,7.784,7.09,6.87,11.271,6.186
0.056,1.236,3.704,5.245,2.769,5.099,4.662,2.037
-13.483,-10.245,-14.044,-12.55,-14.013,-12.695,-15.317,-16.391
-28.142,-25.097,-31.878,-30.167,-31.126,-30.696,-33.211,-33.723
-30.664,-26.896,-34.041,-30.278,-33.48,-30.608,-32.502,-33.579
-21.39,-16.809,-23.534,-17.757,-22.944,-17.412,-18.38,-20.998
-11.69,-7.233,-14.459,-8.423,-13.206,-8.122,-7.669,-11.779
-6.892,-4.265,-12.575,-7.384,-11.178,-8.147,-6.487,-10.614
-1.794,-2.99,-11.742,-6.763,-11.368,-8.428,-7.583,-9.167
6.18,2.529,-5.575,-0.248,-6.456,-2.093,-3.287,-1.79
10.055,7.387,1.538,5.912,0.31,3.911,2.515,4.634
4.568,4.752,0.218,3.225,-1.093,1.251,-0.724,1.289
-5.122,-1.063,-9.242,-5.345,-11.63,-6.342,-13.041,-9.045
-10.124,-3.524,-16.448,-11.413,-20.144,-11.476,-22.361,-16.595
-8.416,-3.246,-15.664,-12.505,-19.618,-13.164,-22.416,-18.139
-8.269,-4.103,-13.651,-12.628,-17.35,-14.74,-20.622,-19.156
-17.811,-8.973,-17.685,-15.46,-21.48,-18.446,-24.183,-23.399
-32.598,-17.339,-24.279,-19.608,-28.13,-22.944,-30.558,-27.858
-40.189,-24.221,-26.361,-21.403,-29.616,-25.075,-33.978,-28.644
-34.511,-25.311,-23.582,-20.164,-26.226,-23.666,-31.373,-26.024
-19.765,-20.221,-18.274,-16.101,-21.24,-18.525,-21.831,-20.955
-2.329,-9.036,-8.524,-6.679,-11.944,-8.104,-7.426,-11.39
12.947,6.51,5.423,7.652,2.68,6.081,5.91,2.054
18.606,17.765,14.586,18.335,12.996,15.914,11.901,11.251
9.028,14.616,10.501,16.092,9.457,13.215,7.835,8.038
-5.46,1.603,-0.983,4.557,-1.852,1.866,-0.963,-2.931
-6.496,-3.859,-5.915,-1.712,-6.468,-4.106,-3.04,-7.615
5.595,5.022,-1.05,3.503,-1.174,1.286,5.101,-1.715
15.956,18.547,6.417,12.819,6.574,10.921,13.926,6.239
18.454,25.245,10.41,17.039,10.618,15.422,13.894,8.45
15.225,20.93,9.261,12.937,9.479,11.039,7.016,4.226
10.256,10.927,6.446,4.94,6.615,2.467,2.167,-1.735
8.612,3.628,5.755,-0.954,5.535,-3.514,0.963,-5.598
8.691,0.656,5.282,-4.403,4.42,-6.561,-1.54,-8.669
5.334,0.878,3.865,-6.019,2.547,-8.015,-4.338,-11.548
3.814,6.903,6.688,-2.243,5.19,-4.554,-2.013,-9.725
12.99,19.135,17.591,9.042,15.868,6.547,6.847,0.311
26.908,30.721,30.99,22.062,28.835,20.073,18.476,13.668
32.001,35.193,37.543,28.198,35.147,27.116,26.5,20.946
29.196,35.298,36.802,27.644,34.878,27.178,27.593,20.566
32.949,40.243,38.76,30.421,37.788,30.211,26.741,21.721
47.835,51.504,47.816,40.24,47.646,40.147,30.221,29.509
58.249,56.345,52.001,44.656,52.384,44.428,33.215,33.84
51.408,48.714,43.358,36.481,44.16,36.31,29.086,27.514
38.477,41.401,33.798,28.883,34.941,29.689,23.959,21.538
36.225,42.787,33.444,31.828,34.956,33.744,24.613,25.277
42.481,46.781,37.286,38.441,39.021,40.253,27.62,32.58
46.108,49.176,39.99,42.103,41.761,42.98,30.006,36.21
47.23,52.01,43.1,45.159,44.94,45.268,35.966,37.687
53.508,57.625,49.298,51.468,50.669,50.618,48.306,41.836
63.704,65.637,57.647,59.795,57.177,57.604,58.859,49.315
66.009,69.119,62.202,63.215,59.441,60.873,57.25,54.097
54.078,59.988,57.289,55.932,53.792,55.528,46.924,49.733
41.642,45.799,49.278,44.941,46.932,46.619,41.699,41.773
46.947,44.244,51.777,44.459,51.016,46.493,47.863,42.869
58.782,51.314,59.607,50.126,59.66,51.616,53.712,48.329
51.976,46.006,53.889,43.698,53.815,44.745,45.069,41.182
34.61,29.927,37.266,27.54,36.53,27.756,27.983,24.342
32.49,23.735,29.448,20.866,27.974,19.927,19.088,16.517
39.887,29.834,32.485,25.44,30.492,23.886,19.779,19.656
32.673,31.704,31.228,25.611,29.075,24.097,17.818,18.918
14.553,25.059,22.528,17.696,20.361,16.546,10.505,10.928
11.383,24.348,19.632,14.964,17.302,14.113,8.497,8.01
29.458,36.363,28.202,23.962,25.783,22.747,15.856,15.658
45.137,45.608,33.986,31.748,31.885,29.892,20.136,21.8
37.802,36.824,22.583,24.009,21.15,22.279,9.616,13.802
18.872,20.704,4.291,9.146,3.591,7.888,-5.634,-0.108
13.961,18.814,1.195,7.471,0.744,6.121,-5.596,-1.143
26.463,31.6,13.829,20.017,12.939,18.623,8.582,11.068
38.003,40.721,22.454,28.57,20.921,27.767,15.631,18.788
36.834,36.35,17.16,23.559,14.886,23.229,6.475,12.934
27.632,26.677,7.639,14.161,4.364,13.69,-5.568,2.79
18.489,21.702,4.13,10.13,-0.004,9.054,-9.715,-1.443
12.473,20.198,4.042,8.659,-0.507,6.426,-11.342,-2.217
7.079,15.424,-0.198,2.629,-4.742,-0.911,-17.028,-7.202
-1.059,6.087,-8.966,-7.515,-13.298,-11.581,-23.108,-16.68
-6.574,-1.009,-14.468,-13.371,-19.003,-17.189,-23.427,-22.844
-5.231,-1.738,-14.014,-11.974,-19.245,-15.625,-21.984,-22.463
-8.598,-2.9,-16.254,-12.315,-21.864,-15.956,-28.392,-22.956
-22.993,-10.192,-25.154,-19.534,-30.237,-22.564,-40.474,-29.006
-31.843,-17.041,-30.963,-24.769,-34.859,-26.789,-44.622,-32.859
-25.037,-16.684,-27.021,-20.476,-29.988,-22.153,-36.058,-27.361
-19.884,-15.721,-22.917,-15.095,-25.693,-17.036,-28.277,-20.846
-29.298,-21.623,-28.9,-19.542,-31.535,-21.367,-33.739,-24.892
-39.515,-28.198,-38.964,-28.428,-41.111,-29.616,-44.714,-34.26
-36.671,-26.085,-40.719,-28.726,-42.41,-29.198,-45.437,-34.49
-25.623,-16.354,-32.344,-19.422,-33.383,-19.232,-34.478,-24.029
-16.652,-8.618,-24.135,-12.691,-24.257,-12.211,-26.321,-17.023
-14.16,-9.238,-24.388,-15.827,-24.398,-15.69,-30.427,-21.904
-16.758,-14.124,-28.33,-21.384,-29.246,-21.657,-37.004,-29.034
-19.657,-16.321,-27.262,-20.827,-28.67,-21.181,-33.077,-27.689
-20.236,-15.363,-22.05,-16.911,-22.952,-17.473,-23.107,-21.77
-19.483,-14.257,-18.973,-15.635,-19.702,-16.69,-20.837,-19.916
-15.292,-12.049,-16.307,-13.568,-18.056,-14.949,-24.884,-19.004
-4.886,-5.24,-6.789,-3.153,-9.726,-4.659,-19.362,-9.118
6.43,5.37,7.643,12.345,4.355,10.48,-1.632,7.618
10.52,12.644,16.277,20.678,13.292,18.263,11.699,17.429
6.753,9.96,13.75,16.564,11.408,13.991,10.852,14.341
3.905,3.659,8.257,10.543,6.639,8.549,7.355,10.192
12.577,8.811,13.347,17.308,12.047,16.112,15.74,19.502
29.34,25.24,28.13,33.492,26.943,32.354,30.841,36.261
36.891,35.298,36.434,40.991,35.784,39.286,36.993,41.704
29.027,31.082,31.762,35.041,31.796,33.082,33.38,33.935
20.505,25.564,27.781,31.205,27.735,29.186,33.918,30.383
23.297,30.059,35.414,39.723,34.003,37.237,43.986,40.435
31.721,37.92,44.955,50.084,41.368,47.266,51.566,52.078
39.425,41.315,45.093,51.601,39.971,49.256,48.324,53.305
48.024,44.902,42.455,50.952,37.293,49.564,44.495,51.137
56.855,53.16,46.734,56.919,42.081,56.665,50.222,56.478
62.24,59.465,52.002,62.935,47.295,63.9,56.518,62.843
62.066,55.732,46.91,57.749,41.834,59.253,49.569,56.775
56.904,46.885,35.312,46.549,30.041,47.587,35.829,43.502
49.104,43.086,30.613,43.519,25.434,44.242,33.675,40.024
39.386,41.274,32.906,46.516,28.278,47.736,41.809,45.445
26.426,31.39,29.276,40.459,25.425,41.921,39.693,42.34
12.514,16.898,16.77,24.469,13.263,25.315,22.046,26.945
8.568,13.793,10.134,16.729,6.283,17.396,9.799,17.495
19.87,25.612,18.119,25.641,13.64,27.372,16.76,25.096
28.785,33.012,25.782,33.372,20.982,36.03,25.796,33.66
17.47,20.494,17.864,23.68,13.23,25.89,17.33,25.444
-2.6,-0.853,3.519,7.206,-0.64,8.316,1.65,9.215
-10.449,-11.58,-1.799,1.15,-5.323,1.733,-1.592,3.047
-7.012,-10.689,-0.935,2.853,-3.935,3.773,4.125,5.85
-5.238,-9.134,-3.049,1.235,-5.863,3.096,5.134,6.149
-9.036,-11.184,-7.3,-4.158,-9.814,-0.969,0.919,2.572
-15.099,-14.559,-10.943,-8.401,-12.301,-4.07,-3.15,-0.119
-19.741,-16.552,-14.456,-9.885,-14.009,-5.403,-5.794,-0.861
-24.273,-18.658,-19.926,-12.327,-18.27,-8.558,-9.563,-3.568
-33.617,-25.384,-30.216,-20.63,-28.477,-17.668,-17.894,-12.27
-41.786,-32.912,-39.506,-29.322,-37.951,-27.009,-26.226,-21.299
-35.698,-30.635,-35.125,-25.649,-33.658,-23.64,-22.862,-18.076
-19.021,-18.283,-18.123,-9.209,-17.325,-6.951,-6.757,-1.723
-11.093,-8.84,-6.007,4.348,-6.315,6.89,6.562,11.954
-17.2,-9.104,-6.855,5.675,-7.735,8.199,7.976,13.157
-19.561,-8.642,-7.175,4.895,-7.895,7.509,9.916,12.494
-5.737,3.146,5.757,13.697,5.383,16.424,23.903,21.859
14.535,20.301,25.508,28.331,24.977,30.808,40.455,36.879
28.334,30.484,38.759,38.467,37.327,40.448,46.583,46.507
34.247,33.256,43.372,42.229,41.31,43.43,45.962,48.458
36.91,37.946,46.946,46.48,45.405,46.626,49.667,50.462
42.701,48.45,55.057,56.874,54.207,56.324,60.396,59.632
52.522,58.094,64.181,69.33,63.195,68.911,70.737,71.941
57.198,59.687,66.467,73.905,65.406,74.222,72.505,76.6
55.532,58.265,64.034,71.29,63.707,72.384,70.227,73.993
58.925,63.037,65.675,71.714,65.99,73.322,74.437,74.786
65.762,69.342,68.657,74.364,69.015,76.487,80.581,78.771
62.466,67.07,64.298,70.469,64.872,73.177,77.352,76.835
50.535,58.02,54.625,62.132,56.027,65.111,67.877,69.462
44.44,52.404,49.317,59.808,51.582,62.838,63.718,65.909
48.063,53.922,50.741,64.93,53.096,68.063,66.022,68.512
50.402,53.772,48.898,65.481,50.588,68.518,62.908,67.099
43.852,45.171,37.835,54.508,39.105,57.276,48.585,55.412
35.284,35.417,27.22,41.784,28.917,44.375,34.446,42.67
35.24,35.304,28.634,39.6,30.894,41.65,33.136,40.386
41.369,43.193,39.173,46.058,41.383,46.863,41.408,46.675
40.261,45.423,44.576,47.719,46.524,47.191,46.159,48.885
30.852,37.257,40.716,40.858,42.586,39.379,45.145,43.396
29.46,31.618,40.489,38.365,41.972,36.166,48.179,41.981
39.795,35.646,49.337,45.586,50.064,42.862,55.204,48.946
40.941,35.722,51.687,47.737,51.946,44.878,52.687,49.412
19.185,18.789,34.701,33.352,34.84,30.801,35.51,32.619
-7.762,-4.083,11.472,14.375,11.531,12.401,16.433,11.824
-16.549,-13.578,1.818,7.225,2.01,5.83,7.94,4.442
-14.795,-13.75,-0.349,5.222,0.292,4.406,4.172,3.64
-25.752,-22.39,-13.498,-8.309,-12.335,-8.327,-7.525,-7.64
-47.423,-38.747,-33.759,-29.948,-31.968,-29.127,-24.26,-26.411
-58.263,-47.397,-43.131,-42.467,-40.717,-41.345,-33.442,-36.78
-52.751,-45.362,-40.553,-42.262,-38.184,-41.575,-33.57,-36.298
-44.491,-44.093,-40.619,-41.174,-38.992,-41.06,-34.148,-36.59
-44.92,-49.139,-49.025,-45.462,-48.023,-45.234,-40.351,-42.906
-50.661,-51.72,-54.945,-46.818,-54.108,-45.896,-45.86,-46.287
-47.315,-42.367,-46.902,-36.48,-46.075,-35.503,-40.989,-38.134
-31.349,-25.929,-29.163,-20.132,-28.424,-20.331,-26.583,-23.633
-15.282,-12.634,-13.581,-7.732,-12.831,-9.226,-11.492,-11.373
-2.338,-0.795,-0.349,3.506,0.801,1.72,2.081,0.93
14.336,14.556,15.463,18.315,17.135,16.913,16.237,16.34
27.734,25.537,27.062,27.675,28.921,26.365,26.492,26.585
23.384,20.362,24.162,20.554,25.907,18.573,25.036,22.365
4.147,1.431,10.345,1.676,11.781,-1.224,11.886,7.397
-11.364,-15.176,0.459,-12.303,1.334,-15.75,-0.488,-4.591
-7.876,-14.857,5.346,-9.294,5.359,-13.269,2.087,-2.979
13.684,2.171,22.847,8.316,21.89,3.659,18.107,11.035
34.104,19.907,39.84,26.128,38.625,21.357,32.141,25.181
36.256,25.124,45.738,33.342,45.575,29.144,36.872,30.007
25.578,22.217,42.578,33.342,43.8,29.691,38.609,29.507
14.357,19.034,36.039,31.286,37.512,27.908,38.776,28.666
4.04,14.066,27.095,25.203,27.984,22.194,32.094,24.057
-4.986,6.208,17.114,15.806,18.148,13.48,21.39,14.96
-7.021,0.617,10.735,9.812,13.186,8.293,15.559,8.57
0.112,1.726,11.15,10.998,15.36,10.276,17.573,10.155
8.739,6.255,14.29,14.046,19.647,14.187,21.244,14.714
8.719,5.851,12.369,10.768,18.177,11.452,19.204,13.27
3.019,0.912,6.71,3.96,12.405,4.174,13.81,7.591
6.135,3.293,7.925,6.006,12.761,5.072,14.17,8.982
19.53,15.065,17.345,17.79,20.824,16.134,20.488,18.504
24.074,19.379,20.109,22.753,22.566,20.948,21.126,21.529
7.29,5.237,6.381,10.696,8.525,8.854,9.524,9.251
-16.468,-13.377,-11.222,-6.118,-9.09,-7.836,-5.599,-7.167
-22.451,-14.515,-11.98,-8.677,-10.081,-10.341,-8.896,-10.797
-7.413,1.261,4.619,3.173,5.88,0.919,3.621,-1.028
5.49,10.134,16.319,9.846,16.637,6.957,14.948,5.716
1.167,0.965,10.509,1.592,9.929,-0.721,10.621,0.842
-4.766,-8.007,2.879,-5.957,1.899,-6.714,3.824,-3.036
3.71,-2.249,8.756,0.721,8.036,0.982,10.036,4.742
12.426,5.364,17.207,9.948,17.195,9.949,17.9,12.851
6.079,2.354,14.835,8.705,15.521,7.712,14.292,9.575
0.135,0.581,11.56,6.892,12.534,5.007,10.015,5.419
9.392,10.653,18.38,14.822,19.55,12.604,16.183,11.558
17.436,18.855,23.917,20.806,25.653,18.907,22.945,17.838
7.287,9.938,14.446,11.589,16.82,10.548,17.832,11.645
-7.645,-6.986,-1.845,-4.371,1.097,-4.346,5.972,-0.479
-6.135,-12.086,-7.468,-9.758,-3.569,-8.683,2.196,-3.586
7.49,-4.753,-3.022,-5.093,2.093,-2.81,8.033,2.076
13,0.367,-2.681,-4.06,3.03,-0.48,10.201,3.867
6.826,1.157,-8.067,-7.661,-2.881,-3.286,4.811,0.098
3.652,6.317,-8.604,-5.757,-4.556,-1.541,3.147,0.653
8.366,13.654,-2.239,1.955,0.9,5.062,9.653,7.316
8.185,11.632,0.877,4.643,3.32,6.186,12.95,9.816
-1.658,0.033,-3.227,-0.913,-1.684,-0.56,7.024,3.956
-5.072,-5.501,-2.554,-2.564,-1.707,-2.671,4.171,1.565
10.641,4.87,12.113,8.958,12.969,8.721,14.449,12.288
32.72,20.783,30.558,24.5,31.597,24.241,29.594,26.548
38.152,27.034,36.67,29.465,37.438,29.783,36.001,29.013
26.298,24.121,30.904,25.138,31.077,26.738,32.248,22.283
19.046,23.393,27.451,24.346,27.218,26.989,27.668,22.127
24.833,27.475,31.485,29.505,31.677,32.336,27.752,30.719
26.647,28.305,33.294,31.098,34.529,33.737,28.641,34.408
14.041,22.172,26.3,25.327,27.769,27.905,25.243,27.733
3.887,17.235,20.099,20.475,20.79,23.056,21.168,21.71
14.234,22.237,26.325,24.687,26.665,27.11,24.949,26.19
32.799,31.347,37.04,32.376,37.701,34.538,33.384,34.284
32.999,30.543,34.705,30.237,35.708,32.367,32.525,32.001
12.27,17.351,17.448,15.538,18.885,17.906,18.325,18.037
-4.402,4.55,-0.381,-0.011,1.3,2.288,2.569,4.447
0.087,1.889,-7.914,-6.11,-6.506,-4.509,-4.165,-0.754
10.134,2.599,-9.754,-6.683,-8.467,-5.511,-6.062,-2.705
4.392,-1.677,-14.568,-9.7,-13.024,-7.834,-11.72,-7.63
-9.197,-7.096,-20.96,-14.26,-19.422,-11.566,-20.235,-13.08
-10.524,-8.21,-23.043,-15.846,-21.902,-13.481,-25.205,-15.028
-2.618,-6.749,-21.693,-15.226,-21.033,-13.52,-25.357,-15.265
-2.312,-7.018,-21.858,-16.317,-21.775,-14.367,-25.925,-17.97
-9.083,-9.068,-22.051,-17.916,-22.538,-15.595,-28.443,-21.442
-11.915,-10.171,-18.79,-16.688,-19.579,-14.9,-28.859,-21.597
-11.205,-11.578,-16.213,-15.916,-17.26,-14.932,-27.755,-21.418
-13.646,-17.221,-19.078,-20.357,-20.421,-19.617,-29.836,-25.751
-20.705,-26.896,-24.891,-27.845,-26.083,-27.036,-34.992,-32.533
-26.87,-33.503,-26.977,-31.217,-27.674,-30.435,-37.219,-35.06
-24.863,-30.332,-21.402,-26.131,-21.983,-25.241,-32.814,-29.383
-17.463,-22.805,-13.638,-17.891,-14.2,-16.391,-26.817,-20.283
-17.776,-23.655,-14.945,-17.459,-14.938,-15.038,-27.225,-18.456
-28.926,-33.913,-26.736,-26.943,-26.184,-23.786,-34.11,-26.646
-35.856,-40.518,-35.598,-35.026,-34.833,-31.522,-38.073,-33.354
-29.703,-35.812,-31.898,-32.975,-30.521,-29.571,-32.418,-29.14
-22.562,-27.57,-23.351,-27.211,-20.997,-24.396,-23.236,-21.403
-23.749,-25.106,-20.453,-27.24,-17.403,-25.156,-20.047,-21.262
-23.836,-25.454,-20.99,-30.02,-17.897,-28.324,-22.45,-25.24
-14.114,-19.862,-17.396,-26.507,-15.209,-24.755,-22.631,-22.446
-1.806,-9.813,-10.866,-18.84,-9.9,-16.802,-18.144,-14.366
0.716,-6.757,-10.367,-18.829,-9.614,-16.49,-16.514,-13.536
-8.27,-13.953,-17.753,-28.233,-16.352,-25.562,-21.42,-21.835
-16.161,-19.561,-22.036,-33.733,-20.391,-30.685,-23.386,-25.723
-8.469,-11.209,-12.912,-24.148,-11.583,-20.921,-13.546,-15.345
11.837,7.363,4.753,-4.543,6.125,-1.267,3.967,3.341
25.373,19.616,16.241,9.634,18.365,13.012,18.483,16.344
22.293,19.247,16.684,11.497,19.356,14.552,23.2,17.392
14.53,17.489,16.115,9.891,18.264,12.039,20.318,14.535
16.911,21.08,22.096,13.479,23.248,15.072,18.914,17.614
27.135,21.75,27.944,17.221,28.444,19.125,21.416,23.138
29.674,14.56,24.795,13.857,24.6,16.248,20.388,22.053
19.032,8.742,17.249,8.491,16.078,10.993,15.987,16.353
11.411,14.791,17.383,10.921,15.65,13.421,18.146,15.815
18.652,27.929,24.519,18.804,22.934,21.373,25.452,21.018
26.357,31.1,24.287,19.597,23.018,22.114,23.801,21.277
20.308,19.141,13.09,10.688,11.819,13.115,11.668,13.355
8.609,4.859,2.904,1.404,1.501,3.986,2.046,5.519
2.224,-3.149,-1.533,-5.328,-2.801,-2.603,-2.002,-0.173
0.01,-8.232,-6.425,-13.937,-7.39,-11.567,-8.32,-8.878
-3.438,-14.239,-13.627,-24.225,-14.408,-22.469,-18.459,-19.788
-8.671,-19.815,-18.164,-30.807,-18.96,-29.288,-26.156,-26.012
-11.306,-21.463,-16.414,-29.835,-17.284,-28.124,-25.757,-23.563
-9.726,-19.26,-10.674,-23.899,-11.091,-22.06,-17.795,-16.574
-8.273,-17.611,-6.844,-20.395,-6.138,-18.854,-9.419,-13.058
-10.145,-18.814,-8.158,-23.076,-6.884,-22.132,-7.315,-15.674
-8.48,-16.629,-9.013,-24.92,-8.479,-24.537,-7.88,-17.369
6.27,-3.531,-0.678,-15.797,-0.982,-15.923,-1.225,-9.328
26.391,13.017,13.176,0.249,13.121,-0.331,12.452,4.929
35.608,19.889,21.746,10.899,22.231,10.176,23.686,14.806
36.471,21.964,25.903,16.914,25.645,16.488,29.553,20.426
42.693,30.613,32.453,25.965,30.549,26.178,34.171,27.967
53.507,39.639,37.915,33.485,35.546,34.373,37.049,33.98
56.922,37.132,34.117,30.152,32.838,31.339,32.894,30.699
50.99,28.534,24.465,20.816,24.115,21.89,24.605,21.955
49.117,31.317,24.102,21.534,23.866,22.334,25.847,22.095
63.396,52.249,42.033,39.53,41.782,40.014,43.539,38.517
88.664,78.353,68.303,64.173,67.922,64.404,66.921,61.998
110.398,94.457,86.387,81.49,85.584,81.74,82.504,79.204
124.107,102.47,94.714,90.975,94.012,91.716,90.927,89.004
136.102,112.045,103.365,99.774,103.835,101.554,100.08,98.025
148.323,122.398,114.006,108.144,115.602,111.15,110.227,107.264
152.842,125.208,117.694,109.856,119.22,113.562,114.521,111.398
145.374,119.223,111.325,103.372,112.264,106.967,111.105,108.122
136.601,114.254,105.232,97.188,106.192,100.094,108.156,103.956
138.506,116.418,107.657,98.205,109.205,100.047,111.049,104.841
148.711,119.287,112.261,101.41,114.242,102.37,113.236,106.682
159.256,120.519,113.34,102.935,115.154,104.186,111.205,106.884
167.896,128.743,117.44,109.24,118.552,111.796,113.143,111.885
173.643,142.967,127.601,121.726,127.79,125.059,122.079,122.585
171.667,147.902,133.409,128.939,133.002,131.825,127.676,127.616
159.802,138.057,126.75,123.085,126.484,125.211,121.853,119.27
145.178,125.289,113.5,110.551,113.707,112.382,108.88,104.636
138.776,119.11,103.159,100.841,103.484,102.373,97.221,94.511
143.528,116.405,97.61,95.488,97.79,96.229,90.497,90.177
148.498,110.625,93.197,90.799,93.608,91.014,86.061,86.562
142.901,102.695,88.741,86.533,89.428,87.179,81.033,82.716
132.951,98.531,87.147,85.996,86.972,87.273,78.723,82.105
127.974,97.36,88.131,87.63,86.288,88.974,81.407,84.043
122.401,92.659,86.041,85.249,83.414,86.529,81.966,82.615
110.064,83.233,77.625,76.37,75.691,77.638,73.805,74.014
99.029,75.458,67.88,65.614,67.339,66.313,62.372,61.993
99.064,76.931,66.091,61.884,66.241,61.8,58.875,56.907
107.726,87.327,74.33,68.875,73.64,68.914,65.952,64.217
114.403,95.196,82.088,77.414,80.213,78.149,73.797,73.847
111.021,90.373,78.31,75.635,76.335,76.401,72.096,71.936
99.606,77.633,66.924,65.877,65.489,66.101,63.243,60.913
89.311,68.782,61.18,60.284,59.966,60.291,58.269,54.548
83.629,65.089,62.657,60.389,61.307,60.575,59.19,55.378
77.356,59.647,59.338,55.749,57.967,56.223,55.376,52.427
67.213,51.118,46.461,43.676,45.608,44.709,43.691,42.042
59.029,44.52,34.932,35.156,35.276,36.897,36.64,35.16
57.837,42.053,33.005,36.533,34.934,38.523,39.291,38.155
55.799,38.419,32.37,37.797,35.797,39.665,39.159,40.76
45.654,29.939,24.442,29.96,28.815,31.961,30.594,33.965
34.495,23.305,16.531,21.513,20.663,23.797,24.949,26.132
30.477,24.892,17.896,23.283,20.654,25.509,28.851,27.869
30.18,28.197,22.352,28.976,24,30.819,31.932,32.314
24.96,22.701,18.792,25.949,20.456,27.469,24.236,26.36
12.951,10.509,11.172,16.768,13.28,18.337,13.66,14.531
2.845,4.271,12.018,14.473,13.942,16.341,12.338,12.408
4.565,9.78,21.749,22.176,22.518,24.165,18.607,21.713
12.285,16.636,27.054,28.03,26.687,29.768,22.369,27.728
8.488,11.301,18.724,21.108,18.636,22.516,17.053,20.203
-5.8,-1.323,6.36,9.038,7.461,10.46,8.591,9.29
-9.261,-3.978,6.147,7.546,7.569,9.045,9.374,10.532
2.553,5.09,16.117,14.405,17.126,15.095,17.477,19.035
7.043,9.863,18.903,13.23,20.324,12.16,18.53,17.346
-7.43,1.913,8.29,0.797,10.653,-1.564,9.116,3.643
-23.183,-10.471,-2.931,-8.697,-0.444,-10.806,-0.239,-6.651
-28.709,-20.393,-6.195,-8.67,-3.853,-9.55,-3.642,-6.548
-35.205,-30.396,-9.024,-8.951,-6.136,-8.811,-6.035,-6.139
-46.786,-40.028,-16.823,-15.061,-13.558,-14.625,-12.493,-12.553
-52.878,-43.399,-23.558,-19.786,-20.582,-19.61,-20.983,-19.809
-49.371,-38.247,-23.57,-16.702,-20.612,-16.997,-25.249,-20.026
-43.432,-29.879,-20.294,-9.292,-17.215,-10.041,-23.289,-14.216
-41.351,-27.104,-20.747,-5.983,-18.327,-6.949,-19.648,-10.098
-40.003,-30.75,-23.671,-7.963,-22.041,-8.686,-17.862,-10.093
-32.087,-29.787,-19.839,-6.186,-18.152,-6.533,-14.897,-7.104
-18.423,-18.426,-7.659,3.903,-5.911,3.338,-5.796,2.725
-10.79,-9.651,0.557,11.287,1.347,10.138,3.561,9.765
-18.907,-16.225,-3.246,5.687,-3.366,4.62,1.16,4.972
-36.623,-29.248,-10.287,-4.554,-10.012,-4.948,-8.183,-3.963
-47.61,-33.549,-10.415,-6.403,-9.658,-6.42,-8.603,-5.06
-45.55,-31.418,-6.434,-2.282,-6.532,-2.377,-1.035,-0.433
-42.291,-34.914,-7.252,-4.226,-8.257,-4.708,-0.483,-1.023
-49.032,-43.607,-13.875,-13.98,-14.229,-15.15,-8.766,-8.866
-57.806,-46.377,-17.111,-19.992,-16.222,-21.744,-11.492,-13.878
-57.458,-42.13,-12.653,-17.404,-11.377,-19.278,-3.844,-11.006
-54.956,-41.468,-9.971,-16.971,-8.581,-18.677,1.197,-9.903
-63.644,-50.176,-19.016,-27.889,-16.985,-29.244,-6.296,-20.183
-82.293,-63.563,-35.699,-44.47,-32.937,-45.293,-20.139,-36.321
-94.423,-72.484,-45.821,-53.849,-42.22,-54.339,-27.491,-44.446
-89.934,-71.81,-43.58,-51.843,-38.848,-52.357,-25.944,-40.884
-82.743,-67.205,-40.584,-47.81,-35.53,-48.181,-27.05,-36.833
-87.573,-67.763,-48.115,-51.038,-43.811,-50.929,-37.79,-41.844
-91.552,-70.896,-58.409,-56.251,-54.207,-55.859,-46.782,-49.262
-80.949,-70.004,-59.842,-54.869,-54.294,-54.423,-43.682,-48.955
-72.838,-71.603,-60.146,-54.117,-53.201,-53.39,-39.999,-47.51
-84.211,-81.282,-70.963,-63.336,-63.985,-62.179,-49.076,-55.648
-102.109,-89.562,-84.413,-75.079,-78.351,-73.672,-62.824,-67.661
-111.65,-91.827,-88.753,-80.026,-83.418,-78.625,-68.194,-73.475
-117.271,-96.375,-88.668,-82.357,-84.077,-81.082,-68.725,-75.526
-123.007,-104.107,-92.027,-88.162,-88.668,-86.957,-73.349,-80.354
-121.944,-105.856,-94.366,-93.411,-91.849,-92.375,-77.723,-85.586
-110.911,-99.32,-88.835,-90.982,-86.014,-90.183,-72.649,-84.194
-100.745,-92.061,-78.861,-82.845,-74.845,-81.732,-61.422,-76.636
-105.701,-92.819,-74.842,-80.191,-69.119,-78.27,-57.453,-73.068
-122.408,-103.531,-81.959,-89.203,-75.057,-86.859,-66.97,-80.409
-130.45,-113.731,-91.443,-99.409,-85.181,-97.363,-78.223,-89.695
-118.427,-109.373,-88.497,-95.248,-83.965,-93.954,-74.754,-85.836
-96.641,-92.387,-72.41,-78.01,-68.973,-77.429,-58.457,-68.83
-83.167,-79.698,-59.391,-64.539,-56.526,-64.193,-46.805,-53.844
-83.566,-78.03,-58.011,-62.322,-55.952,-62.064,-44.986,-48.981
-84.916,-74.552,-54.952,-59.212,-53.012,-59.402,-37.925,-44.394
-75.613,-60.347,-39.995,-46.239,-36.746,-46.86,-19.342,-31.746
-64.822,-46.857,-27.752,-34.629,-23.24,-35.036,-6.189,-21.193
-67.623,-48.286,-34.622,-37.502,-30.089,-37.129,-11.288,-25.071
-80.56,-61.662,-52.647,-50.202,-48.052,-49.014,-24.965,-37.859
-87.585,-72.74,-62.457,-58.354,-56.54,-56.527,-32.525,-44.312
-84.167,-74.13,-59.74,-56.96,-52.874,-54.612,-33.845,-40.871
-79.967,-70.536,-56.147,-53.872,-50.841,-51.538,-37.665,-38.035
-78.378,-65.779,-56.243,-53.148,-53.828,-51.659,-41.985,-39.152
-72.021,-55.727,-49.984,-46.996,-48.843,-46.178,-34.861,-33.288
-60.924,-42.326,-35.52,-34.061,-33.623,-32.764,-18.219,-18.82
-56.879,-39.171,-28.845,-28.567,-26.182,-26.376,-10.707,-12.32
-65.186,-50.278,-37.82,-36.959,-35.494,-34.371,-19.159,-20.807
-75.371,-61.118,-48.534,-46.044,-47.003,-43.101,-28.907,-29.82
-74.97,-59.469,-47.343,-44.242,-46.365,-40.602,-27.227,-27.815
-64.033,-48.412,-37.019,-35.262,-36.479,-31.195,-18.24,-19.439
-53.364,-39.011,-28.986,-29.728,-28.891,-25.768,-13.785,-14.604
-51.276,-38.904,-30.012,-32.86,-30.096,-29.021,-17.548,-17.474
-52.156,-42.45,-34.061,-37.178,-34.316,-33.553,-20.643,-22.068
-45.603,-37.038,-29.905,-31.832,-30.891,-29.225,-15.862,-19.53
-37.502,-25.547,-20.834,-22.287,-22.574,-21.194,-10.466,-13.641
-42.517,-24.655,-22.639,-24.902,-24.044,-24.679,-15.441,-17.252
-53.472,-32.966,-34.892,-37.118,-35.063,-36.912,-26.09,-28.266
-47.031,-29.299,-37.332,-37.488,-36.629,-37.264,-27.197,-29.148
-24.865,-11.696,-24.807,-22.612,-24.086,-22.88,-17.663,-17.333
-13.974,-1.669,-15.296,-12.885,-14.909,-13.894,-10.937,-10.247
-22.731,-5.491,-16.653,-16.865,-16.474,-18.432,-11.978,-15.507
-30.768,-7.788,-17.363,-21.114,-16.997,-22.996,-13.206,-21.08
-25.264,-3.509,-13.192,-18.126,-12.161,-19.989,-12.002,-18.744
-20.615,-6.284,-14.972,-18.232,-13.184,-19.558,-15.591,-17.379
-31.497,-22.008,-25.729,-27.755,-23.478,-28.54,-25.866,-24.833
-47.8,-37.939,-34.984,-37.964,-32.72,-39.036,-35.576,-34.65
-52.061,-41.936,-36.106,-40.311,-34.481,-42.125,-38.918,-37.783
-46.366,-37.355,-32.23,-36.92,-31.485,-38.686,-36.8,-34.8
-44.815,-35.134,-29.872,-34.945,-29.503,-35.805,-35.946,-33.223
-46.301,-35.394,-29.826,-34.43,-29.772,-34.749,-38.009,-34.029
-38.285,-28.882,-25.451,-28.248,-26.129,-28.89,-34.255,-29.271
-20.959,-14.745,-13.296,-14.9,-14.214,-15.98,-20.345,-16.223
-5.178,-0.425,1.85,-0.76,1.397,-1.926,-4.569,-1.834
3.227,9.739,13.317,8.245,12.953,7.119,3.734,6.841
7.9,17.613,20.054,13.299,19.44,12.356,7.648,11.436
14.873,27.36,26.32,20.909,26.092,20.594,17.511,19.594
23.073,37.159,33.035,31.206,33.718,31.889,31.471,31.158
26.4,38.441,34.397,34.998,35.588,36.473,35.312,35.22
22.981,29.71,27.246,28.55,28.119,30.132,25.14,27.153
20.556,24.023,20.571,23.108,20.398,24.233,15.707,19.383
27.316,30.289,24.688,28.43,23.135,28.951,18.557,23.206
36.001,36.93,33.153,35.209,30.715,35.138,24.793,29.455
32.359,30.812,31.463,29.979,28.912,29.274,21.389,23.788
15.762,16.178,18.055,14.988,15.531,13.714,10.095,8.291
-0.758,4.249,4.788,1.756,2.437,0.154,1.36,-4.004
-6.195,-0.59,0.278,-3.873,-1.179,-5.422,-1.368,-6.354
-2.939,-2.788,0.398,-5.818,0.152,-6.771,-4.778,-4.716
-1.903,-7.594,-2.076,-9.638,-1.78,-9.699,-11.761,-6.924
-7.683,-11.436,-6.48,-13.452,-6.657,-12.97,-14.942,-10.363
-13.213,-8.761,-8.526,-12.569,-9.628,-12.109,-10.472,-8.928
-14.141,-6.938,-11.668,-12.445,-13.249,-12.259,-9.275,-8.823
-19.408,-16.808,-23.552,-23.475,-25.075,-23.771,-23.22,-21.054
-33.992,-31.237,-38.817,-40.658,-40.544,-42.012,-43.067,-39.082
-45.345,-35.642,-44.004,-48.867,-46.401,-51.553,-50.625,-46.817
-43.634,-32.315,-40.531,-47.527,-43.306,-50.691,-48.489,-45.361
-40.032,-34.453,-42.878,-49.574,-45.383,-51.94,-53.039,-49.02
-47.815,-45.123,-56.101,-59.936,-58.315,-61.058,-66.519,-61.181
-59.608,-54.6,-69.558,-69.671,-72.195,-70.161,-76.948,-71.316
-62.248,-56.118,-74.239,-71.472,-77.501,-72.197,-80.247,-73.416
-61.583,-57.541,-76.69,-72.53,-79.293,-73.748,-85.994,-75.803
-71.532,-69.692,-87.712,-83.716,-89.01,-85.314,-100.03,-87.906
-88.477,-87.317,-103.412,-100.649,-105.303,-102.781,-114.864,-104.664
-96.491,-95.28,-109.031,-108.478,-112.638,-111.145,-119.752,-112.51
-91.108,-90.796,-101.509,-103.528,-105.415,-106.202,-113.322,-107.898
-84.302,-86.181,-94.961,-97.732,-98.927,-100.165,-105.084,-101.283
-85.592,-87.677,-96.152,-98.49,-101.256,-101.307,-102.644,-100.34
-84.321,-83.165,-90.753,-95.016,-96.079,-98.92,-98.923,-96.812
-68.639,-65.196,-70.313,-78.748,-73.874,-83.633,-84.394,-82.442
-54.407,-51.672,-54.697,-65.1,-56.374,-70.225,-70.399,-70.041
-60.562,-57.78,-62.905,-69.781,-64.652,-74.077,-75.227,-74.143
-73.805,-68.654,-79.672,-80.265,-82.843,-82.818,-89.791,-83.239
-68.861,-62.362,-76.986,-74.799,-80.642,-75.909,-87.618,-76.88
-45.18,-41.92,-56.647,-55.339,-60.113,-56.218,-67.759,-57.534
-25.67,-29.707,-45.144,-43.106,-49.409,-44.221,-56.476,-46.054
-22.064,-31.295,-47.674,-42.868,-52.617,-43.769,-60.006,-47.21
-19.019,-25.769,-41.447,-35.492,-45.663,-35.876,-53.622,-41.762
-3.033,-3.202,-18.616,-13.971,-21.78,-13.93,-28.572,-21.457
14.612,17.822,-0.046,2.977,-2.606,3.196,-8.645,-4.424
16.882,20.048,-2.119,0.889,-4.234,0.938,-10.634,-5.881
8.06,10.704,-13.542,-9.773,-15.197,-10.177,-20.482,-15.787
5.655,6.945,-14.271,-10.723,-15.677,-11.651,-18.227,-15.43
11.654,11.992,-4.318,-0.756,-6.281,-2.242,-5.949,-3.767
16.887,18.523,4.761,9.886,1.612,7.876,2.596,6.884
26.226,26.642,14.76,20.533,10.839,18.353,6.819,14.349
47.457,42.036,34.284,37.976,29.912,35.766,18.011,27.985
68.174,61.771,58.041,59.852,52.618,57.016,38.287,48.788
72.765,74.907,70.824,74.222,63.843,70.354,53.854,64.015
64.626,75.125,66.569,73.142,58.591,68.817,52.737,63.483
55.76,67.639,55.111,61.416,47.765,57.329,41.702,52.111
54.186,64.45,51.59,52.898,46.283,49.053,36.955,44.021
60.665,68.896,57.79,53.995,54.086,50.04,40.798,44.741
65.797,70.381,60.088,55.683,56.086,51.378,41.647,45.342
61.871,64.366,53.424,51.711,48.148,47.067,37.157,40.87
57.609,62.478,50.86,51.013,45.163,46.112,38.056,40.757
64.386,70.703,59.114,59.855,53.764,54.503,46.849,50.009
72.768,75.504,64.209,66.491,59.579,60.668,50.151,55.751
64.334,63.072,51.384,56.53,48.392,51.073,36.722,44.843
40.511,39.314,25.026,33.611,23.209,29.485,13.571,23.252
20.847,23.23,3.777,14.792,1.286,11.993,-1.68,7.638
17.332,22.432,-1.37,8.534,-4.201,6.511,-3.927,3.107
19.906,21.918,-1.252,4.856,-2.807,3.444,-6.98,-1.798
15.329,9.682,-8.25,-5.037,-9.116,-5.977,-18.134,-13.654
12.195,-0.655,-12.165,-10.638,-13.608,-11.961,-22.132,-19.975
23.939,6.127,0.73,-0.292,-0.956,-3.1,-7.262,-9.738
41.597,21.769,22.408,18.18,20.952,13.515,12.996,7.786
48.676,31.573,36.664,30.699,34.998,24.649,22.224,18.642
47.394,37.095,42.773,37.87,40.434,31.132,25.693,25.02
52.306,49.25,53.133,50.963,50.615,44.076,38.487,38.876
67.108,67.306,70.979,70.44,69.747,63.892,59.78,59.798
80.804,78.363,83.323,82.82,83.79,77.018,73.889,73.582
85.521,79.433,83.682,83.559,83.97,78.467,76.045,75.399
89.071,82.805,85.177,85.397,83.795,80.658,79.113,77.827
101.479,93.544,97.582,96.128,95.715,91.822,90.617,89.738
114.096,100.557,109.206,105.676,108.529,102.383,100.874,101.875
111.067,96.15,106.108,103.906,106.184,101.821,100.054,102.164
97.002,87.225,92.642,95.564,92.121,94.241,92.027,93.564
90.288,84.326,83.343,91.543,82.504,90.478,86.458,88.143
94.697,88.622,84.698,94.754,85.318,93.68,86.49,90.303
97.651,90.674,87.75,96.961,90.286,95.676,85.448,91.662
89.682,82.923,79.295,88.928,82.059,87.261,75.684,82.76
73.525,70.834,60.707,73.144,62.718,71.343,60.888,66.719
58.007,63.522,43.978,59.076,45.915,57.887,49.346,53.508
44.527,55.023,29.466,45.609,31.559,45.401,37.743,41.769
27.46,33.471,10.435,25.989,12.106,26.336,19.854,24.124
13.497,9.617,-2.541,10.043,-1.418,10.326,5.055,9.263
16.929,4.743,5.566,12.847,6.437,12.557,6.056,11.233
29.582,13.047,22.367,24.99,22.648,23.9,15.137,21.357
28.081,12.761,24.227,25.903,22.963,24.289,14.864,20.476
11.542,2.848,12.033,15.861,8.793,14.228,5.062,9.316
1.055,-2.248,2.708,9.383,-1.628,8.423,-1.126,2.878
2.797,-0.999,-0.283,9.131,-3.592,9.515,-2.434,3.967
-0.481,-5.019,-7.019,4.744,-7.829,6.172,-10.334,1.018
-16.279,-16.959,-19.853,-7.129,-19.465,-5.866,-26.006,-10.478
-28.814,-26.982,-30.048,-17.133,-30.921,-16.766,-37.022,-20.929
-26.693,-29.26,-32.278,-18.445,-35.042,-18.546,-36.998,-22.316
-19.4,-29.404,-31.112,-16.876,-34.767,-16.671,-33.7,-20.038
-18.918,-34.387,-32.979,-20.575,-36.54,-20.029,-35.013,-23.435
-22.687,-39.581,-34.706,-24.908,-37.553,-24.497,-35.375,-28.43
-22.983,-35.296,-27.831,-19.611,-29.399,-19.466,-26.11,-23.188
-20.886,-25.704,-16.314,-8.89,-16.391,-8.865,-13.746,-10.929
-22.121,-25.386,-15.461,-8.212,-15.018,-8.296,-12.45,-8.371
-26.102,-35.163,-26.822,-19.507,-27.045,-19.86,-21.21,-18.612
-26.042,-38.378,-32.121,-26.169,-32.237,-27.013,-24.819,-25.107
-18.239,-26.64,-21.634,-18.838,-19.917,-20.241,-17.128,-18.336
-8.818,-13.474,-9.744,-10.386,-6.364,-12.16,-9.98,-10.683
-8.777,-15.45,-13.755,-16.576,-10.791,-18.347,-16.842,-17.124
-17.218,-29.43,-29.128,-32.357,-28.006,-33.773,-33.552,-32.67
-19.089,-36.075,-34.426,-37.849,-34.328,-38.881,-41.048,-38.45
-11.176,-27.272,-22.679,-27.473,-22.259,-28.267,-31.522,-29.09
-8.218,-17.183,-12.199,-18.143,-11.471,-18.722,-20.024,-20.736
-13.622,-17.22,-15.012,-20.701,-14.296,-21.297,-19.942,-24.199
-11.857,-18.133,-17.117,-22.37,-16.535,-23.496,-22.507,-26.883
3.459,-8.563,-6.044,-10.887,-6.669,-12.563,-14.774,-15.774
14.778,3.428,4.08,1.271,1.055,-0.406,-5.492,-2.958
7.132,1.986,-3.613,-3.948,-8.247,-5.642,-10.28,-7.472
-7.789,-11.527,-18.985,-19.534,-23.328,-22.037,-21.492,-23.289
-11.469,-19.538,-20.935,-22.729,-24.63,-26.198,-19.324,-27.207
-4.203,-13.034,-8.882,-8.681,-12.839,-11.972,-4.478,-13.242
0.868,-3.734,-0.873,3.377,-5.402,1.306,1.989,-0.773
-1.723,-4.606,-5.44,-0.078,-10.211,-1.493,-8.897,-4.67
-3.715,-9.955,-10.751,-8.385,-14.974,-10.298,-20.111,-13.921
2.71,-7.029,-5.616,-6.487,-8.347,-8.396,-15.251,-11.402
11.19,1.163,0.933,0.609,-1.028,0.294,-4.272,-2.108
8.473,0.056,-6.675,-2.912,-9.647,-1.531,-7.593,-4.127
-4.3,-12.117,-24.185,-16.639,-28.075,-14.898,-23.823,-17.887
-13.517,-21.902,-33.796,-25.378,-37.358,-23.967,-33.847,-26.62
-17.899,-21.7,-31.312,-24.164,-34.615,-22.973,-31.318,-24.755
-27.326,-20.246,-29.943,-24.106,-33.784,-23.287,-29.439,-24.9
-42.425,-30.097,-40.542,-34.31,-45.25,-34.154,-39.158,-36.168
-55.51,-48.188,-56.642,-48.138,-62.012,-48.52,-53.724,-50.045
-61.923,-58.858,-62.942,-53.093,-67.84,-53.606,-59.172,-53.959
-61.593,-57.931,-57.549,-50.336,-60.623,-50.83,-54.53,-51.105
-57.417,-58.169,-55.646,-52.967,-57.281,-53.641,-53.554,-55.549
-57.008,-67.747,-67.087,-65.597,-68.938,-66.44,-65.508,-70.437
-66.56,-76.744,-80.475,-76.451,-83.22,-77.11,-79.868,-82.178
-78.091,-73.156,-81.14,-74.868,-84.621,-75.244,-80.758,-80.146
-79.54,-62.824,-74.552,-67.82,-78.668,-68.211,-73.066,-72.691
-75.648,-61.637,-74.633,-68.881,-78.223,-69.514,-74.055,-74.309
-77.026,-74.241,-82.455,-79.414,-83.851,-80.155,-85.948,-85.555
-79.204,-86.245,-88.209,-87.095,-88.093,-87.511,-94.449,-92.47
-75.517,-82.991,-85.678,-82.459,-86.15,-82.284,-90.894,-85.803
-74.103,-74.108,-81.703,-74.956,-82.806,-74.615,-85.845,-77.148
-78.668,-76.223,-84.595,-77.35,-85.386,-77.523,-89.201,-80.193
-73.607,-79.928,-84.809,-79.835,-85.967,-80.572,-88.418,-83.598
-49.868,-67.954,-69.118,-67.481,-71.276,-68.318,-71.319,-70.845
-25.794,-51.436,-49.304,-52.014,-51.252,-52.725,-52.583,-54.206
-25.445,-53.563,-47.663,-54.753,-48.082,-55.52,-51.442,-56.42
-47.545,-71.835,-62.71,-72.28,-61.656,-73.311,-64.583,-73.958
-68.182,-83.73,-74.276,-83.83,-72.483,-85.215,-75.51,-84.886
-72.397,-79.837,-73.012,-80.388,-71.338,-81.961,-74.395,-79.987
-70.508,-73.49,-68.4,-72.706,-67.509,-73.627,-68.193,-70.964
-75.77,-77.55,-70.424,-72.987,-69.961,-72.286,-69.618,-70.464
-81.125,-84.051,-74.096,-76.262,-73.176,-74.147,-73.814,-72.304
-73.718,-78.049,-68.593,-70.005,-67.105,-67.616,-65.377,-63.438
-59.924,-63.88,-57.136,-57.697,-55.635,-55.593,-48.036,-49.756
-56.674,-60.258,-55.123,-55.255,-54.151,-53.345,-42.999,-48.53
-61.884,-68.161,-63.026,-62.187,-62.556,-60.785,-53.031,-56.84
-55.475,-66.01,-60.178,-58.424,-59.392,-57.873,-53.611,-52.817
-35.049,-46.473,-39.759,-38.856,-37.967,-38.617,-34.334,-32.335
-21.433,-27.782,-21.599,-22.043,-19.073,-21.593,-15.303,-15.193
-20.777,-20.527,-17.393,-16.952,-14.976,-16.799,-9.263,-10.678
-18.096,-17.097,-16.973,-14.263,-15.263,-14.706,-7.425,-8.696
-11.909,-14.752,-14.491,-10.996,-13.378,-11.102,-5.685,-5.778
-14.712,-19.563,-16.863,-14,-15.797,-13.033,-10.18,-10.15
-21.193,-27.34,-23.327,-20.706,-21.819,-19.171,-18.309,-19.753
-13.794,-23.956,-21.642,-19.168,-19.369,-17.688,-17.94,-20.733
8.439,-6.016,-6.936,-5.902,-4.011,-4.417,-4.153,-8.568
28.601,12.75,9.447,8.62,12.028,10.448,13.306,5.467
26.957,15.56,11.483,10.47,12.836,12.883,18.826,6.972
2.902,3.618,0.443,-0.151,1.406,2.793,11.004,-3.593
-13.147,-1.166,-1.904,-4.713,0.119,-1.659,8.297,-7.712
1.755,12.466,15.593,7.834,18.723,10.458,22.252,5.669
24.647,24.786,33.373,20.994,37.19,22.8,37.002,20.629
24.317,16.357,30.262,15.496,34.926,16.48,33.236,17.566
11.665,0.475,16.73,0.9,22.042,1.487,19.439,4.182
14.243,0.466,15.168,-1.191,20.475,-0.533,16.102,1.305
29.727,14.221,23.55,9.162,28.316,10.022,23.241,10.29
35.773,22.604,25.26,16.147,29.364,16.97,26.447,16.457
26.089,19.192,19.524,15.136,23.637,15.583,21.877,14.928
17.562,17.41,20.269,17.77,24.757,17.866,20.865,17.137
23.317,27.559,31.715,31.56,35.477,31.674,30.985,30.796
33.248,39.581,41.012,45.282,43.333,45.543,41.077,44.422
32.958,41.594,38.491,45.813,40.675,46.097,39.272,44.128
28.264,39.082,31.952,38.495,35.108,39.004,33.726,35.561
34.72,41.013,32.529,35.819,35.63,36.969,36.183,33.079
44.412,39.509,33.512,33.569,35.595,35.296,37.64,33.199
29.528,21,17.893,16.836,19.933,18.731,20.585,19.092
-7.584,-5.917,-10.25,-9.671,-7.666,-7.684,-7.816,-6.297
-28.317,-17.562,-23.881,-21.563,-21.802,-19.443,-18.661,-17.579
-16.17,-9.079,-11.022,-10.279,-9.68,-8.221,-2.813,-4.446
1.7,0.247,7.003,3.933,8.722,6.026,15.393,12.396
0.863,-3.905,7.992,2.375,10.568,4.982,15.054,12.267
-6.633,-11.004,0.704,-5.919,3.485,-2.951,7.34,3.08
4.546,-1.679,7.851,0.43,9.904,2.721,14.611,6.985
35.458,24.35,31.691,24.306,32.787,25.329,36.587,28.415
61.885,46.464,51.598,45.661,52.417,45.969,52.694,48.177
67.556,50.901,53.639,48.938,54.797,49.086,52.833,50.83
62.178,47.879,48.254,42.956,49.936,42.879,47.741,44.557
57.952,49.221,46.845,39.949,49.307,39.668,45.474,40.626
48.238,46.601,40.537,33.371,43.5,33.215,39.199,32.863
25.535,28.631,20.331,14.956,22.565,15.26,23.582,14.365
2.627,5.418,-0.686,-3.891,0.189,-2.984,7.708,-3.371
-2.717,-2.662,-4.548,-6.117,-4.102,-4.698,4.847,-4.426
6.739,3.861,3.336,3.671,4.498,5.389,11.183,5.55
14.448,7.748,5.186,7.149,7.032,8.793,11.11,7.528
13.58,5.346,0.709,2.048,2.469,3.393,4.865,0.153
10.948,6.735,2.458,0.647,3.653,2.103,4.792,-1.827
12.863,13.286,10.538,4.574,10.917,6.609,8.716,3.538
13.982,14.497,12.382,2.444,11.834,4.665,4.51,2.62
8.395,7.056,5.773,-6.973,4.888,-5.527,-5.112,-6.832
4.8,3.029,3.335,-9.603,2.92,-9.344,-6.579,-10.045
12.033,12.482,11.858,1.503,11.601,1.219,3.502,0.599
21.762,27.805,23.031,15.365,21.816,15.512,16.37,15.176
21.978,32.907,25.611,17.66,23.386,18.653,21.207,20.239
13.833,25.039,18.414,8.225,16.508,10.091,15.471,14.177
7.32,17.746,9.959,-0.433,9.325,2.542,8.645,7.117
10.943,21.17,8.13,0.211,8.45,4.657,10.52,7.268
22.869,28.635,11.616,5.909,12.282,11.577,16.85,11.459
28.793,26.44,12.21,7.38,13.568,13.154,15.183,11.112
19.997,14.502,7.518,3.144,10.471,8.061,5.983,5.325
8.232,6.356,4.185,-0.321,8.47,3.843,1.878,1.17
6.974,6.528,3.724,-1.459,8.059,2.475,3.923,-0.036
8.162,5.698,-1.719,-6.418,2.199,-2.553,0.48,-5.293
-1.36,0.853,-13.476,-15.51,-9.774,-11.672,-9.258,-15.096
-11.185,1.716,-19.6,-18.477,-16.486,-14.687,-11.647,-18.597
-7.078,9.742,-14.353,-12.579,-12.277,-9.208,-4.807,-12.833
-1.624,9.695,-10.544,-11.481,-9.167,-8.817,-5.971,-11.958
-8.673,-4.615,-17.699,-21.973,-16.386,-19.65,-20.162,-23.042
-18.322,-18.625,-27.224,-32.125,-26.006,-29.444,-31.54,-33.785
-19.898,-19.919,-29.088,-32.197,-28.404,-28.941,-31.919,-34.37
-17.989,-13.283,-24.767,-27.12,-24.506,-23.887,-28.237,-30.019
-19.995,-10.861,-21.738,-25.882,-21.702,-23.465,-27.064,-29.067
-24.405,-16.729,-23.442,-29.912,-23.976,-28.406,-28.934,-32.116
-25.147,-23.927,-26.669,-34.123,-27.837,-32.783,-31.907,-35
-24.833,-26.116,-28.612,-36.069,-29.855,-34.115,-35.488,-36.986
-32.677,-26.78,-31.329,-39.039,-32.022,-36.705,-40.521,-41.561
-45.067,-30.547,-36.211,-44.116,-36.265,-42.506,-44.678,-48.233
-45.162,-33.1,-39.689,-46.08,-39.903,-45.681,-43.934,-50.301
-29.476,-30.698,-38.544,-42.538,-39.509,-42.729,-40.095,-45.822
-18.385,-30.211,-36.802,-40.236,-37.84,-40.394,-40.881,-43.244
-30.799,-39.843,-43.268,-46.683,-43.753,-46.718,-51.363,-50.819
-58.3,-55.299,-57.692,-58.208,-58.082,-58.248,-65.191,-63.857
-73.848,-61.65,-65.063,-61.672,-65.68,-61.915,-67.361,-68.022
-63.234,-51.77,-55.055,-51.26,-55.56,-51.854,-53.578,-57.811
-39.356,-36.226,-38.468,-36.907,-38.926,-37.813,-38.759,-43.342
-23.288,-26.932,-30.527,-29.531,-31.56,-30.497,-34.551,-34.389
-18.185,-19.982,-27.636,-25.587,-29.2,-26.421,-32.366,-28.21
-12.068,-5.951,-16.531,-15.296,-17.7,-16.094,-20.714,-17.859
-2.26,10.361,0.235,-1.096,-0.147,-1.813,-5.21,-5.717
2.883,15.897,7.599,5.133,7.359,4.718,0.968,-1.058
2.056,10.494,3.505,1.615,2.941,1.395,-2.099,-4.511
2.08,7.151,1.623,-0.471,1.075,-0.781,-2.077,-5.025
6.283,13.291,9.461,5.83,9.214,5.157,6.422,3.698
9.181,20.62,17.79,13.239,17.431,11.99,13.702,12.884
4.819,18.139,16.096,12.251,14.974,10.882,10.717,12.589
-0.276,10.99,9.44,6.675,7.414,6.186,4.894,7.569
4.522,12.731,9.764,7.03,7.518,7.708,7.684,8.39
12.79,20.353,15.18,11.629,13.682,12.757,13.556,12.758
7.491,17.111,12.238,8.024,11.813,8.891,9.228,8.738
-9.263,2.187,-0.351,-4.727,-0.094,-4.392,-2.483,-3.783
-15.347,-5.842,-7.821,-11.595,-7.592,-11.891,-6.712,-10.239
-3.525,1.828,-3.033,-4.554,-3.465,-5.22,0.393,-3.431
6.884,12.763,3.161,5.017,2.223,4.48,6.94,5.388
0.922,13.18,-0.302,3.52,-0.78,3.084,2.985,3.258
-11.299,4.446,-9.708,-6.213,-9.132,-6.782,-6.553,-6.386
-13.539,-3.613,-15.366,-12.383,-14.342,-12.844,-11.617,-11.982
-7.654,-6.748,-16.199,-12.309,-15.701,-12.269,-12.633,-12.361
-8.936,-9.763,-19.499,-13.877,-19.654,-13.089,-18.899,-15.772
-23.245,-18.343,-29.492,-22.168,-30.017,-20.579,-32.347,-25.018
-37.059,-27.537,-38.549,-30.156,-39.691,-28.173,-40.92,-31.723
-36.441,-27.526,-36.283,-28.815,-38.221,-27.339,-36.397,-28.821
-27.745,-21.71,-26.124,-22.228,-28.328,-22.196,-27.706,-22.402
-23.745,-19.554,-19.104,-19.384,-20.956,-21.161,-24.362,-21.142
-21.674,-17.086,-16.046,-18.162,-17.393,-21.136,-21.159,-21.729
-12.324,-5.765,-9.578,-10.77,-10.654,-13.732,-10.935,-15.498
-1.245,6.433,-0.758,-0.668,-1.738,-2.916,-1.417,-5.266
-1.714,4.276,0.275,0.274,-0.545,-1.406,-4.395,-2.944
-9.398,-7.405,-7.17,-6.978,-8.443,-8.323,-15.103,-9.241
-8.96,-9.829,-11.523,-8.795,-14.451,-9.679,-19.479,-11.86
-0.237,1.382,-6.012,-0.097,-10.358,-0.452,-13.732,-4.296
2.846,11.779,1.487,8.554,-2.413,8.297,-7.924,3.95
-8.853,6.089,-3.407,3.808,-5.635,3.057,-14.245,-1.959
-27.019,-11.177,-20.235,-11.515,-21.14,-12.846,-29.195,-19.496
-32.584,-17.531,-29.332,-18.386,-29.986,-19.94,-34.126,-27.595
-20.595,-5.061,-20.684,-8.839,-22.012,-10.481,-21.799,-17.424
-7.819,6.259,-9.984,0.904,-11.841,-0.934,-9.255,-6.364
-7.587,1.691,-11.188,-2.891,-12.573,-4.695,-11.4,-8.62
-10.955,-6.031,-14.397,-10.196,-15.356,-11.676,-17.074,-13.419
-5.61,-2.75,-7.609,-8.052,-9.302,-9.428,-11.058,-8.245
0.309,2.897,0.543,-3.189,-1.942,-4.916,-2.372,-1.929
-8.003,-3.042,-3.641,-7.9,-5.772,-10.174,-7.672,-8.214
-24.023,-14.693,-14.517,-16.722,-16.247,-19.153,-20.689,-20.234
-27.523,-15.526,-14.302,-13.702,-16.784,-15.486,-20.821,-18.724
-17.342,-7.048,-2.526,-1.102,-5.429,-1.973,-8.51,-4.941
-13.048,-7.556,0.354,-0.505,-0.971,-1.178,-7.036,-2.739
-25.746,-23.215,-16.38,-20.379,-15.671,-21.471,-25.191,-21.896
-44.199,-40.157,-37.853,-42.857,-36.966,-43.933,-44.157,-43.259
-50.793,-45.397,-46.132,-49.949,-46.128,-50.374,-48.018,-48.111
-46.495,-43.693,-44.419,-47.344,-43.996,-47.353,-44.432,-43.314
-45.163,-45.717,-44.921,-48.476,-42.87,-48.697,-44.591,-43.16
-46.429,-47.656,-45.998,-49.888,-43.343,-50.309,-43.664,-43.599
-40.507,-40.529,-39.888,-42.106,-37.981,-42.126,-33.591,-34.581
-31.98,-31.009,-31.937,-31.383,-30.033,-30.717,-21.335,-22.981
-31.875,-31.135,-33.275,-30.153,-30.136,-29.069,-20.966,-22.742
-34.12,-35.524,-38.977,-33.626,-35.316,-32.471,-28.886,-29.773
-26.003,-30.846,-34.87,-27.884,-32.165,-26.689,-27.953,-28.273
-12.992,-19.41,-23.296,-15.692,-21.734,-14.024,-18.303,-18.256
-10.217,-15.227,-19.737,-12.558,-18.834,-10.049,-16.916,-14.732
-19.749,-23.405,-28.948,-23.22,-28.731,-20.107,-29.182,-23.895
-31.193,-33.667,-40.294,-36.712,-40.699,-33.38,-42.805,-35.963
-36.814,-34.98,-43.049,-41.778,-43.516,-38.64,-46.109,-39.629
-37.611,-30.245,-38.209,-39.058,-38.603,-37.161,-40.296,-35.441
-38.769,-29.285,-34.32,-36.613,-34.921,-37.006,-34.971,-32.468
-41.973,-33.419,-34.941,-37.607,-35.546,-39.894,-35.071,-34.61
-41.87,-34.168,-34.455,-36.043,-34.928,-38.52,-34.406,-35.022
-34.369,-25.563,-27.998,-27.182,-28.897,-28.687,-27.272,-28.257
-24.852,-14.111,-19.486,-16.895,-21.065,-17.834,-19.127,-20.431
-23.197,-13.664,-17.587,-15.144,-19.469,-16.298,-19.236,-20.489
-33.98,-28.63,-27.874,-25.325,-29.993,-26.384,-30.617,-30.164
-50.178,-45.411,-45.034,-40.025,-47.304,-39.998,-45.885,-42.856
-60.296,-49.666,-57.413,-49.358,-58.903,-47.939,-55.196,-51.122
-63.342,-45.306,-63.708,-54.631,-63.755,-52.347,-60.092,-57.202
-65.165,-43.069,-70.324,-61.586,-69.775,-58.814,-65.896,-65.415
-65.645,-42.179,-74.574,-65.421,-74.533,-62.229,-68.23,-69.039
-62.021,-37.361,-70.516,-60.237,-70.791,-57.018,-63.038,-61.933
-59.12,-36.39,-66.986,-56.63,-66.814,-53.813,-60.117,-55.791
-66.275,-51.869,-77.251,-68.815,-76.398,-66.197,-71.221,-65.781
-81.366,-74.243,-92.672,-86.595,-91.565,-83.808,-87.381,-82.672
-88.6,-78.349,-91.488,-85.206,-91.346,-82.351,-87.639,-82.893
-79.691,-60.986,-72.254,-63.276,-74.171,-60.609,-70.95,-64.575
-64.463,-45.318,-55.498,-45.073,-58.723,-42.538,-56.782,-49.009
-54.459,-45.018,-53.14,-44.017,-55.98,-41.326,-55.026,-47.544
-49.174,-49.014,-55.424,-48.434,-57.595,-45.646,-56.303,-49.659
-45.848,-47.505,-52.639,-48.087,-54.595,-45.741,-53.763,-46.702
-48.945,-47.566,-50.785,-49.699,-51.967,-48.059,-53.286,-45.815
-58.481,-53.41,-55.971,-57.435,-55.863,-56.173,-55.485,-51.596
-63.371,-54.39,-60.324,-60.802,-59.666,-59.659,-51.271,-53.309
-55.055,-42.318,-53.257,-51.066,-52.752,-50.258,-39.655,-41.942
-39.287,-26.589,-38.39,-35.88,-37.868,-35.701,-28.667,-26.493
-29.999,-21.354,-28.671,-27.773,-28.138,-28.244,-22.269,-20.344
-31.597,-25.172,-27.26,-26.245,-27.353,-27.038,-20.643,-22.08
-33.571,-26.01,-26.014,-22.401,-27.33,-22.882,-22.23,-21.56
-27.621,-21.42,-21.951,-14.814,-24.56,-14.507,-22.286,-16.523
-21.642,-20.987,-22.557,-11.059,-25.724,-9.875,-21.371,-14.41
-26.064,-28.001,-30.775,-14.013,-33.169,-11.843,-24.436,-18.195
-33.94,-32.015,-36.979,-15.713,-38.002,-12.503,-27.942,-19.874
-29.739,-23.46,-31.549,-8.22,-31.834,-4.401,-22.636,-12.136
-16.096,-7.706,-18.422,4.573,-18.484,8.51,-8.775,0.518
-13.846,-2.549,-12.616,8.553,-12.449,12.539,-0.169,4.918
-27.812,-15.566,-19.687,-1.116,-19.784,2.882,-5.455,-2.991
-35.7,-28.746,-24.485,-8.545,-25.442,-4.825,-12.148,-8.946
-22.762,-22.148,-12.23,0.809,-13.409,3.995,-4.352,-0.084
-3.344,-3.014,8.683,17.305,8.462,19.872,11.775,14.966
4.206,7.7,18.647,21.814,19.119,23.426,17.8,18.887
4.779,7.361,15.759,14.722,15.554,14.699,12.93,12.287
10.939,8.34,14.28,11.24,13.009,9.509,11.278,9.705
17.061,12.468,17.488,13.863,15.932,11.3,13.894,13.202
12.705,12.049,15.913,12.765,14.798,10.043,11.392,12.795
4.42,7.108,9.083,7.776,8.686,4.949,6.168,8.092
4.134,5.364,7.507,9.268,7.546,6.576,8.789,9.143
10.225,9.887,14.362,19.402,13.99,17.056,19.607,18.385
12.197,14.32,20.121,27.37,18.993,24.91,27.56,25.829
7.305,13.01,18.591,26.639,17.584,23.826,26.595,25.231
4.525,11.23,16.791,25.064,16.581,22.495,24.113,23.998
13.126,18.478,23.784,32.634,23.428,30.723,29.524,31.517
30.949,32.992,36.939,46.418,35.18,44.746,40.648,44.521
45.565,41.884,44.956,54.158,42.024,52.231,46.961,51.124
49.955,40.424,43.736,52.055,40.762,50.192,45.389,48.606
49.766,38.021,40.627,48.45,38.401,47.233,43.482,45.768
49.314,40.196,40.919,48.924,39.708,48.151,45.187,47.443
42.563,38.198,39.381,48.428,39.066,47.761,44.539,48.111
25.646,24.307,30.345,41.009,30.901,40.947,37.221,41.922
9.723,9.599,20.62,32.194,22.337,33.238,30.206,33.821
9.869,10.522,21.387,32.462,23.952,34.11,32.297,33.678
22.985,21.555,30.109,39.517,32.475,40.861,39.537,39.995
29.629,22.787,33.814,40.675,35.674,41.623,40.144,41.343
22.048,13.295,29.857,34.079,31.887,35.344,34.107,35.625
16.426,11.174,29.334,31.764,31.542,33.418,34.232,33.586
24.755,19.608,36.328,37.718,37.87,38.744,43.211,39.153
33.053,23.197,40.525,41.14,41.533,41.064,48.311,42.924
26.159,16.468,34.792,35.063,36.384,34.762,42.51,38.545
13.382,9.493,25.73,26.931,28.121,27.103,34.579,32.095
11.042,10.232,23.636,27.794,26.249,28.25,35.557,32.805
16.733,15.885,27.649,36.171,30.262,37.172,41.469,39.131
18.94,19.571,28.087,40.628,30.512,43.032,39.759,41.218
19.359,20.455,23.571,38.76,25.38,42.664,31.708,37.452
27.705,24.788,24.362,41.065,25.222,45.635,31.221,37.79
42.352,36.016,36.655,53.437,36.482,57.603,43.451,48.396
49.975,45.918,51.03,64.871,50.327,67.653,56.871,59.519
43.946,44.8,54.199,62.009,53.722,62.873,58.442,57.842
33.184,38.144,49.224,50.642,48.842,49.647,51.638,47.507
29.263,36.314,48.528,45.228,47.566,42.787,48.666,42.057
31.66,34.948,50.259,43.313,49.016,40.17,48.011,40.366
29.451,24.137,42.113,31.581,41.799,28.415,38.522,30.806
19.354,8.623,26.429,12.746,27.725,9.381,23.965,15.579
15.413,3.49,20.315,5.14,22.89,0.933,20.843,10.501
28.053,13.426,30.066,15.342,33.331,10.172,32.674,20.594
44.134,25.974,42.066,28.791,45.559,22.907,44.526,32.171
46.554,28.089,42.857,31.803,45.985,25.729,43.899,33.015
41.352,24.515,38.52,30.612,40.754,25.519,37.99,30.011
43.548,28.494,42.826,37.347,44.236,33.947,40.449,35.272
49.448,36.549,51.527,45.879,52.733,43.404,46.127,42.839
44.682,32.971,48.605,40.921,50.268,38.504,40.249,38.213
29.385,19.475,35.394,25.951,37.748,23.872,27.79,24.877
20.503,15.839,30.684,20.549,33.353,19.435,28.128,21.296
28.122,26.426,39.809,29.395,42.405,29.159,41.399,31.648
38.763,31.309,45.676,34.839,48.477,34.62,47.075,38.611
35.523,19.582,37.312,26.447,40.586,25.341,37.938,31.65
24.841,6.889,26.958,17.343,30.266,15.244,28.303,23.265
26.16,10.731,30.623,22.637,33.795,19.943,31.025,28.23
40.785,26.223,44.45,36.732,47.98,33.354,43.492,41.35
48.632,34.686,51.075,42.971,54.793,38.657,51.717,46.927
40.741,30.812,47.253,39.816,50.297,35.171,49.121,44.231
34.332,29.5,49.091,42.55,51.34,38.679,49.133,48.648
45.082,40.575,64.507,57.539,66.646,54.876,63.466,65.677
62.496,52.757,78.738,70.672,81.162,68.704,78.448,79.5
66.134,54,78.388,69.646,80.896,67.531,77.783,76.749
58.595,52.014,73.758,64.588,76.185,61.92,72.463,68.864
61.677,59.711,80.772,71.704,83.504,68.972,80.509,74.448
77.511,71.105,92.171,84.977,95.694,83.076,94.473,87.978
80.29,68.688,87.052,83.536,91.067,82.923,92.813,87.292
57.7,51.244,65.35,65.366,69.053,65.937,73.641,69.18
35.445,38.497,51.533,52.765,54.695,53.906,59.436,55.508
39.615,44.125,59.937,60.009,62.865,60.937,66.15,61.793
58.073,57.598,76.532,75.622,79.399,76.352,82.769,78.186
66.315,62.495,82.994,83.028,86.004,84.313,91.018,87.033
66.009,60.389,80.695,81.895,84.186,84.155,89.812,86.173
72.951,64.487,82.323,83.081,85.918,86.054,90.128,86.848
87.024,76.659,90.472,89.611,92.828,92.229,95.648,92.564
93.44,81.821,92.974,89.403,93.429,89.953,96.04,90.889
85.957,69.025,81.602,74.191,81.188,72.532,82.002,75.042
72.939,50.223,67.355,57.489,67.186,56.168,62.968,60.506
61.681,43.107,63.214,54.23,63.375,54.875,53.973,60.03
48.993,41.414,60.361,52.938,60.67,53.62,48.026,57.275
30.161,27.438,44.397,35.52,44.616,33.858,29.648,33.726
12.042,7.211,24.198,11.573,23.997,7.775,7.986,4.964
9.098,2.2,19.106,4.395,18.549,-0.074,3.925,-0.856
21.152,10.99,26.855,13.638,26.147,9.335,15.508,13.366
25.142,9.972,26.027,16.057,25.335,12.378,20.631,18.714
6.48,-7.074,9.47,2.12,9.241,-0.564,8.653,4.08
-12.555,-18.299,-3.317,-8.919,-3.178,-11.071,-4.746,-8.774
-4.529,-8.635,3.909,0.09,3.154,-2.82,-1.021,-1.282
16.758,6.585,17.459,15.709,15.085,11.322,11.286,12.255
18.521,4.747,14.541,14.727,11.7,9.49,9.526,9.012
2.608,-8.927,0.721,2.088,-1.324,-3.127,-4.379,-4.492
-2.478,-10.656,1.003,1.589,-0.535,-3.855,-6.79,-4.448
10.237,3.118,18.017,15.374,16.185,8.882,7.646,10.018
20.311,12.946,27.758,22.401,25.409,15.288,18.593,17.143
13.231,7.24,16.7,12.752,14.077,6.805,11.683,7.829
-2.861,-4.478,-0.236,-0.325,-2.515,-4.043,-3.119,-3.658
-12.35,-9.002,-5.227,-3.335,-6.508,-5.479,-8.414,-4.653
-13.428,-9.83,-3.592,-1.984,-3.861,-3.328,-4.746,-1.934
-16.543,-19.171,-10.031,-9.207,-9.947,-9.741,-7.1,-8.044
-25.806,-34.348,-22.813,-23.463,-22.776,-23.522,-20.112,-21.532
-32.382,-39.582,-27.318,-29.948,-26.979,-30.3,-29.805,-28.293
-30.712,-32.738,-20.825,-23.913,-20.1,-24.815,-25.32,-22.717
-29.992,-30.174,-17.998,-19.905,-17.506,-21.381,-18.136,-18.085
-34.022,-37.023,-24.281,-25.839,-24.012,-28.014,-20.786,-22.846
-29.047,-37.199,-24.821,-27.734,-24.071,-30.264,-22.415,-24.319
-9.517,-21.977,-11.058,-15.292,-10.145,-17.537,-10.671,-12.494
7.086,-6.279,2.87,-1.993,3.121,-3.903,2.498,-0.114
5.625,-6.499,1.587,-4.443,1.773,-6.437,0.253,-3.304
-3.783,-15.423,-7.37,-15.177,-6.183,-17.188,-11.834,-14.862
-3.439,-15.612,-6.065,-15.478,-4.055,-16.774,-16.439,-15.53
4.138,-8.177,4.813,-6.233,6.998,-6.477,-9.085,-5.001
4.081,-6.88,8.274,-3.868,10.242,-3.943,-1.189,-0.639
-4.167,-12.7,-0.657,-12.19,0.606,-13.202,-2.957,-8.281
-5.203,-13.178,-7.16,-17.32,-6.757,-19.201,-7.841,-13.59
8.429,-2.827,-0.784,-10.207,-0.669,-12.199,-3.606,-6.055
23.442,8.31,8.709,-0.142,9.055,-1.997,5.634,4.493
23.59,8.623,8.17,-0.097,8.904,-2.159,5.889,4.343
13.55,1.863,1.418,-7.283,2.842,-9.796,-2.854,-2.964
13.041,3.197,2.372,-7.362,4.309,-10.077,-5.222,-2.94
26.929,16.047,12.694,3.174,13.754,0.44,5.108,7.148
38.694,26.072,20.016,11.815,19.224,8.744,15.256,15.332
37.009,25.245,19.251,11.213,17.738,7.668,16.183,15.471
30.267,23.934,20.093,10.181,19.774,6.655,17.722,16.204
30.746,30.426,29.251,16.61,30.563,13.636,28.269,24.372
35.333,34.864,36.725,21.925,38.738,19.564,36.228,30.627
32.295,27.165,31.164,16.047,33.396,14.194,29.608,24.598
24.346,17.472,20.706,7.378,23.453,6.208,18.95,15.028
26.152,20.556,20.928,9.729,24.031,9.357,20.658,16.606
38.342,32.226,30.75,20.305,33.63,20.43,31.896,26.706
45.621,37.971,36.82,26.253,39.413,26.509,37.639,31.382
43.96,36.284,35.975,25.779,38.188,25.907,34.543,28.498
46.77,38.938,38.242,29.183,39.468,28.89,34.054,29.75
58.836,49.744,46.887,39.054,47.171,38.263,41.192,38.743
65.898,56.88,51.604,44.616,51.798,43.672,46.355,44.139
56.355,50.738,45.81,39.214,46.056,38.614,42.008,38.958
40.774,38.694,37.235,30.299,37.018,30.492,33.858,31.241
37.894,34.369,36.03,28.428,35.649,29.718,31.983,31.111
45.631,37.914,40.018,32.827,40.2,35.094,37.153,36.922
47.518,38.843,40.029,34.099,40.453,36.745,40.611,39.406
42.731,35.914,36.284,30.455,36.151,32.747,37.698,36.155
45.576,39.2,38.808,31.868,38.159,33.268,36.486,36.094
58.542,50.894,49.502,42.784,48.701,43.245,44.205,44.716
63.791,57.43,54.202,50.52,53.11,50.78,49.956,50.933
49.5,48.928,42.377,43.077,40.808,44.06,39.704,42.376
31.249,36.763,25.213,29.452,23.403,31.215,22.82,27.552
30.45,38.697,22.586,28.473,20.995,30.418,21.834,26.229
44.026,51.61,36.632,41.728,35.661,43.526,38.634,40.168
53.469,57.176,49.696,52.284,49.544,53.874,51.897,51.124
53.985,52.913,51.844,52.835,52.177,53.783,51.138,50.832
56.846,54.153,53.641,55.319,53.483,55.027,50.491,51.489
66.768,66.538,63.838,66.92,62.673,65.712,60.898,61.798
73.474,77.226,72.781,76.235,71.518,75.379,70.273,71.421
70.915,75.555,69.577,72.617,69.209,72.927,65.526,68.349
69.661,69.879,62.865,65.743,62.993,66.72,57.73,61.013
78.912,75.035,68.089,70.974,68.005,71.589,64.827,66.337
90.694,89.165,81.729,84.262,81.688,84.488,81.207,81.696
92.512,95.945,87.115,89.135,87.429,90.274,86.225,88.849
87.067,91.266,82.807,84.249,83.094,87.341,77.92,84.241
89.408,91.081,84.787,85.16,85.041,89.491,76.737,84.611
103.371,103.093,97.921,96.648,98.835,100.505,91.374,97.207
115.724,113.452,108.067,105.433,109.476,107.935,105.064,107.895
117.579,112.095,106.335,103.725,106.885,105.025,104.055,106.178
113.863,107.637,100.869,99.353,99.977,99.617,96.701,100.016
111.944,110.407,102.244,101.3,100.999,100.824,97.357,100.885
111.8,114.895,107.087,105.384,106.753,105.107,104.144,105.721
108.275,110.048,104.533,101.458,105.224,102.143,103.855,103.083
101.657,100.315,96.61,92.342,97.64,93.763,96.09,94.387
100.453,99.41,96.051,90.841,96.97,92.345,94.765,92.814
109.259,109.065,105.533,100.068,106.537,101.389,104.495,101.967
117.306,115.895,112.861,108.314,114.382,109.686,112.336,109.702
109.756,108.62,107.672,104.909,109.656,106.686,107.275,105.546
90.26,92.951,94.66,94.418,96.294,96.482,94.569,94.498
77.339,83.553,86.132,88.924,86.67,90.779,87.012,88.567
77.874,84.705,85.701,90.937,85.182,92.413,88.787,90.445
79.617,85.061,83.676,89.812,82.445,90.83,88.643,89.401
73.037,74.89,72.299,77.816,70.574,78.113,76.329,77.364
64.848,63.281,60.825,65.26,58.839,65.061,62.124,64.703
65.983,66.309,64.445,68.605,62.45,68.431,63.582,67.618
76.391,82.241,81.374,86.172,79.28,86.115,79.562,84.424
84.559,94.302,94.12,99.869,91.595,99.878,92.28,97.665
85.255,97.507,95.891,102.482,93.152,102.706,93.675,99.506
89.297,102.365,98.061,104.897,95.731,105.556,94.257,99.738
101.128,109.514,104.358,110.724,102.452,111.829,98.653,103.037
105.9,106.758,102.86,108.386,101.023,109.516,95.693,99.873
95.275,92.101,89.347,93.821,87.764,94.675,81.894,86.827
81.733,76.93,74.574,78.189,73.521,79.13,69.413,74.263
