EEG 1,EEG 2,EEG 3,EEG 4,EEG 5,EEG 6,EEG 7,EEG 8
-55.365,-81.82,-46.47,-28.73,-39.174,-16.68,-39.804,-42.912
-52.897,-74.783,-36.483,-23.536,-31.391,-11.493,-30.541,-31.735
-50.477,-69.738,-34.554,-13.78,-24.515,-3.861,-20.891,-18.231
-50.47,-70.426,-37.798,-6.925,-22.807,1.515,-18.077,-5.869
-56.836,-74.563,-41.529,-11.08,-28.041,-1.672,-25.434,-3.999
-66.437,-78.01,-43.207,-18.217,-33.368,-7.324,-34.291,-7.623
-71.769,-79.568,-43.571,-16.491,-33.18,-5.798,-34.783,-6.907
-68.832,-78.187,-44.125,-12.169,-31.587,-2.648,-29.419,-6.776
-60.751,-71.635,-44.343,-14.96,-32.347,-6.594,-25.927,-14.481
-52.181,-62.163,-41.199,-18.219,-31.314,-11.468,-24.919,-22.109
-45.961,-57.826,-36.312,-15.99,-27.43,-11.039,-23.207,-17.993
-45.606,-62.049,-37.189,-15.769,-27.312,-11.769,-21.795,-4.909
-50.125,-67.375,-42.987,-21.079,-32.672,-16.965,-23.968,3.804
-51.433,-65.541,-44.176,-23.931,-36.823,-18.93,-29.071,2.426
-47.659,-59.449,-41.33,-22.956,-37.807,-16.519,-33.881,-9.395
-46.618,-57.624,-42.824,-27.076,-40.637,-19.752,-37.524,-32.992
-49.679,-59.364,-47.279,-34.246,-44.795,-27.972,-38.394,-50.036
-48.699,-56.302,-47.584,-31.868,-43.958,-27.282,-32.402,-35.088
-40.357,-46.298,-42.606,-19.53,-36.466,-14.922,-21.291,-1.883
-32.36,-37.792,-38.659,-11.796,-30.067,-6.225,-16.352,7.963
-33.794,-40.072,-43.031,-19.712,-34.727,-13.691,-25.996,-18.767
-42.248,-49.691,-50.884,-34.565,-46.077,-28.288,-40.864,-46.95
-46.749,-54.302,-50.644,-38.904,-49.217,-33.068,-44.307,-42.398
-42.556,-49.913,-43.963,-32.477,-43.015,-28.272,-37.593,-23.35
-34.886,-42.285,-40.616,-26.486,-38.384,-23.683,-34.701,-21.298
-31.509,-37.801,-43.848,-23.835,-38.806,-21.44,-38.629,-27.848
-36.602,-40.775,-51.934,-24.571,-42.256,-21.928,-43.417,-28.598
-45.98,-48.943,-59.162,-29.551,-47.421,-25.962,-46.682,-32.846
-49.831,-53.225,-58.077,-31.263,-49.713,-26.949,-47.499,-40.692
-44.741,-50.794,-49.861,-22.631,-45.408,-19.204,-44.381,-36.901
-36.09,-47.824,-41.869,-11.614,-37.295,-9.724,-38.802,-20.76
-29.24,-46.64,-35.883,-12.163,-30.078,-10.059,-34.095,-5.1
-26.832,-44.501,-30.931,-24.891,-26.823,-20.046,-33.072,-0.479
-29.443,-42.249,-30.105,-36.674,-28.577,-28.051,-36.893,-11.615
-32.363,-41.71,-33.463,-37.925,-31.34,-27.104,-40.292,-26.604
-30.973,-41.386,-36.673,-31.996,-30.906,-22.555,-36.144,-24.619
-30.385,-43.045,-40.867,-31.313,-32.214,-25.587,-31.694,-15.236
-35.861,-50.306,-46.837,-43.453,-39.695,-39.625,-39.557,-25.864
-41.718,-57.721,-47.909,-56.599,-45.137,-51.462,-51.248,-43.727
-41.109,-56.118,-41.452,-52.993,-39.957,-46.473,-47.35,-33.312
-34.62,-47.063,-33.394,-35.921,-28.594,-29.899,-29.339,-2.813
-28.825,-41.524,-30.167,-24.932,-22.419,-20.203,-18.905,5.393
-29.384,-44.907,-33.389,-27.684,-26.087,-24.199,-27.165,-17.178
-30.792,-49.448,-36.56,-32.336,-31.768,-29.889,-39.744,-35.198
-24.404,-46.76,-31.14,-29.119,-29.908,-26.837,-39.825,-26.845
-16.2,-40.431,-22.073,-25.303,-23.931,-21.899,-32.251,-9.062
-17.18,-36.002,-22.44,-29.303,-24.096,-24.53,-30.554,-5.888
-22.352,-29.745,-30.325,-32.235,-28.866,-27.833,-33.68,-16.815
-21.546,-20.775,-34.457,-25.551,-29.494,-23.103,-33.648,-24.889
-20.261,-19.513,-35.363,-21.482,-28.666,-19.494,-33.45,-26.394
-25.13,-27.5,-35.962,-27.183,-31.488,-23.638,-37.958,-25.842
-26.123,-29.478,-31.224,-27.078,-30.522,-23.506,-40.456,-18.224
-16.786,-21.282,-23.42,-17.103,-22.666,-15.786,-35.326,-8.881
-8.749,-17.725,-22.361,-15.862,-19.259,-16.063,-29.014,-15.185
-8.853,-21.892,-25.95,-25.654,-23.124,-26.134,-26.226,-27.607
-8.293,-19.284,-23.721,-25.918,-22.59,-27.131,-23.909,-20.904
-3.076,-8.55,-16.797,-12.414,-16.074,-14.431,-22.436,-4.194
0.461,-4.286,-13.634,-3.174,-14.197,-5.164,-24.154,-2.441
-0.19,-9.195,-14.991,-6.013,-18.855,-7.987,-27.273,-9.997
-2.286,-12.4,-18.274,-11.484,-23.369,-13.978,-29.734,-8.995
-4.535,-9.768,-22.716,-11.916,-25.175,-14.607,-29.807,-1.619
-5.995,-5.628,-24.383,-7.049,-24.541,-9.27,-25.295,3
-3.523,-0.683,-19.058,0.945,-20.136,-1.207,-18.017,5.671
2.766,6.611,-11.594,5.973,-14.721,2.604,-15.851,5.567
6.75,12.268,-11.698,1.613,-15.704,-3.449,-23.932,-3.483
6.884,12.913,-17.94,-7.649,-22.559,-13.461,-34.411,-16.158
9.149,12.823,-18.768,-10.168,-25.27,-15.985,-35.731,-18.671
14.5,17.234,-10.758,-3.059,-19.495,-9.359,-28.688,-7.57
18.436,25.488,-2.058,5.371,-11.124,-1.783,-21.818,7.856
21.742,34.674,1.546,9.005,-4.953,1.573,-17.478,15.721
26.322,43.331,2.157,10.155,-1.042,2.806,-13.434,11.232
28.202,49.179,2.094,10.936,-0.96,3.212,-12.346,-0.804
27.081,51.797,2.512,11.674,-4.156,3.375,-16.406,-7.513
31.038,56.571,7.376,17.124,-2.93,9.166,-18.407,3.521
44.002,66.801,17.379,28.768,6.834,22.433,-12.038,24.831
59.165,76.704,25.98,36.213,16.872,31.505,-4.242,31.224
66.809,79.033,26.002,30.438,16.493,25.561,-6.813,13.239
61.517,73.269,13.535,16.229,4.71,9.568,-20.949,-10.329
43.69,63.229,-7.547,3.552,-11.287,-4.509,-36.103,-19.096
21.984,54.328,-23.063,-2.028,-23.297,-10.735,-41.909,-14.061
10.725,53,-23.102,-0.835,-26.323,-10.578,-38.671,-11.056
15.728,61.183,-13.006,3.847,-20.078,-6.803,-32.293,-15.319
27.786,72.509,-2.761,10.012,-9.079,-0.364,-24.024,-14.873
34.897,77.334,2.213,13.602,-1.707,3.635,-16.423,-6.843
34.726,72.121,1.093,11.014,-2.721,0.1,-16.478,-2.23
32.825,63.875,-0.412,8.05,-5.316,-4.358,-22.109,-0.593
33.087,61.726,5.073,11.181,-0.314,-1.471,-22.504,6.468
33.774,64.621,14.174,15.634,8.292,3.798,-16.227,13.099
31.872,64.634,16.78,13.838,9.939,2.582,-12.558,8.094
28.951,61.314,14.898,8.995,6.525,-1.931,-12.669,0.337
27.896,59.473,17.062,9.186,5.733,-0.941,-10.781,4.289
25.469,56.048,17.704,11.418,3.253,2.859,-11.902,6.656
18.253,46.771,8.385,8.193,-5.836,1.398,-20.529,-7.082
10.38,37.704,-4.405,3.438,-14.558,-3.307,-26.11,-18.296
8.101,36.853,-10.342,4.593,-16.347,-4.692,-21.833,-10.785
13.48,43.847,-8.539,9.554,-12.418,-2.043,-15.241,3.007
24.159,53.071,-3.207,13.11,-5.81,2.188,-11.548,12.758
33.242,58.955,3.398,13.414,0.597,4.346,-8.438,20.39
29.94,55.344,5.236,6.381,-0.009,-2.672,-9.818,15.914
11.02,40.735,-6.359,-8.742,-12.806,-19.066,-21.667,-8.567
-10.161,25.359,-24.739,-20.068,-29.096,-30.797,-34.988,-28.917
-19.502,19.216,-32.902,-17.507,-35.498,-27.666,-36.696,-22.053
-17.815,20.017,-27.626,-6.994,-31.679,-16.741,-28.799,-4.539
-12.897,21.59,-19.804,-1.145,-26.287,-10.758,-21.762,-2.086
-9.544,22.33,-18.255,-4.537,-23.998,-13.842,-21.058,-13.734
-8.165,23.486,-21.9,-10.853,-21.957,-19.973,-24.566,-24.56
-6.428,24.887,-25.502,-12.74,-17.161,-22.382,-27.145,-26.431
-5.036,23.156,-29.481,-10.504,-14.272,-21.078,-27.504,-19.337
-7.842,16.61,-36.376,-9.215,-17.752,-19.708,-28.31,-10.834
-13.167,9.526,-41.577,-10.907,-21.549,-19.387,-29.281,-10.801
-14.145,7.22,-39.117,-12.368,-17.714,-18.346,-27.206,-17.958
-8.576,10.194,-31.159,-10.838,-7.518,-16.176,-21.374,-21.945
-2.276,14.209,-23.746,-8.258,2.824,-15.042,-14.377,-17.266
-1.171,14.799,-19.315,-6.983,10.015,-15.413,-10.111,-6.826
-3.239,12.726,-16.981,-4.907,14.39,-13.677,-9.308,3.836
-4.834,9.82,-16.628,-0.466,15.34,-8.619,-9.377,10.044
-8.77,3.164,-20.271,1.897,10.006,-5.874,-11.59,5.886
-15.422,-6.251,-27.917,-0.966,0.408,-8.463,-17.966,-10.014
-16.992,-10.443,-32.137,-4.831,-4.069,-11.279,-22.659,-25.092
-10.818,-7.629,-24.875,-3.973,1.783,-9.507,-19.204,-25.823
-4.435,-4.62,-12.779,3.1,11.445,-3.317,-10.276,-14.475
-1.4,-4.6,-9.495,12.687,16.964,3.922,-2.286,-0.86
2.997,-3.526,-12.152,19.714,19.217,9.435,2.843,10.289
8.322,-0.256,-8.58,22.049,21.234,12.869,4.042,15.259
6.123,-2.018,-3.268,18.311,18.851,11.685,-4.225,6.212
-4.548,-11.455,-9.647,10.469,8,5.752,-20.338,-13.497
-13.793,-18.814,-23.575,5.434,-4.749,1.978,-29.173,-23.301
-15.796,-17.764,-29.52,3.745,-8.951,1.492,-24.098,-14.334
-11.886,-12.716,-24.636,0.48,-2.652,-0.134,-16.102,-0.012
-3.428,-6.936,-16.605,-2.397,7.354,-0.452,-13.301,7.061
5.758,-1.643,-8.475,-1.394,14.28,2.637,-14.015,5.607
9.244,-1.709,-1.473,-0.883,16.075,3.601,-15.966,0.58
8.45,-7.167,0.354,-4.235,14.013,0.524,-16.673,-3.615
13.263,-8.484,-0.607,-4.907,12.835,0.846,-12.478,-4.88
25.935,-1.096,2.885,0.68,16.435,6.779,-3.494,-0.146
35.127,6.144,8.569,1.57,19.973,6.317,3.583,6.291
33.005,5.602,8.943,-9.074,17.662,-6.407,2.434,2.208
26.895,2.617,6.688,-17.813,14.987,-16.043,-2.292,-8.57
25.426,2.454,8.624,-12.429,17.991,-10.26,-2.578,-9.252
24.587,-1.621,10.938,-3.243,19.648,-1.361,-2.67,-3.808
19.074,-13.766,6.972,-5.595,12.516,-4.713,-9.954,-9.321
12.211,-25.246,-0.351,-16.534,1.786,-14.989,-19.487,-21.517
6.299,-28.99,-5.67,-22.733,-4.133,-19.425,-22.728,-22.491
3.675,-25.793,-7.407,-18.504,-2.569,-15.409,-19.099,-9.938
10.24,-17.001,-4.391,-8.119,4.255,-6.709,-12.026,2.203
21.014,-7.09,1.047,0.496,10.154,1.809,-5.361,6.26
23.107,-3.22,2.021,2.662,9.902,5.381,-3.431,9.672
16.759,-5.673,-2.457,1.102,5.084,4.285,-6.518,16.009
12.122,-9.868,-6.518,-0.018,-0.828,2.491,-11.115,12.999
12.463,-13.055,-8.251,-1.031,-7.376,1.331,-14.516,-6.06
14.708,-13.288,-9.447,-1.559,-12.165,1.324,-13.6,-23.278
17.425,-10.777,-9.147,0.594,-11.999,3.285,-8.472,-20.548
21.526,-7.635,-4.915,3.786,-8.52,5.101,-5.295,-6.258
27.124,-2.588,3.157,5.185,-3.875,5.455,-6.168,4.351
31.322,5.045,10.76,5.203,1.738,6.189,-6.656,9.09
30.315,10.018,12.817,4.429,5.619,6.627,-3.998,9.343
24.071,8.809,9.739,2.693,5.145,4.697,-0.682,6.775
18.509,6.693,7.169,3.836,3.556,4.663,-1.059,5.199
19.8,9.933,8.81,10.476,5.28,10.083,-3.7,2.808
24.321,15.086,12.349,15.318,8.28,13.588,-3.741,-2.951
23.919,15.566,14.188,13.011,8.452,10.542,-2.256,-2.714
20.347,13.285,13.101,8.373,5.719,6.967,-3.939,7.286
20.494,13.388,8.287,4.807,0.847,5.241,-9.167,9.03
23.208,15.182,1.731,4.225,-4.613,5.029,-12.184,-3.724
23.039,15.712,-1.15,11.187,-6.145,11.02,-7.698,-7.189
22.323,17.703,2.823,24.155,-1.107,23.637,1.481,9.664
27.239,25.204,12.331,34.105,6.896,34.097,7.505,24.988
32.103,31.907,21.052,34.027,10.397,33.621,5.954,21.578
27.116,29.623,22.697,27.552,7.147,25.266,0.946,11.202
19.39,24.546,19.86,26.037,4.175,22.264,2.017,13.651
20.735,25.389,18.7,31.137,6.012,28.133,10.006,24.331
26.434,27.022,19.624,32.777,7.533,32.405,14.094,19.931
28.238,23.539,21.484,30.474,5.452,32.231,10.101,1.734
27.941,20.394,23.851,33.102,3.33,34.275,4.545,-1.949
26.061,19.61,20.976,36.041,-0.26,34.138,-2.273,11.905
19.12,13.865,8.294,26.228,-11.365,21.57,-15.071,12.858
11.11,3.96,-5.555,6.7,-24.913,2.325,-27.446,-6.847
10.053,-0.875,-8.502,-5.705,-28.137,-7.623,-27.912,-17.217
14.126,-0.61,-3.013,-3.632,-21.467,-4.259,-19.229,-4.122
14.617,-2.034,-1.267,2.965,-18.157,1.478,-16.39,7.88
10.701,-4.87,-5.158,4.031,-22.291,0.576,-24.703,-1.248
8.456,-4.481,-4.72,2.284,-24.547,-4.093,-31.745,-18.969
10.963,-0.319,4.367,4.459,-18.729,-4.936,-26.16,-23.308
18.545,5.809,15.981,12.131,-8.038,1.628,-11.954,-7.531
27.295,11.663,23.68,20.299,0.859,10.737,-0.19,13.762
29.456,14.28,26.659,21.921,4.282,13.482,2.76,17.75
25.431,14.31,28.751,19.178,4.984,10.69,-1.806,4.889
22.756,15.39,31.304,18.812,5.118,9.525,-9.252,-6.42
23.865,18.034,29.698,18.044,1.634,8.717,-15.579,-12.809
27.529,21.554,23.878,15.092,-3.588,7.145,-16.378,-15.87
30.399,25.565,20.084,16.617,-4.91,10.475,-10.968,-9.236
26.646,26.515,18.962,21.197,-4.297,16.026,-5.397,4.645
18.161,22.259,16.832,20.803,-6.076,15.781,-4.678,15.397
12.155,15.923,12.929,16.468,-10.198,11.905,-8.561,15.052
9.873,11.614,10.204,13.274,-14.045,9.672,-12.628,1.839
11.541,12.072,12.502,11.27,-13.774,7.716,-12.54,-14.231
18.66,17.632,18.769,11.601,-8.135,6.874,-8.952,-17.3
25.935,24.374,24.527,17.202,-0.26,11.837,-2.805,-3.031
26.601,27.774,27.863,22.303,5.526,17.98,5.484,14.657
24.181,28.748,30.081,20.334,8.194,17.293,10.968,22.28
26.106,31.474,34.28,19.253,11.779,15.678,11.474,24.892
31.816,37.496,42.017,28.654,19.202,23.31,12.601,32.586
36.109,44.58,49.918,40.227,26.235,33.797,16.121,37.851
37.153,49.485,53.161,39.421,27.485,32.86,17.731,27.43
36.856,52.025,52.017,29.65,25.161,23.406,18.332,11.611
39.091,55.7,52.055,27.249,25.715,21.803,21.634,10.691
47.232,63.656,56.242,37.753,30.634,33.329,26.84,22.827
55.337,71.587,56.972,48.824,32.497,44.704,28.899,29.923
50.219,69.109,45.556,44.698,22.95,39.742,20.727,21.84
33.806,56.645,30.649,27.193,8.061,20.994,4.998,6.347
25.716,49.091,28.436,16.103,3.416,9.004,-2.291,-0.835
33.953,53.652,37.436,22.416,10.801,15.286,6.188,5.859
44.877,60.998,45.707,35.683,18.447,29.751,19.373,18.248
47.023,63.549,51.363,44.535,21.576,39.74,26.381,28.491
41.947,62.62,54.354,47.607,21.816,42.372,25.307,34.8
31.89,57.616,48.394,42.601,16.3,36.566,17.138,32.923
19.314,47.991,36.424,30.189,6.239,24.378,7.709,21.606
13.926,41.377,31.645,21.995,2.016,16.347,5.437,12.177
21.521,45.011,37.069,24.992,7.146,18.724,9.611,13.316
32.296,51.383,43.196,32.234,13.485,25.414,13.779,20.286
35.056,41.833,45.4,36.563,16.974,29.543,17.255,26.639
33.603,12.401,46.889,37.177,20.401,29.869,21.331,27.809
35.444,-13.828,49.252,35.717,23.695,28.113,23.802,22.567
38.84,-17.987,51.301,34.569,24.813,27.311,23.313,17.192
40.561,-10.215,51.244,33.746,23.599,27.254,21.303,15.353
41.774,-5.592,48.636,31.709,21.195,25.262,19.999,15.613
42.911,-2.597,46.191,29.963,19.601,23.198,20.331,17.702
41.799,2.612,46.231,29.515,19.73,22.948,21.565,18.584
37.592,5.57,46.926,26.717,19.372,20.039,22.625,15.26
32.615,7.612,44.543,21.075,16.253,13.813,22.209,11.626
30.373,20.923,40.329,19.763,13.532,12.391,21.544,12.311
31.202,45.534,39.772,24.997,15.449,17.452,23.878,17.137
31.14,61.948,42.529,29.744,19.329,21.404,27.705,24.44
30.943,61.781,45.631,32.823,22.77,24.378,30.59,33.229
37.22,59.589,51.391,39.055,28.528,31.837,35.08,39.737
46.705,64.359,57.831,44.902,33.431,38.656,40.31,38.831
47.836,68.834,57.316,44.563,30.757,38.172,40.997,34.491
41.225,68.204,51.284,41.527,24.563,35.628,38.283,35.64
37.552,64.622,48.044,40.892,23.266,37.026,36.829,39.612
39.868,59.971,50.201,43.085,26.908,40.213,36.876,39.478
43.606,56.818,54.893,46.094,31.288,41.384,37.23,37.723
44.914,56.224,56.97,44.643,32.342,37.813,35.794,33.847
42.2,52.951,51.55,34.834,26.46,28.05,29.374,20.583
36.992,42.957,41.318,21.536,16.436,15.435,21.244,2.821
32.339,32.364,35.867,14.811,11.151,8.21,19.577,-4.082
29.857,29.68,39.355,18.969,14.576,11.796,24.318,4.476
30.712,33.222,44.426,26.218,20.248,19.689,27.058,17.963
33.076,34.993,42.063,26.357,19.816,20.951,24.265,23.416
33.449,33.701,35.351,22.047,15.264,17.283,20.573,17.665
34.401,34.41,35.375,23.311,15.349,18.905,20.396,10.183
37.459,36.265,41.385,29.286,19.071,25.641,22.874,11.343
36.59,33.135,41.071,30.228,17.282,27.74,24.829,17.074
31.956,27.392,33.811,26.101,11.429,24.092,25.427,18.034
31.032,26.475,31.351,25.182,10.68,22.704,25.695,17.989
33.271,28.263,35.401,26.746,13.553,24.313,25.7,21.767
34.021,27.935,37.536,25.433,12.602,23.866,24.94,23.158
33.415,27.8,34.934,22.109,7.711,20.739,21.474,17.642
30.926,28.5,30.707,16.817,2.311,14.923,13.681,7.18
27.814,28.906,29.139,10.912,0.421,9.062,8.649,-0.994
30.519,32.802,32.892,12.402,5.834,11.308,14.881,2.83
39.056,39.835,38.734,21.394,14.531,21.116,25.757,17.126
44.688,43.356,42.538,28.024,19.465,28.083,30.35,30.504
43.281,42.811,44.836,29.143,20.903,28.756,30.761,36.379
39.413,42.399,45.119,27.689,20.702,26.861,31.743,32.682
37.848,41.878,42.011,23.196,17.765,23.05,29.912,20.175
39.559,40.852,39.825,17.217,14.541,18.049,24.256,8.745
44.261,43.723,41.874,16.722,15.554,17.505,23.006,8.973
49.305,51.218,42.959,22.684,19.071,23.242,30.448,16.192
48.628,54.541,37.775,25.517,18.351,26.609,35.861,16.289
40.186,47.564,28.987,19.674,11.439,20.951,28.838,6.921
32.092,38.281,23.698,12.436,4.86,12.766,16.813,-0.945
34.614,38.496,26.869,11.897,5.901,11.077,13.795,-0.695
46.807,48.807,36.013,17.773,14.033,16.218,22.079,6.958
57.364,60.481,42.431,25.851,21.478,23.634,32.702,18.827
59.802,66.995,43.174,32.439,23.632,30.062,37.858,29.219
58.229,68.428,44.062,34.84,24.437,33.783,37.6,33.031
57.304,67.313,46.934,32.807,26.834,33.572,35.959,26.863
58.686,66.177,47.684,30.406,28.197,31.571,37.357,14.682
62.497,64.775,45.175,30.527,26.836,31.283,42.075,8.186
60.782,56.528,39.289,28.707,21.783,29.637,42.671,8.421
45.944,38.499,28.635,20.325,11.365,21.705,35.061,4.501
29.297,21.322,18.84,8.082,0.079,10.868,26.743,-4.919
26.279,15.79,18.579,-1.457,-2.606,4.517,24.888,-8.263
31.14,18.735,23.841,-3.347,3.794,5.271,27.407,-0.166
30.268,21.192,24.374,-0.028,8.936,8.704,29.844,10.363
24.32,20.212,19.899,-0.267,6.668,7.429,30.814,14.212
19.021,17.725,13.937,-6.052,0.673,0.764,29.853,11.472
13.974,16.228,9.131,-7.874,-2.017,-2.27,28.527,8.927
10.756,17.279,11.332,-1.046,2.069,3.385,30.661,12.858
12.641,18.458,17.975,4.235,7.279,9.084,34.944,17.968
15.728,15.698,17.995,1.574,6.366,8.203,36.002,17.715
14.132,10.582,12.38,-0.419,2.424,7.424,33.229,16.896
9.121,7.189,10.795,2.708,1.455,10.577,28.733,14.997
7.213,6.177,14.115,4.338,3.278,11.603,24.735,6.776
12.01,7.553,19.342,2.808,7.677,9.165,25.909,0.888
17.504,8.828,24.678,2.378,13.443,8.206,31.214,5.842
12.799,2.752,22.511,0.669,11.793,7.139,30.743,11.649
-1.758,-11.438,8.953,-7.725,-1.248,0.048,20.259,5.511
-10.878,-21.32,-3.228,-16.448,-12.826,-8.353,8.835,-6.137
-5.588,-16.309,-1.66,-13.133,-10.11,-6.115,8.162,-6.69
3.17,-3.71,6.535,-2.065,0.666,4.175,17.255,3.025
4.391,2.807,10.807,2.01,7.259,8.371,24.561,8.997
2.738,2.529,15.913,0.297,10.913,6.319,25.657,9.872
3.274,1.373,26.641,2.332,16.586,7.762,25.224,12.545
2.511,0.66,32.819,4.87,19.184,11.195,25.36,14.63
-0.25,0.241,26.024,1.94,14.301,10.464,24.28,10.068
-0.73,-0.198,14.391,-0.501,8.098,9.515,22.585,5.674
2.176,-0.702,10.312,4.597,7.552,14.412,24.08,13.582
4.952,0.227,14.021,10.584,9.974,19.128,27.931,23.994
2.739,-0.32,13.83,5.28,6.343,12.672,26.337,15.942
-5.477,-7.543,2.696,-8.385,-5.27,-0.98,16.997,-4.876
-13.338,-17.883,-9.69,-15.194,-14.353,-7.011,7.956,-14.856
-14.782,-23.338,-11.089,-12.737,-12.509,-4.625,4.942,-10.481
-10.889,-22.646,-2.484,-9.967,-2.623,-3.106,8.189,-2.85
-5.787,-19.569,9.779,-5.568,10.56,0.163,18.08,9.789
-3.698,-17.928,21.014,3.408,22.909,9.043,28.588,26.514
-6.875,-20.498,24.678,7.71,26.752,14.203,29.388,29.387
-13.023,-26.367,18.543,2.343,19.393,10.593,22.086,15.154
-17.305,-28.926,11.201,-2.266,10.801,7.858,17.793,4.296
-16.802,-23.478,9.774,2.487,10.861,12.277,20.362,8.282
-14.017,-16.537,11.02,8.499,15.547,15.54,23.799,16.61
-13.282,-15.967,11.224,5.698,16.848,10.961,23.748,17.29
-16.106,-19.089,9.782,-0.765,14.14,5.183,22.307,13.907
-22.264,-21.674,4.837,-3.524,8.418,3.681,20.354,12.69
-27.315,-23.341,-1.103,-5.027,2.072,3.011,16.044,8.268
-23.743,-21.718,-0.338,-5.991,2.159,2.184,13.109,-0.537
-14.386,-17.217,5.697,-2.893,8.83,3.897,17.448,-2.559
-13.125,-17.078,5.362,0.717,11.658,5.527,24.072,4.304
-21.799,-23.226,-1.524,-1.552,7.767,2.456,23.363,8.474
-23.939,-26.292,-1.205,-4.854,7.848,-0.835,19.048,7.531
-13.394,-21.04,7.985,0.023,15.817,3.65,20.374,11.008
-5.222,-15.618,12.457,8.461,21.161,11.37,23.122,19.187
-8.624,-18.094,7.491,9.107,17.623,11.751,18.068,21.058
-16.836,-27.419,0.642,2.841,10.133,6.174,7.164,11.839
-22.528,-36.536,-1.17,-0.157,5.613,4.611,-0.1,-1.156
-20.912,-35.996,5.76,5.618,9.663,11.182,3.275,-5.102
-11.477,-25.508,16.728,14.417,20.15,19.012,14.384,5.241
-3.889,-18.179,18.763,14.827,25.037,17.931,20.426,17.082
-5.607,-21.301,9.182,5.209,18.87,8.186,14.476,15.247
-9.968,-25.702,0.716,-2.553,11.108,1.453,6.122,5.13
-7.78,-22.405,3.675,0.49,11.634,5.183,6.698,3.495
-2.855,-17.16,11.838,7.082,15.951,11.273,11.911,9.814
-5.991,-20.316,10.119,4.745,12.628,7.794,10.874,7.898
-17.234,-30.743,-3.847,-4.233,2.05,-1.53,5.327,0.165
-27.255,-39.207,-17.362,-8.187,-6.053,-4.315,4.1,6.224
-31.496,-41.376,-21.957,-5.816,-8.332,-0.42,5.268,20.196
-29.977,-39.322,-19.34,-4.119,-6.988,1.669,1.522,15.655
-22.532,-35.407,-12.122,-3.837,-1.558,1.743,-3.46,-3.785
-14.423,-31.647,-3.312,-1.385,7.163,4.127,-1.692,-11.315
-14.858,-31.604,1.092,0.495,12.865,4.985,3.159,-6.247
-22.468,-35.301,0.119,-1.523,12.928,0.901,4.06,-3.836
-25.019,-35.498,0.68,-1.073,13.703,0.191,5.933,1.656
-18.938,-29.286,4.486,5.008,17.268,6.674,12.327,15.134
-17.459,-28.135,1.29,3.454,12.751,6.01,8.926,13.228
-30.982,-40.853,-15.236,-13.617,-5.927,-10.558,-12.795,-15.894
-47.754,-54.742,-32.676,-29.111,-24.04,-26.358,-32.723,-41.999
-48.431,-52.028,-33.187,-25.569,-23.619,-23.474,-29.983,-37.414
-33.274,-35.398,-16.787,-10.025,-7.426,-7.943,-12.795,-13.751
-19.3,-22.144,-1.169,0.44,6.602,2.833,-1.226,3.322
-16.899,-20.599,0.31,0.412,8.021,2.602,1.181,7.945
-21.926,-24.209,-6.557,-5.008,2.282,-2.93,1.082,6.951
-26.849,-26.04,-8.564,-11.26,-1.555,-8.526,-3.124,-2.368
-28.496,-26.171,-5.05,-15.523,-1.846,-11.904,-11.688,-15.513
-25.065,-23.567,-4.19,-14.172,-0.774,-9.992,-13.994,-11.702
-17.513,-15.698,-6.511,-7.735,1.056,-3.43,-6.484,5.961
-14.665,-8.436,-8.847,-3.458,1.287,0.462,-0.623,9.355
-23.147,-10.684,-14.728,-6.3,-4.701,-3.432,-5.495,-4.462
-35.474,-18.503,-24.03,-11.015,-14.455,-9.768,-15.909,-11.334
-41.221,-20.055,-28.163,-9.953,-19.227,-9.892,-20.808,-3.04
-40.152,-14.316,-25.867,-5.875,-17.708,-5.712,-18.216,2.984
-37.686,-10.995,-25.11,-8.356,-16.47,-7.559,-16.094,-6.432
-37.597,-13.603,-27.543,-17.127,-17.367,-16.543,-18.043,-21.173
-37.602,-13.874,-26.441,-19.484,-14.981,-20.138,-18.006,-23.649
-30.99,-5.198,-18.81,-9.637,-6.344,-11.593,-12.199,-10.886
-17.791,7.294,-9.66,1.446,3.433,-1.078,-5.69,3.997
-8.546,13.613,-5.966,2.508,6.567,0.365,-5.536,5.876
-11.183,10.425,-10.561,-4.024,1.008,-5.373,-12.89,-5.607
-18.59,4.564,-17.365,-8.526,-5.362,-9.906,-19.751,-15.952
-18.921,4.336,-15.953,-5.672,-2.351,-8.424,-16.775,-13.588
-14.2,8.646,-6.912,1.499,7.52,-2.923,-7.094,-0.539
-11.649,12.327,0.278,8.116,14.185,2.823,0.13,13.823
-8.093,15.248,4.451,13.332,17.691,7.842,5.569,21.552
-1.645,17.313,9.537,14.432,22.105,9.107,11.124,16.376
0.965,16.659,13.267,8.451,24.097,3.7,10.688,1.077
-0.761,15.948,12.877,2.295,22.006,-1.935,4.463,-6.032
1.092,19.249,12.157,4.954,21.346,1.056,2.543,5.338
6.402,23.301,14.428,11.996,23.921,8.866,7.157,18.995
5.596,21.103,14.714,12.168,23.532,9.608,9.625,19.219
-1.121,14.552,9.15,6.447,18.708,3.186,7.682,17.998
-3.589,10.896,3.16,4.322,15.813,0.064,7.159,28.427
-1.898,9.483,0.51,6.198,15.675,1.723,7.482,35.674
-3.042,7.604,-1.017,7.461,14.603,3.015,5.943,28.718
-5.928,7.971,-2.479,7.569,13.18,3.428,5.366,18.934
-7.199,9.75,-4.081,5.053,11.732,2.174,3.955,8.504
-8.747,7.623,-5.855,-0.886,9.152,-2.529,-2.514,-6.979
-13.374,0.959,-7.34,-6.938,6.542,-8.816,-9.559,-17.704
-19.959,-5.939,-9.647,-10.894,4.511,-13.748,-11.944,-16.132
-22.908,-8.429,-10.596,-11.104,4.411,-14.339,-11.165,-7.16
-19.359,-6.813,-6.107,-6.394,8.028,-9.638,-9.058,1.597
-15.837,-9.049,-2.474,-2.845,9.887,-6.097,-6.437,3.333
-17.474,-17.572,-7.465,-5.829,5.453,-8.69,-4.416,0.139
-19.365,-22.659,-14.431,-9.53,1.4,-11.408,-2.63,1.393
-21.321,-23.451,-18.63,-10.706,-1.241,-11.33,-4.58,2.555
-31.096,-30.775,-27.074,-15.21,-11.193,-15.025,-15.427,-7.428
-45.992,-43.154,-38.086,-23.855,-24.55,-23.944,-29.42,-21.595
-55.046,-50.414,-42.137,-32.196,-29.403,-33.169,-36.61,-27.896
-55.929,-52.579,-40.996,-37.826,-27.121,-39.095,-36.311,-28.035
-52.433,-53.179,-39.535,-36.9,-23.858,-38.282,-30.592,-25.508
-46.597,-51.017,-34.347,-26.978,-18.407,-29.914,-20.068,-18.455
-43.783,-49.122,-27.887,-16.4,-13.594,-21.106,-12.326,-10.864
-50.738,-54.09,-30.933,-17.921,-17.955,-21.534,-16.519,-10.874
-61.799,-62.78,-41.697,-30.119,-28.786,-30.758,-27.529,-16.061
-63.019,-64.996,-45.995,-37.11,-33.186,-36.261,-30.876,-15.264
-54.004,-60.189,-40.796,-31.938,-28.095,-30.818,-23.064,-6.43
-47.122,-56.216,-34.534,-23.547,-21.452,-22.017,-13.257,1.799
-45.43,-54.723,-29.485,-18.56,-16.646,-18.293,-8.18,4.197
-44.892,-55.194,-26.494,-18.496,-14.665,-21.655,-9.524,-0.471
-47.94,-61.164,-30.711,-25.993,-19.784,-31.159,-17.515,-10.961
-52.363,-67.713,-38.131,-34.747,-27.99,-38.904,-26.391,-15.98
-50.052,-65.169,-40.488,-34.47,-30.468,-37.318,-30.204,-10.644
-45.62,-59.197,-42.592,-31.544,-31.802,-34.594,-33.347,-16.162
-47.17,-59.826,-50.244,-36.136,-39.374,-39.772,-39.292,-42.282
-47.802,-59.808,-54.085,-39.256,-44.254,-42.611,-39.765,-56.884
-41.319,-50.999,-46.543,-32.608,-37.53,-35.257,-32.141,-43.231
-34.561,-42.182,-35.1,-26.161,-26.39,-28.839,-26.975,-29.908
-29.945,-39.436,-25.956,-23.843,-17.136,-27.168,-25.085,-26.154
-22.723,-35.546,-18.309,-16.4,-8.072,-19.82,-17.144,-11.108
-18.86,-30.781,-16.422,-7.222,-3.918,-10.215,-8.485,4.975
-28.189,-35.468,-24.622,-10.2,-10.91,-13.634,-11.934,-7.345
-42.224,-47.615,-34.53,-22.207,-20.481,-26.743,-22.405,-34.777
-44.612,-54.045,-34.581,-26.718,-19.806,-30.56,-26.418,-38.223
-35.516,-50.493,-25.393,-19.181,-10.334,-20.286,-24.38,-17.164
-24.489,-42.172,-14.053,-8.841,0.318,-8.716,-21.592,-2.353
-15.258,-35.131,-5.221,-5.306,8.927,-7.216,-16.645,-5.003
-9.757,-33.144,-2.593,-10.023,12.353,-14.504,-10.956,-13.099
-9.045,-33.102,-4.921,-13.544,10.819,-18.754,-8.694,-11.708
-8.524,-29.675,-4.44,-7.827,11.088,-12.836,-8.22,4.739
-4.469,-25.514,1.418,-0.625,15.22,-5.796,-7.557,18.779
1.122,-24.447,6.208,-2.551,17.915,-7.856,-7.201,9.186
5.046,-23.419,5.269,-7.89,17.1,-12.897,-5.198,-10.528
4.986,-20.677,1.603,-5.041,15.547,-10.138,-1.885,-12.096
1.132,-18.672,0.633,5.613,15.568,-0.351,-0.663,4.096
-2.647,-17.804,2.981,14.557,17.388,7.979,-0.487,18.349
-1.727,-15.995,6.414,17.269,20.414,10.584,1.414,22.233
6.426,-10.586,12.457,20.723,25.411,13.612,4.876,21.836
15.273,-4.333,18.401,26.926,28.944,19.798,6.039,18.744
11.584,-7.468,13.014,22.624,22.276,17.062,-0.726,8.158
-2.415,-20.389,-2.372,6.04,8.359,2.231,-11.942,-0.815
-9.16,-28.907,-10.761,-4.47,1.319,-7.962,-16.465,4.024
-3.541,-26.297,-6.105,-2.085,4.054,-5.736,-12.796,12.463
4.165,-19.785,1.343,2.249,8.035,-1.201,-8.606,10.12
8.255,-14.928,3.492,3.952,9.404,0.298,-6.113,3.894
12.767,-8.875,4.079,9.003,12.273,4.864,-1.032,8.346
19.894,-0.24,8.637,17.24,18.47,13.116,5.932,20.583
23.357,3.543,11.416,18.025,20.311,14.077,6.714,21.364
19.332,-2.733,6.063,8.163,13.346,4.093,-0.319,5.041
14.449,-11.787,-0.671,0.063,6.457,-4.256,-6.385,-7.983
13.773,-15.346,-1.632,2.522,6.396,-2.104,-6.638,-3.435
13.834,-15.303,0.143,9.824,9.056,5.25,-3.474,9.998
11.672,-16.95,-0.078,12.994,10.141,9.637,0.299,20.163
7.543,-21.378,-3.38,7.909,8.15,6.102,0.282,19.328
2.616,-24.472,-7.444,-0.725,3.586,-2.713,-4.6,9.39
-0.985,-21.88,-9.082,-2.893,0.382,-6.439,-7.889,3.948
-4.844,-18.207,-10.667,0.261,-1.307,-3.861,-8.749,2.725
-11.017,-20.273,-14.726,-0.282,-4.534,-3.764,-13.209,-6.477
-12.96,-22.464,-14.86,-1.898,-5.47,-5.166,-18.092,-14.019
-4.602,-16.229,-7.027,3.281,0.386,-0.467,-14.513,-2.874
8.634,-5.302,1.09,13.021,8.725,9.274,-3.804,17.999
16.875,0.986,0.959,17.919,11.538,15.439,1.488,25.277
13.994,-2.124,-9.391,9.415,3.094,8.855,-10.199,7.939
3.5,-11.204,-23.073,-8.187,-11.841,-8.146,-30.821,-19.732
-0.139,-15.26,-25.191,-16.827,-16.894,-18.417,-37.273,-33.289
10.51,-8.418,-11.909,-9.051,-6.751,-12.408,-25.564,-27.736
24.707,2.895,1.397,4.291,4.755,1.346,-12.785,-11.201
32.422,12.434,4.814,14.569,9.428,13.183,-4.903,10.783
36.759,20.855,6.009,21.331,13.45,20.257,4.611,25.278
39.957,27.045,10.89,21.837,18.982,20.203,13.312,19.144
37.119,26.944,14.097,14.401,19.719,13.07,12.72,2.773
29.379,23.325,12.079,7.21,14.96,6.813,5.666,-0.736
26.984,26.124,10.675,9.901,13.345,10.023,5.578,15.448
34.319,38.301,15.639,20.55,20.328,20.698,17.482,38.001
42.653,48.57,22.299,26.668,28.737,26.725,27.239,43.962
42.477,46.356,21.878,19.389,28.139,19.467,20.659,21.264
36.207,37.468,15.937,7.51,21.187,7.73,7.974,-5.09
33.649,35.295,14.492,7.757,19.939,8.433,9.555,0.474
37.273,41.388,19.414,18.579,25.902,20.162,23.073,25.688
36.888,43.251,19.581,20.374,26.522,22.494,27.154,27.96
25.491,34.107,8.991,6.15,16.385,7.725,15.64,3.749
13.802,25.589,-0.49,-5.997,8.073,-5.191,6.438,-9.354
12.89,27.168,1.042,-2.131,10.231,-1.172,9.482,2.775
16.363,29.529,5.523,5.575,13.609,7.518,11.033,10.664
16.673,25.958,5.961,4.724,12.231,7.614,3.854,0.106
17.016,25.101,6.581,4.266,12.965,7.315,0.855,-3.969
18.935,30.338,7.398,10.451,16.821,12.704,5.807,5.95
19.168,32.702,4.293,13.459,17.179,14.606,6.966,7.982
17.485,28.734,-0.138,10.304,14.473,11.096,2.969,2.062
16.354,25.393,-1.941,10.171,13.259,11.505,1.84,4.531
16.359,26.816,-2.185,14.798,12.548,16.432,1.477,8.085
15.136,28.867,-3.086,16.114,9.449,17.324,-4.198,-0.966
12.707,27.927,-3.78,12.401,6.677,13.707,-9.226,-9.4
15.316,28.115,-0.483,13.539,10.3,15.994,-2.919,3.941
26.166,34.703,8.079,24.613,20.292,27.655,12.424,28.918
36.787,42.383,15.512,32.32,27.857,34.563,22.405,35.442
36.109,39.487,13.049,22.11,24.563,23.61,16.826,17.896
25.709,26.894,2.588,3.002,13.624,4.516,2.306,-1.431
19.399,19.823,-2.977,-3.792,7.704,-2.52,-3.841,-4.698
24.496,24.543,0.936,3.467,10.755,4.399,2.796,2.845
31.95,29.845,3.645,7.438,12.39,9.479,9.177,4.104
32.876,27.573,-0.095,1.351,7.662,5.624,8.017,-2.984
32.053,23.826,-1.293,-2.742,5.804,2.489,5.238,-3.034
35.848,25.581,4.41,2.605,12.067,6.737,5.123,7.771
39.84,29.322,8.44,7.35,17.635,10.243,4.692,11.764
37.446,27.858,4.505,2.009,14.722,4.977,2.61,-1.475
31.502,22.824,-2.535,-6.364,8.343,-2.795,2.936,-15.815
28.124,21.898,-6.831,-7.25,5.364,-4.028,5.715,-13.771
26.287,25.197,-9.805,-4.46,3.732,-2.412,4.741,-4.07
21.713,25.6,-14.272,-7.453,-0.377,-5.445,-0.869,-3.288
16.542,22.545,-16.582,-12.036,-3.326,-8.544,-3.48,-6.751
17.413,22.885,-10.964,-7.647,0.9,-3.652,1.921,-1.851
21.76,25.235,-3.333,-0.642,6.853,2.116,7.79,4.458
19.371,21.153,-6.382,-4.481,3.059,-2.279,3.781,-0.602
12.398,14.265,-17.105,-12.564,-6.538,-9.417,-4.955,-8.456
12.169,14.412,-21.556,-11.313,-8.907,-7.584,-7.102,-4.862
17.854,18.363,-17.616,-4.729,-3.86,-1.773,-4.13,3.322
20.113,18.182,-12.628,-1.912,0.572,-0.282,-2.149,1.705
17.037,14.843,-10.076,-1.575,1.823,-0.767,-1.122,-7.094
12.162,11.024,-10.591,-0.621,0.719,0.211,-0.517,-8.853
7.515,6.064,-14.51,-0.113,-1.992,0.885,-0.617,1.706
5.999,2.534,-17.369,-0.33,-2.929,0.227,0.689,12.896
9.621,4.725,-14.322,-0.682,0.005,-0.784,3.462,10.224
13.216,10.434,-10.874,-2.555,1.501,-2.693,3.675,-3.109
11.139,14.278,-15.219,-6.629,-3.928,-6.072,-1.452,-12.978
6.765,16.258,-23.125,-10.016,-12.361,-8.807,-8.982,-16.668
6.035,19.444,-24.849,-10.446,-16.09,-9.124,-11.693,-19.379
8.855,24.117,-20.201,-9.508,-13.631,-8.446,-6.521,-18.53
11.88,28.61,-15.6,-8.124,-9.184,-8.008,0.452,-10.726
13.717,31.846,-12.826,-5.221,-5.896,-6.679,2.804,-3.156
15.957,34.701,-8.06,-0.743,-2.248,-2.8,4.428,-0.369
19.494,37.872,-1.351,3.734,2.604,2.725,11.218,2.779
20.664,37.559,0.05,4.354,3.075,4.211,16.564,3.68
16.903,31.147,-5.744,-0.986,-3.808,-1.644,11.513,-3.186
12.777,24.406,-10.508,-7.405,-10.583,-8.942,1.76,-7.061
13.345,23.754,-9.552,-9.043,-10.103,-11.24,-0.845,1.109
18.293,28.549,-5.304,-5.785,-4.095,-8.819,3.667,9.377
24.671,34.5,-0.63,-0.119,1.964,-3.658,6.1,7.838
28.953,37.12,0.765,5.877,4.583,2.882,6.028,6.085
28.407,33.576,-2.433,8.917,4.111,6.727,10.309,10.705
23.166,25.284,-5.776,5.752,2.745,3.39,15.157,11.01
16.602,16.004,-6.565,-1.862,0.833,-5.362,11.023,0.538
13.942,6.386,-5.781,-7.405,-0.983,-12.04,2.266,-11.411
19.839,-3.904,-0.366,-5.029,2.791,-9.79,3.584,-14.014
32.091,-12.182,11.438,4.055,14.339,0.367,15.596,-5.061
37.257,-20.365,17.665,8.451,21.16,6.086,20.585,6.793
27.287,-32.309,8.158,0.644,12.69,-1.129,11.263,9.997
15.051,-40.075,-4.723,-10,0.69,-12.115,1.46,2.594
14.393,-34.791,-4.537,-12.541,0.745,-15.466,1.472,-8.329
21.127,-22.415,6.317,-7.794,9.954,-10.989,7.762,-12.055
25.644,-13.175,15.179,-0.121,16.748,-2.691,14.275,-4.245
26.861,-8.033,16.751,8.629,18.266,6.609,18.597,10.064
28.095,-2.279,16.63,16.339,20.264,14.234,21.582,26.219
27.5,2.906,17.754,16.525,22.402,14.403,21.27,30.384
21.611,0.684,14.792,4.625,17.535,2.848,13.375,7.126
16.708,-7.068,9.904,-8.048,10.21,-9.961,4.42,-20.764
20.282,-10.003,12.6,-5.435,12.407,-8.257,6.234,-17.052
25.186,-6.733,20.651,7.464,20.905,3.933,15.721,6.84
21.246,-5.441,22.912,12.189,22.642,8.618,19.479,14.955
12.921,-8.777,16.589,4.682,15.677,1.186,14.848,4.625
11.74,-10.124,10.493,-1.496,10.445,-4.739,13.274,0.777
20.248,-3.717,13.2,2.968,13.944,0.853,20.725,13.08
28.484,4.668,18.837,7.768,17.948,7.521,24.337,19.295
24.995,2.837,13.822,-0.729,10.308,0.81,12.395,0.293
13.406,-7.215,0.798,-12.883,-2.989,-10.483,-2.102,-20.43
9.246,-9.246,-3.067,-9.969,-4.67,-8.309,-0.403,-11.306
16.318,0.01,5.795,2.265,5.847,2.283,11.802,12.81
22.766,6.632,13.062,5.102,13.464,4.398,17.433,17.462
21.723,5.289,11.337,-1.753,13.023,-2.015,15.718,2.971
19.021,5.525,8.921,-4.463,13.304,-4.53,16.762,-2.571
19.369,11.33,11.018,1.002,17.712,0.459,20.31,7.413
19.161,15.245,11.365,5.382,19.148,4.666,18.049,8.809
18.385,16.621,8.581,6.102,16.78,5.794,14.353,-0.682
21.997,23.218,9.626,10.833,17.745,10.408,20.882,6.615
24.886,30.935,12.848,16.843,19.491,15.29,30.308,28.668
17.618,27.908,8.714,12.817,12.729,10.425,24.596,30.47
4.223,16.284,-2.765,-1.152,-0.368,-2.911,5.692,0.177
-4.305,7.924,-10.737,-13.813,-8.39,-14.477,-7.35,-33.274
-5.752,6.807,-9.773,-16.158,-6.947,-16.825,-5.165,-35.661
-4.103,9.989,-5.283,-9.047,-1.645,-10.215,4.729,-9.255
-2.221,15.512,-2.527,-1.362,1.251,-2.194,10.818,12.402
-3.768,20.36,-2.641,-1.095,-0.621,-1.15,8.706,10.063
-8.514,22.392,-3.651,-5.07,-3.785,-5.143,4.919,0.547
-8.364,25.337,-0.622,-2.405,-1.021,-3.606,8.898,6.96
-1.246,30.598,6.12,6.906,7.223,4.385,18.714,20.473
3.966,32.332,10.312,11.711,12.692,8.605,23.987,16.783
3.899,28.747,11.434,10.597,13.627,7.309,23.005,1.336
5.386,27.069,14.933,12.577,16.243,9.386,25.218,0.233
9.635,30.271,19.759,17.553,20.486,15.58,32.134,14.415
8.905,31.077,18.762,16.878,18.674,16.243,31.579,21.304
2.347,26.304,12.333,10.251,10.91,9.457,21.202,13.679
-2.78,21.603,6.332,4.559,4.902,3.882,13.594,3.748
-3.935,20.001,1.369,2.79,2.257,3.961,12.972,0.085
-3.096,20,-2.325,3.125,0.416,5.251,12.251,1.951
-1.729,20.161,-2.016,2.767,-0.452,3.72,8.158,4.646
-2.732,18.482,-1.431,1.033,-1.763,1.279,2.316,1.4
-8.611,13.513,-7.035,-1.039,-6.513,-0.241,-2.432,-8.72
-14.671,8.602,-12.996,-1.636,-10.486,-1.218,-0.904,-13.15
-11.359,10.541,-7.036,2.546,-5.285,1.271,8.347,-3.934
2.06,20.467,7.912,11.54,7.181,9.411,19.066,6.362
13.567,29.574,16.917,18.458,15.445,17.171,25.895,8.48
13.309,28.428,14.613,16.062,13.139,15.995,27.029,9.242
4.575,18.123,6.991,5.122,3.252,5.91,19.803,8.441
-2.429,9.67,1.716,-4.298,-5.471,-2.571,8.089,0.313
-1.095,12.049,5.47,-2.711,-3.248,-0.132,5.296,-6.262
5.375,20.11,16.482,4.983,8.285,7.469,14.146,-2.547
6.011,18.425,19.803,4.4,12.936,5.734,17.533,1.078
-4.962,2.208,6.184,-6.551,1.718,-6.469,4.951,-5.22
-19.708,-12.913,-11.112,-13.548,-12.26,-13.729,-8.905,-10.172
-26.462,-11.982,-15.702,-8.325,-14.006,-7.866,-8.806,-3.55
-24.088,-1.435,-11.147,-0.447,-8.124,0.183,-2.708,1.528
-20.578,4.376,-8.333,1.139,-5.916,0.723,-2.222,-3.523
-19.665,4.326,-7.769,0.12,-7.057,-1.381,-3.439,-5.468
-18.429,4.562,-6.224,-0.777,-6.33,-2.065,-2.308,-2.114
-13.985,6.374,-3.374,-3.608,-3.034,-4.095,-2.137,-7.709
-4.934,10.379,3.358,-3.46,3.581,-4.077,0.067,-17.202
6.174,17.337,14.868,4.516,13.63,3.032,8.649,-12.052
11.004,21.101,21.547,11.023,18.859,9.146,13.604,0.272
4.819,15.34,14.679,5.957,11.636,4.174,3.646,-2.597
-5.113,5.277,1.975,-4.12,-0.383,-6.236,-11.314,-15.631
-6.748,1.748,-1.882,-6.752,-3.259,-9.479,-11.836,-13.993
2.391,7.214,7.022,-0.504,5.467,-2.591,2.71,5.683
11.939,13.408,18.408,6.893,15.664,7.09,14.772,20.04
10.743,11.044,19.478,8.836,16.999,10.835,14.168,16.504
-1.037,-0.312,11.491,4.287,10.133,5.858,7.545,9.756
-12.698,-11.861,6.61,-4.013,3.217,-4.172,1.577,6.284
-14.317,-14.499,8.251,-10.903,0.991,-12.78,-4.438,-7.248
-5.269,-6.828,11.266,-10.331,4.244,-13.748,-6.681,-25.282
8.705,4.541,15.578,-3.131,11.813,-7.121,-1.127,-26.832
19.58,10.306,21.34,1.353,17.251,-1.459,3.22,-16.896
21.945,9.033,23.714,0.303,15.804,-1.081,-0.785,-12.598
21.647,10.499,24.807,4.138,15.097,2.436,-2.51,-6.521
27.273,19.969,31.632,19.112,23.761,15.727,8.216,14.152
33.13,27.956,37.896,34.026,33.66,29.739,22.302,36.871
28.571,24.236,30.407,32.311,29.529,29.32,22.96,38.124
18.063,13.213,14.33,14.415,14.091,13.876,9.379,14.306
14.594,8.045,8.158,0.619,6.495,1.196,0.937,-7.609
20.874,12.719,15.559,4.09,13.658,3.66,9.802,-2.025
29.006,17.32,23.732,12.221,21.806,10.419,21.091,12.675
31.645,13.535,24.663,9.466,20.815,7.844,19.424,7.102
29.919,7.261,23.606,3.216,18.94,3.137,15.632,-0.638
30.403,7.629,27.156,6.422,24.68,7.406,22.187,14.208
32.864,10.557,31.567,12.158,30.041,12.729,27.083,25.567
30.893,6.703,29.989,8.48,25.311,7.939,17.557,5.909
24.644,-1.522,23.562,0.976,15.703,-0.086,3.76,-20.507
20.059,-6.819,16.522,-0.767,9.733,-1.015,-1.92,-22.906
19.004,-10.318,10.774,-1.022,6.605,0.529,-3.854,-11.67
18.452,-14.498,9.529,-5.042,4.342,-1.812,-7.958,-7.251
15.198,-17.894,12.983,-9.311,3.742,-5.176,-11.676,-9.294
10.221,-21.02,13.344,-10.941,3.187,-6.773,-12.92,-12.185
7.908,-23.755,4.882,-9.079,0.893,-5.597,-12.877,-13.094
7.13,-23.664,-7.849,-5.584,-3.347,-2.933,-14.71,-10.822
2.358,-21.806,-15.768,-6.511,-8.484,-4.138,-19.643,-6.928
-2.915,-20.315,-15.214,-10.231,-10.416,-7.249,-22.124,0.375
-1.561,-19.15,-11.622,-9.559,-7.655,-5.922,-19.129,6.461
1.368,-19.935,-11.282,-7.747,-5.534,-4.562,-15.987,-0.285
-1.698,-23.928,-11.79,-9.966,-7.037,-7.313,-15.397,-11.535
-4.906,-27.313,-6.855,-10.516,-7.166,-7.218,-13.97,-10.896
0.69,-25.896,3.022,-5.472,-1.411,-1.65,-8.884,-6.389
8.339,-22.907,9.078,-2.251,5.252,1.319,-2.317,-8.445
1.937,-27.801,3.183,-10.447,1.756,-6.125,-3.8,-11.035
-17.446,-42.817,-10.238,-29.388,-13.501,-22.976,-18.194,-16.556
-30.416,-55.114,-17.544,-45.537,-26.165,-37.686,-31.771,-30.088
-28.779,-52.843,-14.84,-47.561,-23.99,-39.519,-29.621,-37.605
-21.879,-41.217,-9.912,-38.001,-11.977,-30.161,-16.929,-27.545
-16.632,-32.545,-6.438,-25.085,-2.229,-17.826,-7.774,-8.659
-13.476,-30.213,-3.385,-15.131,0.419,-8.624,-6.957,4.583
-13.657,-30.092,-3.181,-12.174,-1.652,-5.756,-10.453,3.858
-17.481,-29.318,-7.25,-15.043,-5.323,-8.282,-13.165,-5.886
-21.713,-27.99,-10.882,-18.23,-8.543,-11.225,-13.411,-9.531
-23.473,-27.564,-9.625,-18.616,-9.548,-11.049,-12.966,-4.129
-21.087,-26.997,-4.635,-15.233,-7.163,-7.125,-11.159,0.355
-13.966,-21.904,0.558,-7.658,-2.093,-0.283,-5.464,1.102
-9.475,-15.14,1.837,-1.885,1.026,4.091,-0.295,2.769
-16.607,-16.224,-2.912,-5.23,-2.16,0.38,-2.257,7.282
-28.969,-23.253,-8.293,-12.643,-8.288,-6.719,-9.355,9.404
-33.636,-24.921,-8.957,-12.967,-10.528,-7.147,-13.913,6.031
-31.095,-21.162,-9.032,-7.409,-8.545,-1.768,-11.951,4.561
-30.05,-21.336,-11.617,-7.81,-7.293,-2.003,-7.841,4.282
-31.968,-25.331,-9.923,-15.562,-7.723,-9.745,-7.085,-4.759
-30.878,-24.576,0.065,-18.06,-5.184,-12.941,-6.107,-14.778
-25.329,-19.669,9.148,-11.985,1.119,-8.323,-0.202,-11.467
-24.268,-21.571,6.061,-11.079,2.686,-8.632,2.245,-3.902
-33.619,-33.281,-6.85,-22.206,-6.939,-19.168,-8.684,-8.818
-41.671,-41.938,-14.95,-31.643,-18.353,-26.684,-22.677,-19.289
-34.798,-36.729,-9.522,-27.01,-17.781,-21.385,-23.533,-18.105
-22.65,-26.519,-0.54,-17.094,-9.708,-12.839,-16.219,-9.352
-23.747,-25.523,-1.427,-14.551,-8.286,-11.574,-13.467,-8.324
-32.38,-29.671,-6.482,-16.265,-12.119,-12.917,-13.46,-12.794
-29.109,-26.639,-1.943,-14.165,-10.163,-9.799,-9.476,-7.93
-18.334,-19.524,6.662,-10.632,-4.998,-5.936,-4.327,4.481
-21.483,-20.064,1.994,-14.508,-8.786,-9.803,-6.144,4.727
-37.154,-26.756,-14.739,-25.261,-21.282,-20.315,-15.485,-8.194
-44.151,-27.857,-25.176,-30.243,-29.934,-25.542,-23.528,-14.411
-37.097,-19.198,-21.552,-22.954,-28.439,-19.74,-24.235,-11.446
-28.125,-6.412,-12.93,-12.041,-21.485,-10.649,-19.517,-11.208
-27.41,0.667,-10.686,-9.143,-17.37,-7.923,-16.122,-15.639
-37.648,-6.273,-18.517,-17.68,-22.116,-15.065,-21.719,-24.112
-50.889,-21.001,-28.319,-29.056,-31.331,-25.89,-33.443,-33.842
-54.653,-27.036,-28.38,-29.497,-33.097,-27.338,-36.908,-30.612
-48.962,-22.509,-19.694,-19.469,-25.862,-18.068,-27.157,-12.83
-41.232,-17.644,-11.016,-12.421,-18.237,-10.637,-15.14,-1.815
-33.161,-13.789,-4.43,-11.03,-13.614,-8.915,-9.909,-4.883
-26.078,-7.634,0.204,-6.889,-10.697,-5.423,-10.129,-5.985
-20.809,0.328,2.063,2.366,-7.894,2.957,-9.728,3.562
-15.094,8.553,4.089,10.078,-3.073,10.511,-5.711,13.119
-11.662,13.174,6.562,8.416,0.612,9.233,-2.06,7.705
-11.274,13.5,6.492,-0.228,-0.744,1.218,-0.71,-7.128
-6.631,17.248,7.42,-3.113,-1.268,-0.894,3.524,-7.953
0.635,27.036,11.65,3.891,3.51,6.326,10.546,7.543
-1.292,33.238,10.086,9.614,4.75,11.394,11.198,16.847
-13.694,28.906,-2.913,5.614,-5.159,6.946,0.757,11.605
-24.838,20.294,-17.754,-3.342,-18.925,-1.431,-13.726,2.159
-27.391,16.906,-24.736,-9.128,-26.079,-6.627,-21.767,-5.865
-27.109,17.705,-26.821,-10.802,-26.907,-8.857,-22.028,-12.593
-32.237,14.421,-29.961,-13.061,-27.309,-11.859,-22.272,-17.483
-39.315,7.356,-31.976,-15.918,-27.899,-14.368,-26.065,-19.992
-38.258,5.516,-27.197,-13.455,-24.505,-11.291,-28.478,-19.076
-30.569,8.716,-17.635,-6.847,-17.199,-4.99,-26.169,-14.793
-28.262,6.598,-12.832,-6.04,-12.654,-5.227,-22.744,-14.012
-32.751,-1.288,-15.306,-12.507,-13.314,-12.804,-22.088,-22.654
-31.294,-1.861,-14.799,-13.074,-10.993,-13.714,-19.876,-26.475
-22.248,6.757,-8.178,-3.865,-3.38,-3.561,-12.427,-13.047
-23.559,5.288,-10.402,-4.13,-5.212,-2.502,-10.444,-3.86
-41.669,-14.617,-29.182,-23.42,-24.347,-21.254,-22.555,-17.028
-58.717,-32.921,-49.528,-42.621,-45.739,-40.178,-38.293,-35.016
-61.998,-33.599,-56.39,-46.434,-54.206,-43.309,-45.443,-41.563
-56.963,-24.28,-51.54,-40.312,-51.286,-37.032,-43.822,-40.843
-50,-14.676,-43.377,-31.597,-44.443,-28.844,-37.314,-34.846
-42.269,-4.04,-36.288,-21.303,-37.87,-18.326,-29.635,-22.594
-34.829,8.06,-30.513,-10.669,-33.354,-6.828,-24.558,-10.793
-27.59,17.722,-24.738,-3.002,-30.094,0.685,-22.015,-2.932
-22.887,21.25,-20.431,-1.256,-27.551,1.22,-20.421,1.265
-26.488,17.776,-21.108,-4.798,-28.465,-3.24,-22.018,-7.316
-34.718,11.755,-24.447,-8.922,-32.426,-8.105,-26.887,-28.551
-38.368,8.336,-25.158,-11.647,-34.56,-12.376,-29.281,-38.709
-38.924,6.586,-23.834,-15.197,-33.029,-17.286,-26.561,-27.816
-38.04,6.756,-19.396,-15.682,-25.972,-17.496,-20.178,-12.147
-28.351,14.356,-5.426,-5.847,-10.221,-6.736,-10.287,-0.057
-12.955,25.602,10.644,6.899,4.311,6.221,-1.816,5.104
-7.675,26.177,9.379,6.091,0.737,5.516,-3.399,-5.646
-14.667,15.527,-6.49,-6.745,-15.458,-6.765,-11.778,-22.886
-20.655,8.87,-14.672,-14.846,-23.953,-14.755,-15.678,-27.822
-20.478,10.192,-11.367,-13.696,-22.35,-14.255,-14.125,-22.753
-17.678,11.592,-7.588,-9.939,-19.212,-10.911,-11.863,-17.615
-11.613,13.685,-2.553,-3.134,-13.178,-3.821,-7.208,-9.658
-3.204,20.453,6.008,8.454,-3.646,8.201,0.592,4.919
-0.203,25.841,8.437,17.362,-0.083,17.116,4.686,18.384
-5.741,22.803,0.421,17.12,-6.651,16.337,1.37,19.841
-13.836,14.285,-8.738,11.839,-14.95,10.488,-3.316,10.819
-18.638,7.98,-10.564,9.783,-16.939,8.47,-3.008,3.691
-16.773,9.192,-3.246,15.382,-11.521,14.368,2.872,4.871
-7.842,17.066,8.561,25.964,-2.033,24.563,11.297,10.99
-1.797,21.822,11.9,31.436,2.821,28.935,15.547,16.052
-8.442,15.467,1.331,25.417,-2.662,22.095,10.816,15.461
-19.16,4.543,-8.592,14.769,-10.369,11.725,3.486,10.479
-20.451,-0.725,-6.373,7.793,-11.64,5.764,1.714,5.054
-14.991,-0.478,-1.404,4.65,-11.124,2.965,2.172,-0.326
-12.555,0.671,-4.112,3.514,-14.395,1.062,0.287,-5.418
-12.786,2.206,-8.796,3.562,-16.91,0.696,0.635,-7.811
-8.842,5.837,-6.859,4.677,-13.9,2.632,5.849,-5.31
-1.123,10.744,-1.372,8.401,-8.79,7.214,10.191,3.259
4.499,14.837,2.233,15.576,-4.81,14.189,11.71,18.122
6.08,16.648,4.67,21.596,-1.092,19.425,13.245,31.699
3.5,13.978,4.682,18.841,-0.772,15.954,10.402,29.04
-2.748,8.553,-0.511,9.408,-7.189,5.768,-0.174,10.19
-8.942,6.416,-8.333,4.152,-15.895,-0.111,-9.833,-5.126
-12.146,8.564,-15.174,4.307,-22.29,0.158,-12.234,-8.829
-10.445,13.545,-18.391,2.92,-25.473,-0.594,-11.424,-12.393
-2.302,23.608,-14.994,1.959,-22.89,-1.278,-9.807,-17.663
6.739,36.415,-8.134,6.743,-15.404,3.001,-6.789,-15.806
8.916,44.343,-4.853,13.761,-10.067,8.881,-5.038,-7.598
6.912,47.058,-4.343,18.629,-8.962,12.557,-4.972,3.678
6.917,49.783,-2.758,20.833,-8.202,14.294,-4.588,16.43
6.058,51.074,-3.486,17.48,-8.456,11.29,-6.916,20.448
1.238,47.702,-8.115,8.122,-11.649,2.115,-12.674,7.237
-1.861,44.452,-10.404,-0.549,-14.155,-7.289,-15.631,-15.982
-0.405,45.601,-9.045,-4.681,-14.799,-12.205,-15.005,-32.574
1.108,49.304,-8.573,-5.275,-16.286,-12.43,-14.674,-30.627
2.695,55.848,-7.171,-0.059,-15.979,-6.412,-12.053,-12.853
7.973,65.674,-1.448,11.703,-10.438,5,-4.66,7.255
12.777,71.155,3.471,21.558,-4.697,13.536,1.195,18.741
8.36,63.837,0.908,20.815,-6.115,11.851,-0.662,18.08
-5.983,46.72,-7.239,11.157,-14.315,2.208,-7.339,5.166
-20.045,32.359,-13.554,2.934,-21.559,-5.011,-10.891,-8.744
-24.088,29.474,-15.189,4.464,-21.905,-1.875,-7.78,-4.049
-23.303,31.434,-18.304,7.394,-21.129,2.303,-5.916,6.333
-29.336,25.508,-28.079,-3.033,-29.044,-7.409,-14.245,-10.641
-37.437,14.6,-36.335,-18.857,-40.586,-22.734,-26.347,-39.716
-35.948,11.035,-33.924,-21.946,-43.418,-26.204,-30.718,-41.64
-30.121,14.045,-28.188,-16.505,-39.662,-22.408,-28.14,-25.376
-31.33,14.222,-29.357,-15.729,-39.204,-23.115,-25.25,-20.949
-36.987,10.594,-33.608,-15.964,-41.409,-23.487,-22.129,-22.464
-36.692,9.723,-32.661,-8.934,-39.289,-16.285,-15.44,-12.602
-28.936,13.139,-26.53,-0.323,-32.864,-8.014,-7.653,0.096
-22.471,14.947,-20.333,1.456,-27.413,-6.081,-3.404,3.959
-21.398,12.779,-16.147,-0.015,-23.868,-6.742,-1.002,4.696
-20.831,10.151,-13.314,0.169,-20.53,-6.112,1.718,5.661
-18.461,8.078,-12.067,0.274,-18.431,-5.841,3.179,5.527
-15.849,5.709,-11.014,2.323,-17.325,-3.334,5.223,11.927
-14.304,2.928,-9.494,7.181,-17.21,1.812,7.617,19.993
-18.472,-3.335,-14.062,4.71,-24.017,-1.203,1.034,7.613
-30.253,-14.341,-28.168,-9.368,-38.558,-16.15,-17.836,-22.921
-40.293,-23.119,-40.396,-22.108,-48.49,-28.979,-34.942,-42.701
-41.032,-24.563,-39.895,-21.976,-45.603,-28.281,-35.115,-38.177
-38.237,-24.398,-33.379,-14.852,-38.379,-20.891,-24.35,-23.878
-37.798,-27.896,-31.447,-13.458,-36.743,-19.449,-21.284,-21.01
-36.563,-30.492,-31.576,-17.467,-37.368,-23.037,-26.202,-28.862
-33.501,-28.342,-28.847,-16.772,-34.619,-21.727,-24.417,-26.303
-33.613,-26.84,-28.637,-12.806,-33.636,-17.395,-18.598,-13.342
-36.907,-30.531,-34.382,-14.879,-39.024,-19.415,-21.649,-10.787
-37.614,-35.243,-37.919,-20.14,-43.467,-24.827,-27.618,-17.66
-35.527,-36.426,-33.047,-20.272,-39.824,-25.444,-23.999,-22.455
-34.284,-33.934,-22.484,-13.928,-29.155,-20.51,-13.742,-24.803
-32.471,-29.047,-10.558,-3.37,-14.909,-12.046,-5.418,-18.882
-31.266,-27.857,-4.757,2.798,-5.301,-6.584,-3.827,-5.678
-36.546,-35.397,-10.529,-3.725,-7.848,-11.432,-9.619,-2.945
-43.653,-42.072,-16.904,-13.463,-13.392,-19.232,-14.067,-10.072
-42.569,-37.435,-12.912,-13.89,-10.644,-19.208,-10.176,-10.964
-36.586,-29.621,-9.025,-10.436,-7.926,-15.952,-6.132,-9.643
-34.925,-29.926,-15.503,-10.975,-14.367,-16.555,-8.927,-15.639
-36.835,-34.451,-22.952,-12.176,-21.615,-18.203,-11.821,-19.595
-36.229,-34.486,-21.457,-9.447,-20.736,-16.268,-8.704,-9.006
-33.395,-30.809,-15.978,-4.202,-15.78,-11.313,-2.714,9.867
-34.398,-30.87,-16.123,-3.536,-15.291,-10.133,-0.468,11.06
-39.287,-35.835,-20.245,-9.658,-18.73,-15.294,-3.123,-12.875
-39.179,-37.626,-16.57,-10.78,-15.372,-15.601,-1.904,-24.778
-32.026,-33.965,-4.6,-0.894,-3.34,-5.208,7.16,-3.691
-29.159,-34.392,-0.993,4.805,1.54,1.392,11.281,12.054
-36.984,-43.01,-13.286,-5.072,-10.052,-6.849,1.317,-5.83
-45.714,-49.208,-25.637,-16.833,-23.722,-16.992,-10.415,-25.314
-44.932,-44.102,-22.7,-13.118,-23.15,-12.431,-8.676,-12.755
-39.212,-34.721,-12.558,-0.377,-14.601,0.269,1.821,12.324
-39.002,-32.339,-11.894,2.95,-14.024,3.031,5.52,14.925
-44.907,-36.195,-20.336,-5.614,-22.135,-5.96,-1.386,-3.217
-50.56,-38.769,-25.784,-14.039,-28.18,-14.232,-9.705,-17.92
-51.012,-36.154,-23.159,-12.817,-25.991,-12.5,-9.443,-15.357
-44.13,-28.059,-15.598,-1.575,-17.12,-0.83,1.604,2.241
-35.793,-20.57,-10.142,8.475,-10.043,9.709,11.804,18.235
-35.994,-22.239,-12.91,5.243,-12.875,7.182,7.495,15.865
-41.838,-28.641,-19.53,-5.641,-20.667,-3.106,-4.948,0.111
-42.57,-28.812,-21.75,-10.792,-24.064,-7.616,-8.875,-10.799
-38.58,-24.336,-22.25,-10.485,-25.63,-6.449,-4.239,-9.433
-37.03,-22.58,-26.394,-12.368,-30.672,-7.967,-3.579,-3.171
-38.097,-22.247,-28.9,-15.85,-34.163,-12.073,-9.226,-0.863
-36.489,-18.066,-23.138,-14.303,-29.708,-11.553,-10.517,0.924
-31.178,-10.765,-13.751,-7.968,-20.953,-5.416,-2.899,5.867
-27.583,-6.263,-9.519,-4.98,-15.791,-1.404,2.993,1.644
-26.522,-4.855,-8.333,-5.658,-13.013,-1.375,1.235,-12.566
-19.53,1.965,-0.221,-0.843,-3.918,2.621,3.753,-13.356
-7.458,14.109,11.155,6.908,8.06,9.189,15.596,2.898
-5.884,17.132,8.705,3.607,6.082,5.615,19.866,11.604
-16.281,8.273,-7.17,-8.602,-9.981,-6.299,8.982,6.761
-21.155,2.915,-16.625,-13.59,-19.395,-10.847,-0.022,4.282
-16.573,5.885,-13.692,-10.652,-15.502,-7.343,1.71,3.105
-15.566,6.614,-9.923,-11.848,-11.101,-8.168,2.641,-9.654
-21.505,1.651,-10.631,-17.978,-11.153,-14.398,-3.17,-27.504
-25.726,-2.903,-11.605,-19.722,-10.095,-16.733,-7.864,-32.896
-25.227,-4.844,-10.814,-13.772,-7.24,-11.432,-5.322,-21.413
-25.268,-7.277,-9.913,-5.42,-6.02,-2.835,0.999,-2.975
-28.501,-11.868,-9.589,0.224,-6.21,4.032,3.384,8.161
-31.971,-16.759,-9.58,2.764,-5.872,7.485,-0.455,5.493
-33.625,-20.432,-10.359,2.216,-5.815,6.669,-4.949,-3.884
-34.969,-24.994,-12.42,-3.212,-7.977,0.451,-6.041,-11.919
-35.973,-30.85,-14.403,-10.584,-10.814,-7.146,-5.215,-17.128
-33.01,-32.101,-13.618,-11.928,-10.106,-8.176,-3.156,-15.73
-25.04,-25.414,-9.973,-5.98,-5.551,-2.407,0.599,-5.06
-16.732,-16.701,-6.648,-0.818,-1.751,1.983,3.666,5.145
-12,-11.704,-5.417,-1.453,-1.705,1.36,3.562,4.054
-8.556,-7.564,-4.774,-3.54,-3.513,0.459,2.212,-1.365
-3.251,-0.68,-4.213,-2.441,-4.33,2.505,3.608,2.437
2.217,4.98,-4.769,0.158,-3.72,5.066,8.38,12.564
5.02,4.821,-4.882,1.85,-2.61,6.424,12.529,18.565
2.851,-0.544,-4.703,1.499,-4.025,5.739,11.149,18.591
-6.192,-9.245,-9.256,-3.382,-10.781,0.184,3.918,10.32
-16.952,-17.105,-17.874,-10.687,-18.157,-7.579,-3.94,-6.38
-18.918,-16.584,-21.162,-12.331,-17.857,-8.597,-6.616,-16.401
-10.683,-7.079,-15.292,-7.074,-10.327,-2.323,-4.075,-12.649
-3.741,0.66,-9.115,-3.508,-4.611,1.463,-2.569,-12.233
-6.785,-1.161,-10.627,-5.349,-5.534,-0.488,-4.851,-20.799
-12.868,-5.835,-13.687,-5.497,-6.473,-0.466,-4.803,-16.867
-10.347,-3.482,-8.249,0.407,0.2,4.924,1.21,3.694
-0.936,3.249,2.272,5.284,9.713,8.67,6.045,12.43
5.35,5.981,6.569,3.606,12.123,7.415,3.348,0.554
6.927,5.203,2.97,1.599,8.042,7.514,-1.823,-7.115
7.927,5.185,-1.828,4.491,4.454,11.134,-2.847,-2.174
6.184,3.25,-6.945,5.591,0.521,10.167,-2.852,-3.379
-0.134,-2.951,-13.872,-1.554,-6.84,0.66,-6.722,-18.094
-1.495,-5.49,-14.614,-8.176,-9.325,-6.113,-8.331,-27.169
9.587,2.618,-4.027,-2.119,0.643,0.845,0.505,-13.963
22.758,13.046,7.052,9.531,12.425,11.869,11.646,6.751
25.453,14.715,9.013,11.093,13.424,11.882,11.758,11.818
22.494,12.077,6.719,5.277,10.034,6.335,5.964,7.458
26.297,16.199,8.748,7.626,15.384,10.747,9.272,15.939
39.317,27.418,18.293,22.102,29.719,26.342,23.526,39.602
50.652,34.884,28.624,34.421,40.019,37.797,33.736,52.375
46.307,28.355,25.495,28.812,33.3,31.115,25.121,31.064
28.326,11.964,8.887,11.042,14.641,13.681,5.133,-4.356
16.026,1.657,-1.346,1.248,4.448,4.994,-3.948,-15.755
20.573,4.261,4.236,3.936,9.799,7.993,3.139,-3.865
33.222,12.043,13.384,9.902,18.178,13.752,13.391,8.76
41.646,17.632,17.322,17.254,21.953,21.718,20.257,20.105
42.902,20,20.355,26.307,25.035,31.25,25.358,33.594
39.887,19.364,24.127,30.353,28.336,33.808,26.034,39.695
35.058,14.964,23.384,25.264,27.974,26.388,19.836,32.438
30.693,7.762,17.543,16.07,24.66,16.592,12.425,17.858
31.191,2.927,13.866,11.718,24.107,13.585,10.658,8.427
37.782,2.226,16.802,15.027,28.211,18.161,14.703,11.273
43.488,-2.636,22.255,18.621,32.076,21.497,19.487,16.121
42.729,-15.471,26.537,18.759,33.425,20.646,20.94,16.932
40.429,-25.643,31.512,21.357,36.683,23.075,21.034,23.457
43.093,-25.701,36.902,26.052,43.06,28.355,23.18,31.444
47.615,-22.893,38.036,26.023,46.187,28.625,24.31,26.553
47.244,-24.641,34.163,23.568,42.268,26.372,19.879,12.651
43.366,-28.129,30.738,25.587,36.789,29.392,13.489,2.144
41.864,-29.68,31.042,29.857,35.572,34.361,11.401,-0.746
43.13,-31.102,31.596,28.401,36.159,31.134,11.887,3.582
44.956,-32.426,28.938,21.017,34.914,20.646,11.471,11.488
50.326,-27.723,27.943,19.561,36.473,17.891,15.324,18.332
60.615,-16.326,34.306,30.252,43.796,29.567,26.492,26.332
64.388,-11.853,38.815,37.623,44.689,39.454,32.304,34.8
52.604,-23.087,29.121,28.131,30.372,33.398,21.955,31.486
37.782,-36.589,14.004,15.416,15.589,22.288,8.042,17.515
34.217,-38.633,9.523,15.077,14.552,19.667,6.288,13.035
35.697,-35.199,11.791,17.426,18.157,18.244,9.479,17.602
33.14,-34.63,9.915,11.144,15.944,10.156,6.243,13.869
33.028,-31.736,9.41,7.605,15.093,7.583,3.45,10.485
41.353,-21.331,17.171,14.555,20.854,16.889,7.346,17.962
48.458,-10.774,22.77,15.31,22.876,19.317,7.992,12.646
47.371,-5.619,18.549,2.826,17.026,6.71,1.372,-12.165
50.155,3.037,17.946,-0.618,18.123,1.991,1.832,-18.025
65.46,20.083,31.722,16.317,33.892,17.929,16.24,7.715
76.733,30.254,44.642,31.371,46.551,33.007,27.967,27.468
67.211,20.882,39.021,26.184,39.895,28.356,22.357,22.706
47.65,3.05,22.751,11.062,23.71,13.352,7.28,13.374
36.655,-7.728,13.32,1.111,13.607,2.854,-3.972,8.347
35.784,-10.758,14.542,-1.467,11.092,-0.189,-7.687,-1.878
38.843,-9.625,21.172,2.121,13.673,3.85,-3.437,-11.064
44.076,-3.846,29.183,12.131,21.63,15.012,6.226,-0.909
48.878,3.086,35.862,24.11,30.954,28.208,13.01,23.751
49.132,4.749,38.493,29.045,34.709,34.018,12.648,34.425
46.737,2.337,36.267,24.188,32.362,28.785,10.466,20.74
46.341,1.854,32.803,18.283,30.329,21.129,11.891,7.039
46.769,3.475,31.79,17.204,31.404,18.859,13.736,8.928
44.241,2.703,30.588,15.398,30.436,17.463,11.071,9.702
41.089,0.846,28.108,12.383,26.75,15.078,7.939,2.664
44.154,5.253,30.739,16.493,28.944,19.515,10.58,5.804
53.845,15.904,39.527,25.507,38.333,29.487,15.834,20.422
60.606,22.058,44.439,26.959,42.907,32.028,16.757,25.308
57.852,18.021,39.585,18.278,36.569,23.537,13.779,13.928
52.607,11.578,33.068,10.979,29.35,16.223,12.822,2.85
51.964,8.833,32.85,14.065,29.328,19.584,14.612,5.819
49.137,3.773,32.882,20.665,29.47,25.821,13.185,16.839
39.93,-5.762,26.65,19.783,23.907,24.28,8.337,22.864
34.495,-11.189,20.925,12.987,19.489,18.227,7.025,21.195
36.282,-11.897,20.649,5.663,19.324,12.75,8.627,13.238
35.761,-15.462,19.833,-1.033,17.266,7.189,7.778,2.324
32.066,-19.017,17.895,-1.646,14.711,6.843,7.797,0.208
32.7,-16.341,20.104,5.835,17.338,14.585,11.886,6.698
36.173,-13.695,21.953,9.454,20.334,17.962,13.825,5.741
36.721,-17.617,17.668,3.392,18.735,10.562,10.894,0.778
34.826,-23.221,12.743,-2.148,16.31,4.083,8.556,7.061
33.048,-25.322,12.464,-1.899,14.939,5.382,7.711,16.223
33.222,-23.731,13.971,0.046,13.601,8.908,5.47,14.699
36.15,-18.64,14.659,0.724,13.557,9.018,3.766,8.095
39.753,-10.575,17.289,-0.448,15.737,5.526,4.944,5.797
42.72,-1.368,23.958,-0.915,20.075,3.754,7.793,8.34
43.142,2.162,27.669,-1.017,22.868,4.271,8.068,7.586
36.044,-7.406,19.486,-6.693,17.961,-0.621,0.722,-4.634
24.078,-22.631,5.356,-15.24,8.878,-9.567,-10.462,-19.465
17.348,-29.52,-1.432,-17.155,4.798,-12.067,-15.581,-20.633
17.876,-28.986,0.058,-13.799,5.569,-8.236,-14.311,-11.449
20.85,-27.725,4.116,-11.885,7.368,-5.144,-12.45,-7.207
25.802,-22.153,9.687,-8.271,11.521,-0.54,-8.455,-8.41
33.533,-9.338,15.291,1.003,17.95,8.973,1.73,-3.265
38.686,1.348,17.06,7.695,21.658,15.079,13.287,9.515
35.104,0.352,13.645,4.717,18.792,11.159,17.025,18.441
26.255,-7.559,7.441,-0.49,12.065,5.157,13.039,19.159
21.34,-11.512,3.557,-0.271,8.404,4.97,9.454,17.293
22.335,-11.107,5.271,0.388,9.678,5.835,7.956,12.795
24.646,-12.146,9.822,-3.257,11.674,3.172,4.872,3.286
27.7,-12.029,14.18,-3.81,14.317,3.65,3.854,-3.529
31.746,-7.584,18.106,2.492,19.29,9.88,7.732,-2.557
30.885,-6.946,17.722,2.577,19.909,9.145,7.638,-3.13
23.98,-13.885,9.94,-10.579,12.007,-4.514,0.662,-9.369
19.508,-18.057,1.363,-22.55,4.711,-16.83,-2.381,-12.542
22.181,-12.25,0.625,-21.34,6.533,-16.234,2.708,-9.214
28.969,-0.897,7.91,-12.982,14.349,-8.356,9.571,-2.043
35.976,9.127,17.186,-6.074,20.973,-1.333,14.677,8.921
40.86,15.033,23.896,0.66,24.566,5.822,19.069,23.443
41.557,16.84,26.826,9.094,26.772,14.036,21.856,34.486
36.156,14.613,24.112,12.44,25.603,16.164,19.818,30.554
28.673,11.22,16.965,7.624,20.938,10.494,16.03,17.818
29.274,13.202,14.768,5.129,21.131,8.819,18.352,19.428
37.811,19.87,21.149,10.591,28.539,15.666,24.348,32.305
40.505,20.203,25.09,12.331,31.722,17.972,24.207,28.205
33.927,11.791,21.532,3.798,26.606,9.634,19.389,8.406
31.514,8.01,21.561,-2.076,25.193,3.567,20.532,1.852
37.195,13.927,28.777,2.958,31.293,7.509,27.1,13.766
37.34,16.206,30.056,7.734,31.938,11.799,26.776,23.604
26.196,7.021,19.258,2.082,21.013,7.611,15.789,17.294
15.078,-4.714,6.856,-9.604,8.145,-2.49,3.596,-1.16
13.33,-9.377,2.314,-18.22,2.057,-11.65,-0.832,-15.401
18.188,-6.883,4.25,-18.987,2.14,-14.274,3.052,-13.787
22.038,-2.633,8.181,-12.536,4.509,-8.627,8.901,-2.018
21.109,-1.492,11.986,-3.917,6.728,1.302,9.768,6.05
18.865,-3.346,14.572,2.504,8.429,10.601,6.101,5.315
20.11,-3.916,15.319,5.842,9.747,15.812,5.328,4.201
24.384,-0.403,14.815,6.523,10.468,14.286,11.852,10.264
31.408,7.707,17.606,8.915,13.484,12.484,22.599,18.023
41.955,18.399,27.605,16.401,21.134,19.148,32.025,23.914
46.977,21.834,34.321,17.108,24.81,21.54,33.433,30.668
35.856,8.798,22.613,-2.13,14.89,1.828,22.417,27.337
17.445,-11.821,1.558,-27.175,0.316,-24.799,7.181,5.903
10.439,-21.542,-5.473,-33.866,-2.857,-30.978,1.462,-13.929
17.113,-16.191,2.827,-23.857,4.853,-20.225,6.829,-12.461
24.003,-8.006,9.393,-14.225,11.035,-12.36,14.087,4.083
23.176,-7.458,8.984,-9.838,10.337,-10.357,16.297,18.452
20.673,-11.286,10.543,-5.562,8.582,-5.876,15.081,22.842
21.532,-13.483,15.81,-2.05,9.862,-0.306,14.772,19.578
19.978,-17.91,15.959,-5.821,9.359,-3.513,13.795,9.75
14.653,-26.224,11.571,-14.517,5.965,-13.509,10.309,-4.434
14.72,-29.023,13.584,-15.661,7.006,-14.965,8.473,-13.93
21.4,-23.075,20.985,-6.694,13.17,-5.064,9.132,-15.051
24.733,-18.55,22.562,-0.508,17.194,0.668,8.668,-9.754
23.43,-18.715,19.321,-3.258,18.918,-4.18,9.91,3.425
26.14,-14.555,19.658,-5.38,22.284,-8.046,16.192,17.151
30.464,-7.768,20.017,-3.182,21.706,-6.015,19.618,15.602
25.99,-10.588,14.782,-3.598,12.119,-4.85,12.947,0.574
17.183,-20.062,10.538,-3.258,2.719,-2.659,4.375,-8.77
14.477,-24.493,10.022,2.791,1.292,3.145,4.628,-3.924
13.314,-25.587,4.596,3.128,1.392,1.811,10.123,7.172
7.995,-28.18,-4.727,-7.716,-1.539,-9.619,12.111,14.407
5.71,-28.242,-6.08,-17.728,-1.892,-20.012,10.876,12.401
9.95,-24.063,1.136,-19.814,2.598,-23.994,11.166,4.804
15.088,-17.689,9.674,-13.311,9.219,-18.953,14.968,4.126
19.855,-8.428,19.621,3.107,18.122,-1.93,21.554,16.558
20.6,-3.701,25.983,15.791,22.91,11.466,23.524,27.095
8.695,-14.807,16.746,6.264,12.284,1.225,13.067,14.92
-7.685,-31.453,-0.653,-13.839,-5.662,-19.461,-1.642,-12.465
-11.056,-34.062,-6.857,-19.355,-12.25,-23.907,-7.688,-27.888
-2.203,-24.071,-1.379,-10.015,-7.909,-13.064,-7.001,-24.065
7.47,-12.907,5.525,1.85,-2.687,-1.006,-4,-9.905
13.54,-2.867,10.277,10.424,2.023,7.003,3.711,9.344
14.696,4.671,9.315,9.241,3.747,5.862,10.947,22.028
9.87,4.773,-0.58,-2.489,-3.578,-5.579,7.999,15.95
4.857,0.641,-10.621,-11.703,-13.833,-15.13,-0.708,-0.204
10.548,4.04,-5.108,-7.136,-10.584,-10.953,-0.725,-6.094
28.269,18.207,16.408,8.192,8.78,4.723,12.541,7.789
41.641,29.415,32.066,20.174,24.55,17.215,25.683,27.955
34.477,23.757,24.211,16,19.316,12.632,21.521,29.103
14.223,6.901,3.699,-0.633,0.963,-5.176,2.677,7.284
2.425,-3.517,-5.756,-13.023,-9.04,-18.178,-9.746,-13.946
6.266,-0.797,2.112,-11.43,-2.906,-16.183,-5.098,-15.03
14.609,6.852,14.667,-0.974,8.491,-5.153,5.365,0.02
17.112,11.519,21.477,8.603,14.762,4.712,11.004,17.507
14.056,12.295,22.489,13.071,16.65,9.243,14.628,30.477
9.668,9.815,19.827,12.214,16.172,8.386,16.895,34.234
5.219,5.079,14.573,5.878,11.38,2.397,11.451,21.979
0.681,1.228,9.411,-3.226,4.12,-6.424,-0.221,-3.746
-1.713,0.46,6.366,-8.543,-0.17,-12.497,-8.194,-24.362
-1.662,0.233,2.65,-8.334,-2.484,-13.154,-8.946,-25.876
-3.119,-2.302,-5.015,-8.514,-7.939,-12.266,-8.613,-19.564
-4.31,-2.085,-10.84,-7.808,-11.806,-9.07,-9.097,-17.455
2.069,6.912,-5.264,2.147,-4.174,2.277,-3.516,-11.017
11.672,16.949,6.641,12.069,8.775,11.657,5.58,-0.72
10.744,15.118,8.575,4.214,10.171,1.989,4.296,-2.75
-0.62,4.771,-1.437,-12.633,0.329,-17.615,-7.158,-13.436
-8.537,-0.227,-9.294,-17.441,-5.725,-24.9,-14.035,-13.697
-7.288,3.035,-7.732,-11.8,-3.634,-19.631,-11.7,-4.05
-3.514,7.613,-2.351,-8.709,-0.162,-15.441,-6.965,0.681
-3.596,10.004,-0.224,-8.854,1.007,-15.068,-4.248,-2.396
-7.219,10.974,-2.539,-7.353,0.432,-13.781,-4.12,-3.683
-9.244,11.738,-3.665,-4.74,0.939,-11.36,-4.276,4.287
-4.357,15.49,3.468,-0.626,7.387,-7.481,0.894,18.717
4.401,22.677,14.893,6.016,17.05,-0.865,9.135,27.176
4.273,23.936,15.392,7.129,16.732,1.022,6.435,15.568
-7.361,14.773,2.948,-2.241,4.574,-7.376,-8.579,-10.295
-15.981,6.333,-6.118,-10.83,-3.826,-16.108,-17.542,-22.882
-15.9,4.618,-6.738,-11.012,-3.746,-17.49,-15.398,-17.262
-15.387,3.325,-8.232,-9.391,-5.261,-16.445,-15.131,-16.858
-14.953,2.127,-10.405,-8.239,-8.456,-14.521,-17.035,-22.433
-10.797,5.525,-7.993,-4.706,-6.777,-10.024,-13.341,-17.003
-8.245,9.799,-6.977,-5.022,-5.269,-9.753,-10.804,-8.12
-11.489,9.674,-14.172,-13.888,-11.359,-18.076,-17.452,-11.129
-13.342,10.479,-20.844,-18.834,-17.338,-22.88,-23.734,-15.643
-6.798,19.115,-14.509,-8.8,-11.542,-13.049,-18.55,-7.18
1.474,28.028,-2.141,2.747,-1.064,-1.464,-10.725,-0.307
0.475,25.871,-0.548,-1.098,-1.114,-5.637,-12.529,-11.367
-7.417,17.642,-8.61,-12.323,-8.777,-17.859,-17.265,-24.093
-9.247,17.447,-10.275,-12.761,-8.96,-18.935,-13.511,-18.114
1.564,29.363,1.75,1.252,3.373,-5.043,-1.488,3.101
16.712,43.862,17.78,17.648,18.56,11.163,10.312,21.729
20.051,46.874,21.11,20.144,21.725,13.638,10.229,18.809
5.41,33.167,5.814,5.119,8.071,-1.099,-4.745,-3.693
-12.116,15.492,-12.43,-11.342,-7.925,-17.591,-19.926,-17.753
-14.251,11.005,-14.562,-13.258,-9.494,-20.063,-20.001,-9.453
-6.047,17.185,-5.682,-5.008,-1.108,-12.234,-9.783,1.769
-4.541,19.145,-3.547,0.561,1.798,-6.323,-5.23,0.973
-10.758,15.057,-9.103,0.822,-2.598,-4.575,-10.029,-2.633
-13.683,14.095,-11.476,-0.604,-5.484,-3.788,-14.498,-3.281
-10.505,18.678,-8.14,-2.267,-3.306,-4.746,-13.395,-5.097
-7.809,23.498,-5.178,-4.864,0.11,-9.441,-11.685,-6.284
-9.692,24.762,-8.435,-8.875,-1.415,-16.014,-13.423,-6.092
-12.356,24.318,-15.538,-11.329,-8.183,-19.328,-13.429,-7.182
-9.988,26.191,-17.059,-9.338,-11.543,-17.376,-6.27,-7.123
-6.136,26.774,-13.938,-8.023,-10.08,-16.135,0.13,-7.288
-9.893,18.244,-16.868,-13.118,-13.407,-20.965,-5.024,-11.163
-18.023,6.228,-23.299,-19.046,-20.156,-26.625,-15.324,-10.613
-19.459,3.413,-22.137,-18.626,-19.328,-26.666,-18.159,-2.068
-14.656,7.836,-15.137,-15.722,-12.255,-24.502,-16.081,0.021
-12.016,9.22,-10.398,-16.104,-7.442,-24.837,-16.781,-9.746
-13.492,7.081,-7.519,-15.989,-4.037,-23.932,-16.512,-15.199
-15.548,6.412,-2.91,-10.176,2.123,-17.845,-9.713,-8.285
-15.782,7.313,2.282,-2.366,8.675,-11.206,-0.193,-0.04
-12.887,8.883,6.084,1.94,12.428,-8.722,5.995,2.869
-6.625,13.554,8.904,3.388,14.108,-7.577,8.079,3.999
0.866,22.439,11.461,5.254,14.831,-3.868,10.166,6.681
3.477,28.712,10.124,5.959,11.762,-1.371,11.779,9.974
-7.166,20.645,-2.818,-2.752,-1.329,-9.725,1.442,2.695
-26.568,0.849,-23.212,-19.932,-21.045,-27.144,-21.592,-20.528
-34.862,-9.626,-31.636,-28.103,-29.94,-36.049,-34.388,-36.051
-25.73,-1.786,-21.252,-20.32,-20.632,-29.75,-24.684,-24.801
-16.801,7.558,-9.931,-12.714,-9.421,-23.071,-11.709,-8.361
-18.922,5.943,-11.11,-14.972,-9.537,-24.848,-11.267,-7.582
-21.218,3.17,-14.244,-16.418,-10.869,-25.422,-12.179,-7.591
-18.583,4.785,-11.664,-13.808,-6.105,-22.645,-7.515,-1.787
-24.91,-2.864,-16.346,-21.209,-9.09,-30.547,-12.395,-11.041
-42.031,-21.483,-30.327,-38.007,-23.15,-48.076,-29.037,-33.049
-48.842,-29.164,-33.397,-43.236,-27.53,-54.212,-36.43,-39.355
-38.821,-19.601,-21.171,-33.435,-15.721,-45.333,-30.563,-28.668
-31.069,-13.571,-13.428,-27.995,-7.263,-40.228,-28.551,-23.376
-32.396,-18.026,-16.685,-31.371,-9.883,-43.292,-30.673,-23.837
-28.099,-16.566,-15.798,-27.889,-8.903,-39.444,-23.69,-14.523
-16.904,-7.304,-6.478,-16.961,-0.215,-28.201,-12.76,-2.04
-15.703,-7.035,-3.69,-15.463,1.621,-26.37,-12.554,-5.39
-26.5,-16.508,-12.596,-24.179,-7.381,-34.846,-19.934,-19.422
-31.706,-18.943,-18.207,-26.304,-12.333,-36.613,-21.204,-22.712
-22.15,-9.12,-9.337,-15.952,-3.281,-25.89,-13.143,-10.17
-7.707,2.343,6.601,-3.683,12.158,-13.37,-2.531,5.997
-2.763,5.51,14.331,-1.006,19.503,-10.165,2.158,12.257
-11.219,-1.088,6.766,-10.213,12.64,-18.88,-4.504,2.29
-23.065,-9.833,-7.804,-22.27,0.473,-31.042,-16.736,-15.199
-27.152,-11.439,-16.25,-27.385,-5.11,-36.338,-22.756,-26.46
-24.292,-5.543,-16.285,-26.746,-4.125,-35.44,-20.839,-28.987
-20.649,2.695,-13.018,-24.414,-1.847,-32.672,-16.165,-21.899
-17.326,10.348,-8.093,-19.004,1.714,-26.787,-10.435,-4.266
-9.655,18.986,1.399,-8.726,10.037,-15.968,-2.929,12.043
6.653,32.284,16.785,5.687,24.088,-1.43,6.928,17.33
23.129,44.728,28.641,17.618,35.087,9.857,15.425,18.211
23.313,42.998,23.485,14.384,30.098,5.93,12.716,16.317
10.386,29.967,6.035,-3.561,13.03,-11.955,-1.602,3.93
6.604,25.263,-4.086,-14.798,3.405,-22.791,-9.714,-9.471
17.832,33.435,-0.147,-8.384,7.867,-16.342,-2.608,-7.692
27.342,38.841,6.695,-0.512,13.843,-8.779,4.537,-0.448
25.88,34.721,7.882,-3.668,13.303,-12.037,2.104,-5.66
22.343,31.386,7.565,-8.715,12.338,-15.969,0.65,-15.732
25.482,35.666,11.922,-6.948,16.476,-11.72,7.327,-12.078
32.801,41.897,19.038,-3.389,22.385,-6.372,15.25,2.176
39.17,44.999,24.707,-2.629,26.608,-6.13,17.923,8.076
46.034,50.194,30.209,2.141,32.168,-2.81,19.843,6.624
54.25,60.697,35.988,15.598,39.958,9.78,27.411,16.956
53.085,64.06,34.228,23.32,40.237,16.494,32.601,30.29
35.341,50.55,20.608,9.744,26.65,2.12,23.107,16.38
17.041,34.162,7.293,-11.672,12.114,-18.024,8.455,-13.876
16.563,31.469,8.233,-14.71,12.474,-19.171,9.999,-15.751
26.768,36.08,18.842,-0.333,23.329,-5.272,26.623,14.54
29.206,33.259,23.281,7.916,27.914,1.007,36.009,34.03
21.44,23.539,15.439,0.84,20.019,-7.023,28.349,21.354
15.354,18.065,5.426,-8.148,10.202,-15.727,17.178,2.374
17.898,20.949,5.485,-7.862,9.715,-14.829,15.69,4.121
24.538,26.115,13.755,-3.833,15.386,-10.183,20.671,15.994
28.868,27.589,19.354,-4.148,18.469,-9.964,23.869,14.379
29.515,25.954,18.769,-5.625,18.814,-11.217,25.353,3.343
26.662,23.918,16.792,-2.723,20.22,-8.678,29.882,2.437
20.691,21.225,15.814,0.98,21.506,-5.786,35.835,7.994
14.905,17.105,13.594,-0.407,19.163,-7.642,35.649,1.012
13.602,14.443,11.07,-2.647,15.306,-9.666,30.468,-11.28
18.902,17.809,14.54,3.452,17.283,-3.074,32.156,-3.15
27.255,24.572,23.546,14.451,24.597,8.281,42.449,22.135
28.271,23.108,24.967,14.646,24.474,8.32,46.06,33.164
17.185,9.55,12.607,0.236,11.734,-6.666,35.112,18.168
3.731,-3.97,-0.404,-12.395,-0.412,-19.539,22.598,0.032
-1.709,-7.559,-1.922,-11.374,-0.735,-18.479,21.088,-0.917
1.274,-3.541,5.451,-1.903,7.458,-9.825,28.346,10.524
9.148,3.28,15.092,8.815,17.492,-0.403,38.932,24.934
16.672,8.86,22.324,17.403,24.541,8.425,48.071,37.486
17.411,9.162,22.837,19.084,23.627,11.776,47.135,36.863
11.054,4.938,16.064,12.683,14.468,6.248,33.929,18.945
3.328,0.964,7.583,5.849,4.286,-1.11,20.108,2.478
-2.539,-0.639,4.33,5.12,0.845,-2.636,16.686,1.559
-6.184,-0.751,8.069,6.884,5.319,-1.056,21.863,4.917
-5.151,2.163,15.995,8.041,14.636,0.509,30.208,6.157
0.483,9.253,24.53,12.074,25.272,4.407,39.649,14.924
1.208,12.353,27.284,14.306,29.975,5.473,43.434,23.798
-10.924,2.385,18.309,4.639,22.22,-4.756,33.936,13.817
-26.064,-12.513,4.596,-9.297,9.705,-17.979,18.872,-5.547
-28.79,-16.755,0.632,-10.954,6.587,-19.595,13.822,-8.586
-22.919,-12.101,6.141,-3.331,11.135,-13.121,18.444,3.647
-22.777,-11.391,8.064,-0.138,11.251,-10.147,20.535,10.171
-27.57,-15.258,3.305,-0.744,6.803,-9.305,19.698,8.118
-28.107,-16.196,-0.244,2.442,5.542,-4.764,24.366,10.88
-25.953,-15.348,0.209,7.559,6.78,0.277,31.554,18.595
-25.052,-16.545,1.204,10.627,6.557,2.469,32.659,22.231
-20.116,-14.846,2.528,13.886,7.785,5.633,31.27,24.096
-8.217,-5.941,7.554,18.199,13.946,11.043,34.511,28.581
-0.204,1.48,13.845,18.693,19.581,12.139,36.403,28.123
-6.152,-2.602,13.08,12.6,16.633,5.128,29.315,17.324
-17.78,-12.398,5.403,5.077,8.84,-3.075,21.191,8.462
-22.646,-17.105,-0.389,2.297,5.633,-5.052,21.235,10.76
-21.773,-16.144,-1.213,4.005,6.497,-2.622,22.85,10.633
-19.343,-11.709,0.901,8.146,7.457,0.973,20.177,2.786
-15.874,-5.771,4.672,12.501,9.026,4.919,19.743,3.065
-15.651,-5.219,6.398,11.031,8.873,4.754,22.018,8.593
-20.765,-11.36,3.187,3.133,4.167,-0.999,18.834,2.201
-23.322,-14.164,-0.827,-1.346,-0.333,-4.493,11.758,-8.475
-16.484,-7.243,1.079,3.722,2.039,0.173,10.076,-5.309
-4.769,3.839,9.483,13.018,10.566,8.991,16.07,8.603
-0.485,8.264,14.436,15.925,14.783,11.937,21.107,14.99
-11.091,0.524,5.904,6.939,5.347,3.252,15.457,6.082
-26.753,-10.803,-9.082,-4.94,-9.723,-8.309,3.903,-4.468
-31.244,-12.201,-15.822,-6.419,-14.998,-9.898,-0.102,-2.399
-24.723,-3.653,-13.774,0.561,-10.978,-3.56,3.914,5.77
-18.68,4.779,-10.682,5.297,-7.572,0.969,6.709,7.4
-16.835,8.55,-7.679,6.763,-5.336,3.139,7.233,4.991
-15.461,10.498,-3.022,10.318,-0.268,7.173,9.255,5.041
-12.291,13.388,1.962,15.498,6.055,11.732,11.398,4.121
-8.337,15.818,6.097,18.3,11.232,13.673,11.652,1.668
-6.533,15.329,9.756,18.879,15.506,14.268,10.748,4.838
-7.083,14.544,13.513,20.819,18.738,16.809,10.603,13.958
-5.006,19.592,18.525,25.721,21.32,21.824,13.79,22.134
0.441,29.922,22.558,29.722,22.566,25.209,16.495,25.359
1.158,36.248,18.448,26.61,17.909,21.67,9.82,22.288
-5.216,35.137,7.121,18.113,8.357,13.687,-2.47,13.488
-9.851,34.185,0.607,13.97,3.533,10.466,-5.92,4.765
-9.642,35.79,1.882,16.345,4.669,13.335,0.198,1.581
-10.647,34.427,1.748,17.076,2.669,15.087,3.477,3.094
-13.525,30.454,-1.942,11.861,-2.992,13.319,1.053,7.721
-13.694,28.683,-3.568,4.188,-4.384,10.387,-0.447,12.473
-10.929,30.021,-1.595,-1.17,0.069,7.345,1.493,11.433
-8.752,32.415,1.769,-1.668,5.306,6.062,5.48,7.857
-10.265,32.445,3.452,0.637,7.172,7.298,8.303,9.25
-15.356,28.523,1.136,1.056,5.339,7.681,6.405,11.091
-18.703,26.349,-2.048,0.833,3.441,7.495,2.838,7.886
-13.083,34.382,1.266,7.31,7.287,13.42,5.731,7.611
1.246,50.971,12.464,20.868,17.994,25.716,16.541,17.436
11.364,61.373,20.087,30.007,25.34,32.887,24.987,27.215
6.747,55.217,13.103,27.462,19.115,28.576,21.373,24.846
-4.286,41.983,-0.823,21.715,6.287,22.818,11.505,19.133
-8.807,36.378,-7.376,21.91,-0.256,24.862,6.73,22.432
-7.512,37.505,-7.401,23.295,-1.831,28.082,4.736,23.252
-5.763,37.26,-8.248,19.723,-4.603,24.853,-0.282,9.592
-2.213,37.338,-7.393,17.794,-4.045,22.041,-0.635,-0.736
5.826,43.262,1.407,25.361,5.883,28.505,10.623,11.684
14.997,50.762,15.231,36.955,19.608,39.658,24.178,34.542
17.885,50.11,21.909,41.261,24.941,44.686,28.182,45.578
12.741,40.988,16.073,36.461,18.995,41.312,24.725,41.383
9.034,35.094,10.905,32.382,14.196,37.916,24.558,30.631
14.334,39.273,17.099,35.94,18.877,40.669,30.042,21.834
20.602,43.622,22.494,39.424,22.021,43.153,30.987,20.4
18.749,39.14,16.193,34.733,14.984,38.92,22.56,23.93
15.362,34.479,9.053,29.705,8.459,35.157,15.67,25.695
17.346,37.532,9.795,33.651,10.183,39.025,18.76,25.706
16.815,38.935,9.231,41.161,10.23,44.782,23.417,26.247
7.483,30.487,1.143,43.906,1.496,45.903,20.164,23.867
-2.068,20.353,-5.104,43.625,-6.039,45.066,14.57,20.033
-2.438,18.526,-0.65,46.53,-1.195,47.366,16.039,23.304
3.636,21.701,9.154,52.898,10.48,51.878,22.183,31.314
7.475,20.303,12.568,54.644,14.148,51.203,23.166,28.751
6.485,13.764,7.424,47.941,7.756,43.371,17.42,13.959
6.419,11.158,4.216,43.77,4.63,39.861,16.027,8.586
11.648,17.616,10.814,51.795,11.79,49.29,26.015,24.274
16.579,26.286,19.585,63.313,19.285,62.012,37.571,43.46
14.238,28.355,19.455,65.868,17.771,64.729,39.593,49.837
10.324,26.58,14.762,63.057,13.867,60.927,36.981,51.222
11.386,25.726,14.407,62.363,14.653,59.939,36.023,53.594
9.151,20.639,13.158,58.24,12.574,57.761,30.26,43.795
-0.643,11.573,5.927,47.775,3.679,49.973,19.177,20.901
-5.563,9.537,2.364,42.634,-0.16,45.69,16.147,8.282
-0.224,14.966,8.971,49.106,7.965,51.052,25.701,17.526
2.853,15.476,16.819,57.529,17.979,57.976,36.413,34.244
-4.605,6.909,18.123,59.415,20.691,58.951,39.497,44.411
-14.32,-1.666,17.028,57.715,19.983,57.4,37.798,45.831
-18.337,-4.852,15.039,55.157,18.477,56.19,34.892,37.164
-22.826,-10.151,3.855,46.696,8.406,49.212,26.374,19.759
-33.969,-22.696,-15.988,32.368,-10.647,35.348,10.194,5.462
-43.265,-33.327,-28.811,23.571,-23.799,26.422,-2.897,5.593
-40.66,-33.549,-26.242,25.387,-22.733,28.541,-3.906,13.936
-30.39,-27.593,-17.202,29.162,-16.06,32.934,-0.049,15.192
-22.937,-22.016,-11.56,28.895,-12.502,32.767,-1.191,7.311
-20.481,-16.85,-9.375,28.505,-10.913,31.883,-5.303,0.23
-19.209,-10.777,-7.175,31.53,-8.184,34.777,-5.862,-0.759
-18.762,-6.859,-4.292,35.823,-5.109,39.999,-2.056,2.371
-19.739,-8.3,-1.362,39.553,-2.651,45.104,3.131,9.289
-19.431,-12.306,0.895,43.033,-0.198,49.394,6.944,18.928
-16.945,-14.07,0.953,43.978,1.218,50.465,7.267,22.783
-13.806,-12.218,-0.458,41.861,1.236,48.322,5.737,20.357
-9.12,-6.906,0.159,42.857,2.771,49.51,6.605,24.786
-4.964,-1.638,1.286,47.357,4.003,54.307,6.987,34.545
-9.193,-4.103,-3.95,44.08,-2.736,51.433,-0.052,28.567
-21.08,-14.113,-15.157,29.343,-16.814,37.583,-11.356,1.018
-28.222,-20.697,-22.965,16.343,-27.149,25.651,-17.224,-23.018
-24.517,-17.821,-21.276,16.642,-26.441,26.292,-14.264,-18.455
-16.052,-10.881,-12.116,26.775,-17.348,36.071,-5.766,5.965
-10.732,-7.698,-3.043,35.921,-8.237,44.961,1.757,23.113
-12.125,-11.158,-1.92,37.193,-6.761,46.37,1.461,23.801
-19.782,-19.001,-9.738,31.075,-14.01,40.786,-7.027,17.883
-29.974,-27.437,-20.947,22.322,-25.201,33.009,-16.907,12.661
-35.788,-32.747,-28.495,15.72,-33.928,27.453,-21.83,6.709
-31.784,-30.686,-26.49,15.378,-33.975,27.747,-19.042,2.811
-21.745,-21.724,-15.733,22.032,-24.656,34.699,-9.691,8.764
-18.165,-17.345,-8.421,26.116,-17.477,39.07,-4.44,15.634
-28.219,-27.256,-15.479,16.958,-24.189,30.039,-14.853,3.933
-41.931,-41.505,-28.821,1.912,-37.214,14.316,-32.338,-21.513
-45.084,-43.996,-32.896,-3.429,-40.848,7.798,-38.094,-36.33
-39.037,-36.053,-28.257,1.21,-35.823,12.436,-31.435,-31.869
-33.943,-29.477,-25.377,5.498,-33.065,18.19,-25.068,-20.355
-30.887,-26.219,-24.59,7.387,-33.157,21.029,-22.595,-11.403
-24.826,-19.738,-19.351,12.473,-29.371,25.772,-19.307,-2.236
-18.469,-12.446,-12.515,19.883,-23.552,32.988,-14.806,6.954
-19.5,-14.545,-13.093,20.913,-23.912,34.757,-13.471,5.365
-26.283,-24.475,-19.403,13.545,-29.86,28.208,-16.947,-8.672
-28.766,-29.441,-19.764,8.451,-30.959,23.258,-19.501,-16.383
-24.261,-25.675,-11.049,12.677,-23.173,27.194,-15.896,-5.937
-21.368,-22.254,-4.666,17.09,-16.847,31.419,-12.745,5.381
-25.368,-25.224,-8.556,12.356,-20.998,26.707,-18.386,-0.945
-30.032,-29.791,-15.297,5.711,-29.349,19.954,-26.561,-13.681
-29.226,-30.291,-16.19,6.79,-32.247,20.727,-26.836,-13.387
-26.412,-28.644,-13.639,10.18,-30.947,24.354,-22.489,-4.595
-25.642,-28.016,-11.938,7.937,-29.933,23.097,-21.991,-2.529
-22.665,-25.294,-8.329,5.497,-26.37,21.07,-21.483,-4.542
-12.996,-17.261,-0.769,9.904,-17.73,24.508,-13.327,0.78
-3.54,-10.191,3.618,14.853,-11.821,28.444,-5.356,7.522
-6.751,-13.969,-3.647,10.675,-18.104,24.82,-10.955,3.182
-20.476,-25.348,-16.953,2.05,-30.944,17.808,-24.327,-5.571
-28.32,-30.307,-21.125,2.571,-34.82,19.078,-27.89,-3.803
-26.647,-27.795,-16.239,11.087,-29.657,26.798,-21.495,4.825
-28.614,-30.078,-17.83,11.876,-30.948,26.454,-20.488,1.981
-37.373,-38.184,-28.42,2.346,-41.062,16.702,-27.547,-14.087
-40.219,-41.268,-33.447,-3.006,-45.27,11.802,-30.425,-23.018
-32.594,-36.987,-26.688,1.408,-37.961,16.195,-25.354,-16.496
-26.323,-34.221,-19.364,4.693,-31.099,18.747,-22.966,-10.529
-29.115,-38.264,-21.595,-1.379,-34.229,12.27,-30.083,-18.128
-33.207,-43.039,-26.907,-9.654,-40.113,4.445,-37.7,-30.024
-27.561,-38.186,-21.914,-6.636,-35.658,7.943,-32.386,-27.285
-11.951,-22.636,-6.824,7.894,-21.19,22.251,-16.573,-9.385
0.832,-10.189,3.019,16.641,-11.562,30.455,-8.489,2.672
-0.528,-12.645,-2.197,8.48,-16.347,22.112,-16.831,-2.375
-9.417,-20.781,-13.518,-5.197,-26.912,8.754,-29.05,-13.565
-11.466,-18.825,-17.392,-9.554,-30.506,4.979,-32.229,-20.22
-5.034,-7.708,-13.186,-4.347,-26.675,10.882,-27.943,-19.413
2.755,3.458,-7.535,4.806,-21.065,20.918,-22.334,-7.836
8.82,12.894,-2.736,14.76,-15.501,31.785,-17.437,9.15
12.768,20.063,0.552,20.695,-11.675,38.117,-14.959,13.933
13.481,21.257,-0.36,18.207,-13.265,35.328,-18.3,-0.23
11.668,18.752,-5.063,11.767,-19.28,28.399,-25.757,-16.924
10.618,20.086,-9.079,9.428,-24.106,25.976,-30.063,-21.8
13.105,26.809,-10.017,11.323,-24.976,28.371,-28.641,-20.091
18.426,33.635,-9.143,13.365,-23.234,31.314,-25.161,-16.31
23.5,36.809,-7.238,14.583,-20.579,34.16,-22.165,-4.104
25.792,37.517,-4.08,14.279,-18.283,36.893,-20.221,12.075
21.985,35.472,-3.601,9.215,-19.404,35.048,-21.503,13.236
10.064,27.155,-10.711,-1.465,-26.234,25.281,-27.22,-2.788
-3.085,17.193,-20.685,-11.458,-34.503,13.542,-33.451,-15.801
-7.706,15.831,-24.839,-14.277,-38.218,7.386,-36.692,-18.071
-3.392,21.754,-22.85,-11.561,-36.897,6.128,-38.726,-20.213
4.798,25.92,-17.946,-7.528,-32.342,7.472,-40.796,-27.368
13.52,28.145,-9.242,-1.84,-24.911,13.071,-39.386,-33.415
20.231,33.526,2.544,6.724,-15.348,22.409,-31.417,-29.322
21.518,37.3,8.982,13.992,-8.77,29.134,-21.541,-15.702
14.708,31.194,5.462,15.366,-10.125,29.585,-16.917,-1.922
3.623,20.682,0.351,14.017,-15.22,29.136,-16.92,7.242
-5.06,14.348,-2.474,11.484,-19.822,28.465,-20.766,4.086
-13.018,7.444,-10.753,1.915,-27.949,18.637,-32.47,-18.101
-23.29,-4.065,-23.872,-11.889,-38.852,2.268,-46.955,-39.973
-29.648,-11.445,-31.492,-18.062,-44.918,-5.788,-52.11,-38.03
-26.421,-8.023,-31.132,-14.457,-44.88,-2.028,-45.895,-22.205
-16.891,0.144,-27.28,-8.722,-41.836,4.647,-35.378,-15.027
-5.846,6.306,-21.282,-5.175,-35.904,8.877,-27.267,-18.9
3.49,12.272,-14.557,-3.959,-29.424,10.367,-26.445,-25.387
3.904,16.274,-12.424,-6.957,-28.399,7.121,-33.356,-31.8
-8.14,10.154,-15.705,-13.322,-32.714,0.057,-40.652,-35.323
-20.659,-0.324,-16.517,-14.106,-34.151,-1.533,-39.805,-27.856
-20.312,1.962,-9.693,-3.385,-28.231,8.669,-30.239,-8.051
-13.086,15.01,-2.279,8.112,-22.433,20.61,-20.499,8.342
-15.699,16.498,-6.74,1.992,-29.029,15.85,-23.433,1.291
-30.036,-0.538,-24.862,-20.945,-47.527,-6.479,-40.564,-25.119
-38.206,-14.284,-41.127,-36.833,-59.894,-23.267,-52.911,-41.274
-30.246,-9.226,-41.498,-32.219,-54.736,-19.303,-46.954,-31.682
-21.9,-1.024,-33.904,-22.034,-44.735,-8.427,-36.455,-16.639
-27.228,-6.619,-33.305,-23.032,-44.093,-8.887,-37.789,-20.372
-34.182,-15.718,-36.449,-29.361,-46.026,-16.265,-44.922,-36.461
-29.274,-14.395,-32.444,-27.265,-40.18,-15.834,-45.98,-40.436
-20.633,-10.713,-25.169,-19.404,-33.288,-8.304,-44.14,-26.832
-19.195,-16.352,-25.003,-18.524,-35.719,-6.454,-48.642,-18.467
-23.96,-25.994,-31.098,-26.057,-44.264,-13.784,-58.054,-33.874
-29.516,-28.836,-34.194,-31.305,-48.583,-20.367,-61.301,-55.521
-31.135,-24.35,-29.551,-26.709,-44.186,-16.837,-51.839,-51.991
-29.684,-20.647,-22.747,-15.743,-35.959,-5.551,-35.636,-25.854
-33.016,-25.338,-23.174,-9.112,-32.903,1.495,-24.922,-10.185
-43.286,-38.062,-32.237,-14.706,-38.354,-4.078,-26.47,-20.527
-49.709,-48.276,-40.067,-26.428,-44.385,-14.773,-34.063,-34.387
-45.982,-47.864,-38.973,-31.278,-43.281,-17.762,-37.454,-28.095
-43.959,-44.904,-36.286,-31.306,-41.666,-16.897,-38.673,-14.738
-50.746,-47.845,-40.233,-36.366,-46.799,-22.277,-43.073,-15.681
-52.523,-47.99,-44.414,-40.834,-51.101,-27.426,-44.427,-22.488
-42.906,-39.84,-43.107,-37.477,-49.371,-24.868,-40.27,-25.348
-37.788,-35.84,-42.435,-35.545,-49.94,-23.63,-41.02,-35.08
-46.344,-43.771,-46.334,-41.909,-56.893,-30.168,-50.155,-51.448
-55.83,-53.702,-50.33,-46.546,-62.393,-34.797,-57.572,-57.146
-52.873,-54.231,-48.956,-37.339,-58.361,-25.977,-53.798,-44.235
-41.254,-46.942,-40.524,-18.532,-45.863,-7.335,-40.254,-19.609
-35.677,-44.701,-31.925,-9.357,-36.646,2.476,-30.859,-2.991
-42.593,-55.04,-32.487,-18.888,-39.546,-6.757,-36.611,-12.728
-50.918,-66.477,-37.482,-31.366,-45.832,-20.004,-47.524,-33.562
-49.687,-65.237,-38.163,-32.046,-45.882,-21.422,-50.926,-36.627
-44.187,-56.922,-39.998,-29.725,-46.273,-19.649,-53.863,-31.521
-44.07,-54.92,-47.612,-36.022,-51.928,-27.113,-62.007,-41.575
-50.877,-61.098,-53.481,-45.153,-55.896,-36.741,-64.647,-54.649
-59.342,-68.016,-52.975,-47.281,-54.144,-37.575,-57.518,-52.094
-61.566,-69.247,-49.619,-42.444,-49.924,-31.66,-50.118,-41.647
-56.717,-64.98,-47.812,-35.608,-47.135,-25.438,-47.497,-31.768
-52.842,-60.282,-49.855,-31.115,-48.083,-21.811,-47.69,-22.69
-51.763,-56.22,-53.1,-30.761,-50.97,-21.348,-49.499,-23.059
-46.723,-49.104,-50.977,-30.514,-49.813,-20.479,-49.163,-32.57
-38.191,-42.233,-43.785,-27.82,-44.332,-17.315,-44.537,-35.215
-35.614,-44.269,-41.014,-29.226,-43.099,-18.759,-43.671,-32.639
-41.53,-52.5,-45.507,-36.794,-47.92,-26.987,-50.372,-38.277
-47.828,-56.319,-49.148,-41.704,-49.917,-32.708,-54.926,-45.158
-49.418,-55.159,-48.421,-40.879,-46.588,-32.19,-51.924,-42.469
-47.943,-53.488,-45.938,-39.302,-42.871,-30.162,-46.812,-36.1
-44.044,-48.242,-41.436,-39.082,-39.118,-28.338,-43.978,-33.48
-38.507,-37.655,-35.993,-42.072,-34.876,-28.16,-44.587,-35.994
-34.398,-28.607,-34.076,-48.885,-33.696,-31.986,-48.317,-41.809
-31.86,-26.411,-35.961,-52.551,-35.854,-35.426,-50.05,-41.432
-29.322,-29.376,-37.804,-49.428,-37.345,-33.634,-45.245,-27.62
-26.346,-32.077,-36.753,-44.756,-36.024,-29.185,-36.711,-13.2
-21.513,-29.564,-33.379,-41.191,-33.518,-25.654,-30.399,-16.74
-18.436,-26.441,-34.446,-40.405,-35.683,-26.757,-31.911,-33.358
-25.432,-32.775,-45.476,-46.788,-46.528,-36.768,-43.494,-45.486
-38.227,-44.485,-57.303,-55.275,-57.485,-49.21,-57.005,-51.067
-41.254,-47.337,-55.104,-52.863,-55.078,-49.679,-58.982,-53.978
-29.801,-39.106,-38.675,-37.934,-39.064,-36.117,-46.596,-46.751
-14.234,-28.498,-20.91,-22.844,-21.347,-21.274,-30.473,-27.349
-6.314,-20.258,-12.329,-16.998,-11.941,-14.91,-20.711,-11.31
-8.641,-14.122,-12.397,-17.702,-11.183,-15.132,-16.65,-8.427
-13.64,-10.989,-13.662,-18.717,-12.739,-16.952,-14.483,-11.339
-15.666,-14.182,-15.24,-21.841,-15.521,-21.727,-17.737,-17.411
-18.845,-23.634,-23.835,-31.892,-24.96,-31.931,-29.305,-30.759
-26.136,-32.221,-38.583,-44.457,-38.963,-42.368,-42.296,-45.313
-33.974,-36.652,-50.128,-52.396,-48.792,-48.046,-49.678,-52.471
-38.244,-41.693,-53.063,-54.504,-51.092,-50.131,-50.217,-49.251
-36.314,-46.19,-48.329,-49.483,-46.53,-47.569,-43.491,-34.579
-30.662,-44.334,-41.046,-40.009,-38.659,-40.948,-34.458,-19.928
-28.138,-39.59,-37.89,-38.421,-35.295,-40.085,-34.492,-24.609
-29.32,-37.809,-39.344,-49.012,-38.012,-49.322,-44.481,-45.157
-28.154,-35.644,-39.706,-58.897,-39.739,-58.52,-51.498,-59.833
-23.308,-29.179,-37.471,-57.696,-38.216,-58.903,-49.121,-59.651
-18.912,-21.68,-35.8,-48.828,-36.4,-52.31,-43.675,-48.194
-14.95,-15.409,-32.589,-38.767,-31.882,-43.297,-39.144,-31.093
-8.464,-7.968,-23.693,-30.374,-21.978,-34.679,-32.945,-19.775
-2.261,-0.881,-14.45,-26.08,-13.159,-29.491,-26.627,-23.14
-1.932,-0.537,-13.035,-26.105,-12.132,-28.894,-24.999,-31.68
-6.344,-6.978,-16.754,-25.996,-14.69,-29.667,-25.757,-31.21
-8.804,-12.89,-17.444,-23.922,-13.565,-29.4,-23.77,-28.306
-8.748,-16.201,-15.162,-24.705,-10.723,-31.089,-21.676,-36.578
-12.664,-21.333,-15.954,-30.567,-12.151,-36.868,-24.422,-47.728
-19.394,-27.738,-19.53,-35.042,-16.298,-41.248,-28.909,-45.208
-19.341,-29.825,-19.965,-33.106,-17.466,-39.193,-29.568,-35.272
-11.633,-28.084,-16.16,-30.507,-15.281,-36.083,-27.654,-34.179
-7.583,-29.551,-14.28,-34.332,-14.954,-39.403,-27.769,-38.326
-14.094,-35.686,-19.927,-40.919,-19.94,-46.096,-30.933,-36.758
-24.108,-40.399,-29.362,-43.43,-26.643,-48.789,-34.807,-35.066
-26.823,-40.325,-32.943,-42.607,-28.673,-47.279,-36.421,-39.498
-19.299,-35.511,-26.621,-39.521,-23.371,-43.389,-32.577,-39.448
-7.997,-27.55,-15.874,-33.207,-14.57,-37.609,-24.597,-31.555
-3.567,-23.485,-11.315,-30.111,-11.153,-35.884,-21.056,-31.115
-8.322,-25.85,-16.5,-34.713,-15.383,-41.175,-24.729,-39.208
-10.537,-23.979,-19.795,-37.579,-16.693,-44.299,-26.114,-39.9
-1.33,-12.489,-11.789,-32.279,-9.154,-39.98,-21.31,-34.685
10.504,-1.917,-1.86,-26.739,-2.302,-35.415,-18.657,-35.101
12.359,-0.276,-0.764,-26.355,-3.116,-34.429,-20.652,-36.034
5.824,-4.888,-3.69,-28.045,-5.674,-34.192,-20.951,-30.237
0.687,-11.522,-3.244,-30.458,-4.83,-35.016,-18.363,-25.364
0.98,-16.434,-1.337,-32.078,-3.008,-36.346,-17.026,-28.306
0.835,-19.775,-3.454,-31.025,-4.599,-35.785,-19.713,-33.803
-8.639,-28.695,-12.892,-32.742,-12.781,-38.087,-27.085,-36.666
-24.917,-44.388,-26.728,-41.388,-25.525,-47.5,-36.677,-39.226
-36.35,-57.225,-36.772,-50.503,-35.662,-57.157,-44.562,-43.179
-40.672,-61.999,-40.635,-54.724,-40.04,-60.496,-49.746,-47.099
-42.731,-62.061,-42.368,-56.431,-41.142,-60.416,-52.403,-52.095
-40.922,-58.86,-41.883,-56.733,-40.167,-60.428,-51.268,-57.753
-32.264,-51.076,-36.155,-54.071,-36.497,-59.403,-46.875,-58.218
-21.446,-41.603,-27.812,-49.679,-31.478,-56.51,-42.418,-52.437
-15.085,-35.801,-22.978,-45.465,-27.342,-53.077,-38.934,-45.67
-10.818,-31.862,-19.902,-38.748,-22.147,-47.789,-33.413,-34.816
-0.558,-21.929,-10.243,-26.079,-11.381,-37.056,-24,-14.847
13.966,-6.551,3.837,-12.651,2.503,-24.1,-14.565,-0.846
19.771,2.044,9.585,-7.437,10.29,-17.463,-9.316,-8.48
9.225,-6.519,1.729,-12.546,6.008,-20.99,-9.242,-24.769
-9.664,-28.203,-12.952,-24.953,-7.648,-32.794,-15.877,-32.15
-20.42,-44.606,-23.236,-36.352,-18.684,-44.529,-25.072,-32.741
-16.262,-42.616,-22.398,-37.149,-16.491,-46.401,-26.695,-33.233
-7.15,-30.716,-14.484,-29.614,-6.001,-40.109,-19.724,-31.182
-2.301,-22.463,-8.013,-22.503,0.88,-33.757,-11.429,-22.244
1.505,-18.032,-6.036,-18.646,1.898,-30.016,-6.59,-14.437
7.903,-13.2,-5.828,-17.048,2.158,-27.745,-5.532,-18.049
14.121,-8.585,-3.555,-16.185,4.053,-25.54,-4.82,-23.506
16.88,-6.008,0.239,-16.089,5.067,-24.396,-3.65,-19.876
14.224,-6.717,0.169,-18.764,2.366,-26.835,-6.429,-17.736
8.408,-9.017,-3.707,-21.317,-0.925,-29.553,-11.512,-22.913
6.584,-7.883,-3.687,-18.069,1.19,-27.126,-10.535,-20.283
11.76,-2.967,2.848,-10.914,8.036,-21.835,-2.304,-3.882
18.135,-1.412,8.369,-7.944,11.73,-20.966,3.588,6.889
15.588,-10.449,2.303,-16.45,3.87,-30.787,-4.108,-8.435
2.447,-25.171,-14.352,-34.541,-12.24,-48.221,-22.059,-39.982
-8.823,-31.189,-25.455,-49.266,-20.775,-59.207,-31.717,-55.747
-10.411,-27.803,-23.478,-53.673,-17.059,-58.693,-27.136,-46.049
-7.919,-26.207,-17.33,-51.708,-11.143,-54.394,-19.7,-26.944
-4.022,-26.22,-11.449,-45.13,-5.917,-48.744,-13.714,-8.684
3.453,-22.51,-4.101,-35.816,0.934,-41.974,-7.461,0.658
10.492,-19.418,1.449,-29.28,5.596,-39.145,-4.533,-6.77
10.148,-22.733,-0.138,-28.098,3.948,-42.182,-7.621,-22.37
2.056,-30.307,-9.46,-32.314,-3.403,-49.023,-14.696,-34.627
-4.188,-33.519,-16.572,-36.308,-9.024,-53.441,-18.486,-36.097
2.096,-26.321,-9.525,-29.475,-3.406,-46.394,-10.756,-16.967
15.713,-17.018,4.14,-16.292,8.452,-33.051,2.8,9.682
21.535,-18.989,8.165,-14.01,12.804,-30.02,7.756,12.05
19.965,-26.967,7.077,-20.368,12.302,-35.193,5.285,-6.751
22.551,-26.078,13.569,-17.507,18.169,-31.78,7.482,-12.702
27.686,-18.803,21.577,-6.415,25.61,-21.183,12.85,1.178
26.493,-16.493,19.993,-2.479,24.289,-18.125,11.151,10.546
19.785,-18.802,12.068,-7.961,17.153,-24.207,3.073,1.212
15.145,-18.369,7.118,-11.587,13.341,-28.211,-1.351,-13.298
18.67,-11.87,10.591,-5.415,18.057,-22.067,4.767,-10.881
26.887,-4.358,19.673,4.783,28.162,-11.04,17.398,6.202
27.798,-5.852,23.592,7.134,32.431,-7.562,23.71,13.685
18.99,-17.491,18.046,0.51,26.058,-13.76,17.758,5.825
11.387,-28.723,11.285,-7.855,17.404,-22.142,7.957,-0.598
12.238,-31.101,10.599,-14.556,14.603,-28.797,2.936,-1.073
20.151,-24.2,15.753,-16.236,18.565,-30.693,3.941,-2.523
31.116,-13.733,23.286,-9.528,26.243,-24.627,9.986,-1.963
39.424,-8.434,29.259,-1.503,32.421,-17.263,15.963,2.231
40.316,-11.137,31.818,-1.199,34.139,-17.47,15.471,3.205
34.573,-16.881,30.562,-4.391,32.838,-21.25,11.663,3.125
28.988,-19.511,28.046,-0.638,33.263,-18.097,13.944,11.743
31.895,-14.416,32.233,12.05,41.234,-5.445,25.21,30.277
41.198,-5.11,41.08,21.511,50.977,4.905,35.055,43.509
43.478,-3.927,38.038,12.306,46.327,-3.119,29.021,30.995
36.131,-11.399,22.07,-9.354,29.268,-24.382,10.645,1.557
32.157,-12.539,13.108,-20.949,20.163,-36.402,-2.162,-14.343
36.051,-3.307,17.715,-17.837,23.861,-33.506,-3.224,-13.199
39.291,5.65,23.278,-11.662,28.418,-26.957,1.553,-7.564
38.747,10.041,23.751,-7.135,29.529,-22.064,7.865,1.768
37.928,12.159,22.254,-5.783,28.92,-20.674,11.528,4.323
35.735,10.265,17.927,-10.272,24.317,-25.334,8.309,-10.533
30.702,6.067,11.701,-13.676,18.317,-29.134,2.345,-21.861
28.155,8.592,12.013,-5.806,19.899,-21.908,2.575,-7.679
31.774,19.518,21.027,8.644,29.516,-7.802,9.325,18.014
37.929,30.451,29.541,16.539,38.546,0.612,16.781,31.608
40.258,34.79,29.089,14.03,40.23,-1.205,20.066,28.743
33.832,30.348,18.85,4.469,31.978,-10.787,13.102,11.307
23.481,22.295,7.443,-4.504,20.454,-20.027,0.289,-12.275
24.42,24.823,10.054,-0.122,22.286,-15.652,1.189,-17.673
38.933,40.887,28.558,17.44,40.401,1.837,20.232,3.064
45.973,50.56,40.142,26.636,51.56,11.09,33.935,22.413
33.163,40.452,28.61,14.925,39.675,0.259,27.074,21.433
17.078,25.596,10.608,-0.991,21.532,-14.189,14.177,15.038
13.602,22.828,5.17,-3.958,16.689,-16.041,10.657,14.451
17.103,27.689,8.072,0.99,20.995,-10.771,13.497,15.112
20.738,31.711,14.117,6.454,27.59,-5.646,19.971,23.898
26.812,35.566,25.887,13.229,38.662,0.477,32.352,44.509
32.241,37.538,35.135,16.354,47.445,2.913,39.939,53.297
28.15,31.521,29.338,8.877,41.261,-5.276,28.339,33.092
15.834,19.763,14.562,-4,24.371,-18.31,7.539,2.119
7.117,12.04,8.026,-10.516,14.129,-23.537,2.024,-11.799
3.781,8.193,9.022,-9.769,13.127,-20.59,11.508,-6.393
-6.445,-2.719,0.472,-13.53,6.325,-22.739,11.727,-6.633
-25.671,-20.69,-18.415,-23.862,-9.596,-32.802,-3.144,-21.549
-41.817,-34.213,-31.152,-28.703,-21.136,-38.342,-15.015,-28.555
-46.653,-37.6,-30.854,-25.355,-21.739,-35.515,-14.945,-21.939
-36.277,-28.6,-19.973,-18.256,-13.347,-28.068,-6.12,-16.256
-14.541,-10.374,-3.056,-6.291,0.536,-15.639,8.938,-7.422
0.274,-0.119,8.195,5.323,10.224,-4.51,22.13,10.661
0.32,-6.133,8.629,8.288,11.905,-2.6,25.705,26.055
-0.74,-15.18,8.881,5.575,14.803,-5.403,24.225,30.217
1.303,-20.433,13.563,1.086,20.802,-8.609,23.09,24.677
-4.169,-27.979,14.433,-6.144,22.02,-14.648,21.82,14.292
-14.679,-35.424,11.084,-10.893,20.505,-19.321,22.837,11.346
-16.982,-35.142,12.799,-5.475,25.047,-14.377,29.396,24.393
-9.895,-29.136,20.333,5.808,33.478,-3.8,36.626,38.363
-4.17,-25.749,22.498,8.96,33.69,-1.812,34.011,31.699
-6.92,-29.611,12.192,-2.126,20.318,-13.439,18.909,10.014
-10.852,-34.149,-0.506,-15.947,5.062,-25.912,4.575,-3.531
-5.048,-29.529,-2.286,-18.274,1.808,-26.13,3.871,-3.148
4.092,-21.525,1.83,-12.47,5.984,-19.439,10.616,-1.708
3.726,-22.306,0.777,-8.242,7.364,-15.607,15.076,1.486
-0.204,-26.794,0.613,-1.308,11.889,-9.181,22.685,24.177
4.101,-23.25,11.732,11.391,26.727,3.438,36.433,55.07
8.83,-17.029,24.571,15.946,39.268,8.251,42.327,52.734
2.591,-19.767,23.948,5.116,36.278,-2.178,32.699,16.503
-4.492,-25.771,16.295,-5.878,27.647,-13.215,22.59,-7.075
3.25,-20.162,18.477,-1.394,30.293,-9.303,28.011,5.205
21.413,-3.521,30.59,13.734,42.645,6.439,43.668,34.352
30.751,6.17,35.936,18.34,46.97,14.007,50.123,50.102
21.496,-2.066,25.108,1.009,33.56,-0.162,37.33,36.707
4.688,-16.389,9.849,-22.325,14.891,-22.579,16.056,6.872
-4.636,-20.977,3.477,-32.304,6.137,-33.014,3.848,-15.572
-5.178,-17.194,2.99,-30.594,5.459,-31.488,6.03,-20.911
-1.632,-13.115,4.895,-25.544,7.975,-26.523,16.284,-10.531
7.944,-6.526,15.809,-16.525,18.521,-17.828,29.726,10.077
25.889,8.872,37.179,-0.947,39.003,-2.259,46.84,31.645
42.275,26.253,56.769,15.206,58.325,14.722,64.764,46.837
43.161,29.376,60.342,18.881,62.158,19.661,73.247,51.73
31.662,16.903,48.267,5.737,50.247,7.764,66.988,47.143
23.116,4.379,34.897,-11.324,36.89,-7.107,54.687,43.887
24.172,2.331,31.531,-16.355,33.785,-8.838,49.204,54.638
32.01,10.37,38.989,-7.762,41.781,1.78,55.364,74.84
40.398,21.138,49.34,0.282,52.178,9.17,64.028,79.891
40.546,23.131,50.391,-3.785,52.368,3.205,59.381,55.446
30.565,14.254,40.328,-13.476,41.486,-7.933,42.045,21.269
19.965,5.078,30.802,-18.546,31.829,-13.575,29.89,4.668
16.912,2.554,29.039,-20.875,29.671,-16.043,30.035,6.244
19.979,4.32,30.776,-22.89,30.651,-18.448,33.832,10.617
23.956,6.971,30.394,-19.636,31.207,-16.008,36.148,12.197
25.427,9.074,27.395,-11.935,31.16,-8.91,37.6,13.533
23.205,9.253,24.148,-8.634,30.119,-5.477,36.787,15.502
18.407,6.413,22.531,-11.486,28.505,-8.184,33.525,19.789
16.903,4.127,26.033,-10,30.936,-7.972,33.749,28.899
23.856,8.976,36.801,3.587,40.74,2.348,42.335,38.823
29.674,16.024,43.896,16.888,47.601,11.612,49.806,37.233
20.599,11.149,32.841,10.754,37.368,3.066,41.577,17.729
6.481,-1.998,13.286,-7.323,19.085,-14.73,24.999,-5.933
9.738,-1.856,11.022,-9.534,17.542,-15.634,23.537,-9.484
27.495,14.51,27.168,9.288,33.718,3.329,40.092,14.535
36.166,25.594,37.298,25.936,43.241,19.133,53.564,44.99
30.72,22.453,33.102,26.435,37.333,19.926,52.844,56.495
26.488,17.385,28.272,19.215,30.665,14.556,46.765,47.574
30.496,18.786,30.41,16.686,33.249,12.956,45.954,39.27
37.35,23.384,36.568,22.289,41.826,17.436,52.721,46.854
41.235,25.834,42.958,29.265,49.343,23.531,60.684,56.421
40.292,24.778,46.006,30.326,51.206,25.396,62.595,50.244
32.696,17.97,39.789,23.024,43.464,18.917,55.909,34.305
15.527,1.338,20.953,6.38,23.424,1.959,39.96,17.676
-1.412,-15.179,2.905,-9.874,3.873,-14.772,24.946,7.448
1.237,-12.915,5.821,-8.36,5.712,-13.596,28.595,17.116
19.872,3.538,23.505,7.596,23.565,1.455,45.406,38.253
28.311,9.657,29.912,15.626,30.733,8.561,50.581,41.479
18.825,-0.718,20.649,9.546,21.403,2.75,39.824,27.485
8.899,-10.699,14.182,3.447,13.563,-2.251,30.312,25.658
6.693,-12.289,15.239,2.412,13.994,-3.018,29.196,35.813
4.557,-13.024,13.743,-0.926,14.007,-7.58,30.084,27.628
5.821,-10.983,15.621,-1.653,16.998,-9.923,33.138,3.113
18.987,2,30.769,10.327,31.616,1.303,41.994,-4.51
28.922,12.948,40.714,20.825,42.163,12.163,45.939,4.262
19.091,5.96,28.802,13.555,32.82,5.718,36.69,5.903
5.419,-5.743,15.806,4.747,21.69,-2.917,28.775,7.913
7.179,-4.779,22.073,12.622,27.713,3.93,34.509,24.894
17.609,4.238,36.213,27.08,40.754,16.91,45.682,44.529
26.767,14.82,45.245,36.187,49.124,25.309,54.051,54.852
37.097,29.599,53.642,44.459,56.887,33.96,61.277,61.256
47.351,43.821,62.424,52.994,64.162,43.063,66.161,65.821
47.485,44.748,61.169,50.734,61.032,40.809,62.527,58.91
37.193,33.411,49.502,35.156,47.962,25.304,51.822,35.904
31.615,27.084,42.392,21.491,39.289,12.581,44.92,10.537
37.552,32.56,44.399,19.632,39.079,11.813,44.808,0.867
43.11,38.114,43.796,21.174,36.959,13.283,42.719,6.797
39.371,36.354,37.003,18.63,30.57,9.895,37.661,15.05
31.469,31.517,31.633,15.17,26.547,6.369,36.554,17.435
27.059,27.372,29.769,13.657,25.406,5.323,38.025,16.63
27.869,25.563,28.908,14.317,24.645,5.449,37.845,20.313
31.092,27.54,28.957,17.643,24.7,7.471,37.826,28.229
34.558,32.209,29.982,22.458,25.287,11.503,39.207,31.007
38.333,37.599,31.554,27.602,25.84,16.584,40.686,27.1
43.66,44.299,35.327,35.444,29.196,25.072,44.878,29.847
53.375,54.704,43.983,47.512,38.772,38.613,55.31,47.608
63.37,63.569,52.078,53.313,47.762,45.262,63.522,60.648
60.566,58.7,46.343,39.102,42.086,29.888,55.638,44.59
46.046,43.961,29.518,16.854,25.956,6.076,39.737,20.466
38.499,38.894,23.32,14.393,22.19,3.367,39.687,32.068
43.878,47.471,34.354,32.217,36.373,20.863,55.505,70.395
48.518,54.335,44.621,45.103,48.21,32.342,62.71,83.154
41.266,48.519,38.817,39.548,41.524,26.178,49.62,54.951
22.88,31.168,17.647,20.639,19.07,8.626,23.726,14.885
0.618,8.756,-9.809,-4.514,-8.744,-14.758,-6.605,-20.217
-13.499,-6.893,-28.787,-25.496,-28.595,-35.195,-28.07,-48.649
-5.066,0.424,-23.075,-23.358,-24.512,-33.603,-21.077,-51.796
26.342,32.351,6.243,6.362,4.479,-4.455,13.597,-18.766
58.273,65.462,35.953,38.191,35.432,27.505,48.075,20.393
73.169,81.387,50.476,52.404,50.957,42.172,63.965,35.8
78.515,88.587,57.971,60.041,58.853,49.639,70.945,40.363
82.002,96.107,64.908,70.261,66.205,59.429,77.246,54.461
79.447,99.103,65.88,74.313,66.786,63.874,76.108,69.641
72.824,96.846,61.59,70.38,61.093,60.584,67.869,74.627
68.079,93.598,57.527,66.688,57.124,56.554,63.21,77.689
60.917,86.18,51.614,63.549,53.892,52.326,62.292,83.063
44.696,70.311,39.682,54.401,44.078,42.688,52.879,78.683
25.784,53.242,25.399,39.366,29.366,28.658,34.101,58.157
19.378,48.137,18.793,27.295,21.414,18.206,22.511,28.913
28.463,55.869,23.42,24.127,24.219,15.951,25.369,2.527
31.796,57.259,22.214,20.449,21.047,13.024,23.722,-12.028
10.431,36.821,-3.134,4.41,-2.9,-1.651,0.565,-10.761
-19.202,10.277,-36.403,-14.47,-31.323,-19.564,-26.243,3.314
-33.01,-1.095,-51.116,-25.044,-43.946,-30.382,-35.634,6.267
-34.459,-0.89,-50.654,-35.085,-46.919,-41.195,-39.168,-29.678
-22.24,13.532,-36.866,-35.133,-37.663,-42.003,-36.437,-74.443
26.105,64.353,11.72,6.818,9.499,-0.956,6.136,-56.338
96.454,137.087,82.097,77.753,81.45,69.397,79.864,25.428
128.932,172.734,114.208,114.173,115.717,106.322,116.812,86.69
106.843,153.928,90.723,95.709,92.891,88.92,93.773,85.526
79.034,127.981,61.451,68.852,62.699,62.876,63.394,67.167
72.878,123.958,55.806,63.859,56.156,58.704,59.032,67.618
68.849,124.458,54.528,63.958,55.431,59.58,59.457,69.749
58.164,118.274,45.637,55.153,48.272,50.755,48.856,59.959
54.516,115.839,39.969,48.374,43.942,43.313,40.764,59.043
59.107,119.09,40.765,50.585,44.57,45.293,42.952,79.066
56.773,114.695,36.088,45.446,38.179,40.838,38.737,79.648
43.541,99.449,21.52,23.56,21.549,19.991,18.809,31.265
35.932,91.729,12.498,9.652,11.958,6.672,4.704,-9.305
40.245,98.883,14.842,16.173,14.77,13.234,5.868,-1.356
36.227,97.933,7.587,12.147,6.946,9.422,-2.302,-3.704
17.872,79.477,-13.306,-14.102,-15.594,-16.195,-24.054,-47.896
12.262,70.45,-18.581,-26.249,-22.493,-28.098,-30.077,-70.708
43.737,98.15,13.999,8.301,9.426,5.872,0.661,-16.043
107.257,160.511,76.509,80.193,73.007,77.162,62.734,87.204
158.222,212.222,124.509,131.493,122.157,128.944,110.996,141.044
153.334,206.484,115.796,114.471,112.053,113.195,98.23,93.652
117.919,167.892,76.167,65.832,69.275,64.487,51.829,19.636
100.978,148.472,56.105,44.027,47.838,40.457,28.867,-0.997
101.36,148.651,55.801,45.57,50.838,40.261,31.432,15.448
104.188,152.056,58.988,51.789,61.606,47.167,39.536,40.088
111.516,160.109,65.293,64.731,75.324,61.657,48.885,73.459
110.565,160.973,60.711,68.578,73.727,66.513,46.5,86.839
81.721,134.172,26.437,38.3,38.51,37.108,15.37,44.605
33.381,86.38,-25.338,-14.701,-14.519,-15.512,-35.025,-26.218
-3.301,49.705,-60.617,-51.103,-49.584,-52.715,-71.393,-65.327
4.332,58.654,-49.68,-38.737,-38.191,-41.393,-61.549,-43.187
61.087,117.745,8.056,21.393,19.397,18.397,-6.344,25.617
116.056,174.734,62.743,77.157,74.06,74.191,43.028,79.256
115.44,175.82,63.579,74.67,74.955,72.077,40.313,55.895
85.223,149.242,35.854,40.877,47.11,39.239,15.512,-6.952
90.696,161.234,42.715,46.641,54.98,45.656,30.518,-7.297
137.806,214.065,89.487,98.15,104.575,96.646,84.796,65.184
180.536,258.824,131.07,142.421,149.227,140.033,128.465,123.732
189.713,268.823,140.343,149.563,160.221,147.409,134.917,123.035
170.487,251.667,122.583,130.084,142.471,129.589,112.953,94.208
140.016,222.307,92.254,103.3,110.751,105.697,78.71,71.668
110.911,190.979,61.193,81.178,78.43,87.636,45.311,57.812
91.09,168.032,40.857,70.946,58.851,80.347,28.354,48.453
85.996,162.197,40.087,75.972,60.969,84.09,37.405,54.925
88.464,164.288,49.446,82.833,73.894,86.959,55.597,72.753
80.728,152.669,45.287,67.681,71.423,69.877,52.86,62.381
59.661,126.211,22.89,34.094,46.996,37.732,26.897,15.087
43.648,108.726,5.619,15.581,25.923,21.022,6.978,-16.412
46.072,112.832,11.583,27.246,29.211,32.673,12.366,-1.071
58.539,123.238,29.17,48.276,45.707,52.753,30.192,28.863
66.485,123.312,36.523,57.381,54.021,61.079,40.268,39.89
64.334,114.263,30.549,53.395,50.225,56.513,37.415,33.619
51.377,101.215,20.755,40.967,40.096,44.285,25.371,22.22
31.418,84.731,8.976,23.661,25.858,28.802,10.566,10.697
18.214,71.889,-3.899,11.269,13.093,18.803,3.042,3.552
20.269,70.294,-9.527,11.554,9.834,19.799,7.656,7.544
25.447,71.52,-7.264,16.544,12.797,23.549,15.606,19.54
23.012,65.981,-4.627,16.622,14.434,22.686,17.663,28.487
23.517,61.83,0.622,18.946,18.266,26.006,18.667,34.718
33.27,65.174,12.077,30.153,27.177,38.522,23.892,44.146
33.233,61.702,16.503,35.579,29.603,42.844,23.756,46.075
10.645,41.337,3.925,23.956,18.931,28.556,11.444,32.986
-11.706,21.03,-8.347,13.226,10.051,17.127,0.308,24.005
-9.73,18.775,-2.781,18.295,14.254,24.558,1.526,21.523
3.616,25.197,9.723,25.007,20.18,34.36,5.561,2.508
5.839,23.738,14.084,23.854,18.57,34.236,4.491,-16.361
-0.375,15.636,11.752,23.771,15.697,32.815,4.029,-2.077
-4.282,7.84,4.702,23.691,12.39,31.596,5.314,21.722
-6.659,0.132,-7.847,16.317,1.883,25.487,3.608,16.007
-10.087,-7.905,-18.97,7.276,-11.58,18.403,1.102,-10.991
-13.488,-14.643,-22.389,1.906,-17.204,12.439,2.711,-28.361
-16.354,-19.821,-19.797,-2.872,-13.736,5.782,8.909,-23.475
-18.53,-23.784,-13.631,-6.007,-7.168,2.985,16.636,-8.07
-22.006,-27.951,-7.129,-3.182,-2.195,7.134,20.332,2.593
-30.798,-35.218,-7.717,0.881,-2.153,10.478,16.022,8.264
-44.223,-46.965,-18.447,-3.727,-9.469,4.272,5.753,11.324
-56.342,-59.774,-31.725,-15.871,-21.759,-7.764,-4.574,5.826
-61.333,-66.955,-37.666,-24.648,-31.109,-15.211,-10.603,-6.791
-58.388,-66.252,-34.936,-26.246,-32.576,-16.424,-12.914,-12.287
-54.065,-62.4,-29.838,-24.395,-29.488,-15.302,-13.571,-0.949
-54.093,-60.095,-26.943,-19.884,-26.308,-10.782,-11.644,16.722
-56.691,-61.675,-26.366,-15.956,-24.649,-5.503,-8.642,15.921
-59.822,-68.549,-28.126,-20.186,-25.641,-8.591,-10.159,-6.803
-65.405,-77.537,-31.984,-28.893,-28.091,-17.318,-15.953,-23.324
-72.845,-82.773,-33.873,-29.903,-28.302,-18.656,-19.977,-19.65
-76.931,-84.037,-30.741,-24.327,-25.699,-13.218,-20.961,-15.687
-75.749,-85.852,-27.713,-23.481,-24.256,-13.07,-20.943,-26.9
-72.556,-88.191,-29.067,-27.901,-25.381,-18.555,-18.332,-40.904
-68.634,-86.764,-31.037,-30.355,-26.51,-21.012,-14.693,-41.348
-64.585,-82.659,-32.653,-30.805,-28.794,-20.327,-18.033,-31.822
-63.712,-80.94,-35.921,-31.986,-34.469,-20.504,-28.293,-26.705
-65.867,-81.905,-37.055,-31.751,-39.422,-20.007,-33.784,-29.032
-66.713,-82.73,-33.831,-28.408,-39.551,-17.376,-29.093,-28.101
-65.53,-82.781,-30.216,-22.997,-36.922,-13.483,-21.553,-16.956
-66.626,-84.379,-28.351,-17.703,-35.407,-8.674,-18.864,-4.548
-72.644,-90.433,-27.701,-17.927,-37.325,-6.643,-22.482,-8.518
-80.596,-98.987,-29.181,-25.993,-42.291,-11.586,-29.226,-30.242
-85.496,-103.744,-32.728,-35.525,-46.383,-21.034,-33.191,-47.961
-85.109,-102.424,-34.591,-41.068,-45.608,-29.772,-31.55,-47.177
-82.676,-99.841,-33.622,-44.178,-41.486,-35.107,-28.334,-37.029
-83.518,-100.85,-34.232,-47.897,-39.031,-36.798,-27.002,-28.155
-85.866,-102.912,-35.916,-51.359,-37.535,-35.14,-24.759,-18.777
-85.173,-102.191,-33.712,-50.827,-33.16,-30.093,-20.113,-9.656
-85.134,-102.592,-30.746,-46.124,-29.571,-23.395,-17.043,-7.243
-91.168,-109.061,-33.382,-43.503,-33.424,-20.093,-19.379,-15.608
-101.315,-119.91,-40.217,-48.68,-43.571,-24.977,-27.115,-37.432
-108.021,-128.67,-44.979,-55.91,-51.019,-32.983,-34.71,-58.97
-103.213,-128.4,-42.921,-52.391,-47.711,-31.013,-34.751,-54.193
-88.28,-120.177,-34.692,-37.952,-36.17,-17.854,-26.036,-24.607
-75.962,-114.055,-26.408,-27.264,-27.077,-8.206,-15.374,0.203
-73.408,-114.13,-23.768,-28.831,-26.305,-10.64,-11.926,0.714
-74.674,-114.057,-27.742,-35.51,-31.368,-18.278,-17.117,-14.924
-75.575,-112.27,-35.623,-40.389,-39.065,-25.404,-24.672,-32.161
-79.076,-114.771,-42.662,-46.191,-47.132,-33.767,-30.046,-48.238
-83.321,-120.375,-44.029,-52.174,-51.129,-39.617,-30.005,-54.588
-81.685,-120.648,-38.714,-48.997,-48.377,-34.204,-23.753,-39.53
-74.311,-113.289,-30.492,-32.761,-41.118,-17.501,-17.366,-13.938
-68.988,-105.181,-24.843,-15.572,-33.981,-2.584,-16.537,-3.251
-70.94,-103.905,-25.066,-13.461,-30.677,-3.211,-19.045,-14.495
-73.155,-106.213,-27.458,-20.919,-28.714,-12.99,-16.684,-21.162
-66.37,-102.919,-26.064,-19.084,-24.394,-13.831,-8.907,-4.629
-58.642,-97.809,-24.487,-10.738,-23.898,-7.632,-8.459,8.594
-61.618,-99.699,-27.916,-12.314,-31.476,-9.019,-18.638,-6.587
-68.104,-102.749,-31.355,-22.12,-38.386,-17.343,-27.485,-34.578
-68.528,-99.279,-31.11,-27.912,-39.163,-23.202,-31.45,-51.602
-66.677,-94.486,-30.293,-27.053,-37.951,-24.073,-34.137,-53.622
-65.777,-94.151,-29.315,-23.23,-36.81,-21.529,-32.264,-47.648
-63.058,-95.789,-26.128,-18.489,-34.521,-16.799,-24.066,-34.088
-59.365,-96.474,-21.06,-14.785,-31.231,-12.356,-15.905,-14.038
-57.627,-96.728,-16.977,-15.251,-28.607,-11.953,-13.578,-6.8
-55.014,-94.579,-15.3,-18.085,-26.997,-14.486,-16.383,-20.416
-46.667,-85.906,-12.019,-14.81,-22.68,-11.747,-18.118,-26.364
-35.63,-74.096,-6.457,-4.19,-15.007,-1.683,-14.637,-7.168
-30.701,-69.238,-6.86,0.397,-13.196,2.803,-14.461,5.286
-33.357,-73.798,-15.49,-8.574,-21.8,-6.692,-25.471,-15.898
-37.212,-80.37,-23.47,-20.263,-30.339,-19.377,-35.173,-40.564
-39.931,-84.084,-25.337,-24.966,-31.181,-24.569,-32.073,-37.198
-42.384,-84.592,-22.316,-23.155,-28.564,-23.071,-25.664,-23.017
-40.001,-79.836,-14.13,-13.645,-23.993,-13.771,-22.612,-16.287
-30.628,-70.641,-3.032,2.035,-15.877,3.18,-16.842,-9.443
-25.589,-66.538,0.29,9.147,-11.627,11.998,-11.065,-2.228
-33.633,-73.216,-8.216,-2.683,-17.519,-0.36,-13.587,-4.157
-42.989,-80.385,-15.222,-18.719,-24.755,-17.718,-19.968,-11.433
-40.376,-76.796,-11.426,-18.251,-23.964,-16.256,-22.087,-11.701
-31.85,-66.922,-6.965,-3.589,-20.075,0.191,-19.34,-0.987
-28.058,-60.812,-10.297,8.724,-20.174,11.868,-13.096,14.016
-28.279,-60.032,-14.257,11.502,-22.845,12.905,-7.602,21.756
-28.739,-61.059,-14.318,8.832,-26.172,10.193,-9.565,15.148
-28.475,-61.818,-14.61,5.304,-29.622,6.693,-16.159,2.526
-25.598,-61.279,-14.04,1.762,-29.017,0.907,-18.143,-2.577
-21.427,-59.752,-10.58,-2.954,-24.086,-6.019,-16.453,-4.71
-21.121,-58.856,-9.348,-8.105,-21.971,-10.69,-18.308,-13.665
-24.516,-58.94,-11.653,-9.776,-24.343,-10.82,-21.73,-20.661
-26.702,-59.793,-11.772,-7.433,-24.229,-8.227,-19.977,-17.61
-25.728,-60.809,-7.434,-3.359,-18.106,-4.789,-13.791,-11.73
-23.499,-60.569,-0.896,3.771,-9.904,1.838,-8.645,-6.156
-20.809,-59.837,6.757,12.61,-3.281,10.418,-5.89,3.435
-14.702,-58.867,15.598,17.53,2.898,15.818,-2.753,14.362
-6.7,-55.144,22.043,20.154,8.357,20.078,1.24,17.794
-6.464,-51.634,19.245,24.884,6.575,26.884,1.626,10.96
-18.478,-56.966,5.775,22.598,-6.831,25.911,-6.736,-2.541
-35.488,-70.441,-11.026,3.984,-25.387,6.803,-21.037,-19.183
-46.219,-78.015,-20.849,-13.926,-36.008,-12.755,-28.299,-27.358
-44.505,-71.556,-18.6,-9.558,-32.57,-8.799,-21.254,-12.366
-35.069,-60.589,-10.143,4.705,-24.138,6.508,-11.314,11.432
-26.649,-54.374,-4.879,6.084,-21.764,8.068,-10.715,11.18
-21.386,-49.154,-4.71,0.7,-23.293,1.868,-13.904,-9.987
-18.912,-43.54,-7.939,0.453,-23.619,1.68,-13.633,-20.758
-20.784,-44.235,-14.384,-3.151,-25.348,-1.498,-14.589,-14.218
-24.255,-49.867,-21.092,-13.508,-29.277,-12.234,-19.043,-6.032
-23.374,-51.397,-22.85,-17.943,-30.573,-16.464,-23.12,-8.48
-19.152,-48.724,-20.094,-12.005,-28.525,-8.76,-26.289,-20.631
-16.784,-47.206,-17.243,-2.904,-26.634,2.381,-26.588,-25.168
-13.852,-43.114,-11.998,5.304,-23.29,11.276,-19.521,-12.78
-5.717,-31.834,-1.488,12.067,-15.553,16.668,-9.012,1.649
1.542,-23.491,5.196,14.532,-8.882,17.539,-3.933,7.036
-1.104,-31.804,-0.081,9.114,-10.487,13.449,-6.947,4.566
-11.311,-53.298,-11.583,-2.113,-18.863,5.677,-16.618,-8.644
-19.981,-71.458,-20.165,-8.973,-26.396,0.561,-28.373,-25.034
-22.372,-76.757,-20.817,-3.88,-26.968,5.248,-32.254,-24.227
-18.367,-72.387,-11.862,8.924,-19.978,17.68,-23.167,-5.061
-10.644,-65.493,0.607,18.758,-10.976,26.176,-9.425,12.38
-8.181,-64.169,2.374,13.696,-10.612,16.948,-5.688,8.475
-18.12,-72.844,-11.599,-8.358,-23.287,-8.926,-16.127,-16.697
-28.621,-80.72,-22.474,-26.318,-34.396,-26.254,-26.519,-35.309
-21.647,-72.326,-11.009,-18.099,-27.541,-14.715,-22.897,-27.871
-5.162,-53.416,9.106,4.156,-11.041,9.548,-10.551,-9.695
-4.666,-46.342,9.135,8.101,-6.847,13.645,-5.071,-0.512
-23.501,-58.212,-11.171,-12.167,-19.443,-7.457,-12.583,-1.965
-40.771,-72.787,-27.839,-31.428,-33.495,-27.888,-24.57,-6.884
-45.054,-75.566,-30.443,-33.08,-38.046,-29.324,-31.498,-10.801
-40.928,-66.782,-25.72,-22.995,-34.003,-17.518,-31.208,-11.755
-32.716,-53.656,-18.144,-11.096,-25.092,-5.188,-24.802,-6.332
-27.404,-47.918,-14.219,-7.243,-20.738,-3.212,-20.406,-3.67
-32.125,-55.223,-22.313,-17.188,-28.712,-15.147,-26.542,-18.734
-36.881,-60.851,-32.187,-27.02,-36.707,-25.564,-33.496,-35.877
-28.099,-49.627,-27.041,-18.16,-30.403,-15.786,-28.351,-29.358
-12.733,-29.998,-12.644,3.905,-18.817,8.888,-18.609,-10.149
-5.987,-19.246,-5.709,16.805,-16.167,24.134,-16.332,-4.893
-9.923,-21.005,-8.624,9.094,-20.175,15.027,-18.761,-15.042
-15.667,-25.924,-11.479,-6.449,-21.265,-4.521,-17.2,-20.362
-16.145,-24.884,-6.545,-8.626,-15.994,-8.788,-9.77,-8.463
-9.233,-16.156,7.375,6.083,-6.154,6.897,-0.314,10.584
2.715,-4.582,24.002,22.11,4.151,25.389,6.545,20.284
8.611,-0.382,27.348,23.869,6.939,29.547,6.5,15.899
1.205,-7.717,11.091,11.94,-0.628,17.862,-0.028,5.888
-6.933,-14.672,-5.162,0.138,-8.23,3.537,-6.661,0.266
-4.326,-11.891,-6.143,-4.332,-8.9,-3.584,-10.413,-2.439
2.965,-4.553,0.015,-3.065,-6.671,-2.571,-11.208,-4.394
12.12,5.116,8.713,6.972,-0.58,9.082,-4.985,1.84
24.102,17.175,20.507,23.21,9.81,26.195,5.867,13.988
27.673,20.758,21.968,28.537,11.573,30.188,7.98,18.03
18.678,11.592,7.015,17.837,-0.093,18.411,-2.456,12.473
11.107,4.052,-6.814,9.02,-10.097,11.791,-12.899,7.103
10.069,7.188,-8.641,11.567,-10.868,17.727,-15.735,5.046
9.204,14.29,-6.62,17.709,-11.155,24.97,-15.366,3.391
10.349,19.453,-4.661,24.925,-14.057,31.86,-16.077,-1.066
14.498,22.447,0.229,34.097,-14.463,41.471,-18.052,-7.268
17.945,28.308,7.793,45.797,-8.893,54.828,-14.814,-2
23.271,42.755,15.681,58.456,2.293,67.862,-2.159,20.415
24.146,51.444,13.502,46.692,6.305,51.036,2.21,33.26
7.798,36.043,-7.872,-2.669,-9.855,-5.456,-16.349,13.654
-12.007,15.187,-31.294,-42.619,-29.971,-46.162,-35.87,-15.045
-12.008,17.196,-34.07,-33.271,-30.568,-32.329,-34.508,-20.169
-0.542,31.733,-24.415,-1.974,-20.294,2.859,-25.656,-7.72
2.404,36.708,-20.338,16.176,-17.694,25.509,-24.099,0.04
-1.938,35.169,-20.957,21.699,-20.026,35.07,-22.713,1.198
-6.959,35.043,-23.36,19.236,-20.972,28.378,-17.139,3.62
-14.959,32.065,-30.886,6.804,-24.671,4.978,-15.434,4.052
-23.375,25.933,-37.231,-7.32,-30.001,-14.699,-19.711,-0.267
-22.178,27.099,-30.312,-8.699,-26.705,-11.599,-20.191,1.281
-9.339,40.872,-11.147,5.609,-12.824,10.441,-10.399,12.345
1.065,55.266,1.882,18.064,-2.821,26.477,-0.967,14.659
-5.559,54.572,-5.758,10.569,-9.435,16.994,-6.739,-3.654
-22.549,42.075,-23.311,-6.528,-24.659,-3.348,-20.96,-21.973
-32.713,33.687,-32.635,-11.194,-33.459,-8.489,-24.575,-17.163
-34.835,32.701,-34.166,-6.473,-35.199,-2.847,-16.935,-1.44
-34.03,34.088,-31.038,-5.599,-32.728,-2.092,-7.691,6.15
-24.653,41.32,-16.704,-1.188,-21.405,1.702,5.569,16.097
-11.395,50.307,-0.53,9.987,-8.089,11.352,18.714,29.539
-12.686,44.511,-3.78,8.137,-10.079,6.566,13.011,17.902
-25.568,27.222,-19.418,-8.495,-22.895,-11.21,-8.481,-14.329
-31.804,18.085,-23.141,-16.931,-26.215,-17.624,-20.775,-26.062
-33.865,16.208,-17.611,-15.223,-20.496,-13.624,-19.125,-15.418
-41.082,10.763,-18.679,-14.508,-18.763,-11.124,-16.631,-10.415
-42.642,10.924,-18.916,-1.252,-16.365,5.22,-13.179,-5.578
-31.049,24.393,-9.36,31.242,-7.06,40.647,-6.752,6.983
-24.595,31.864,-8.655,43.492,-6.963,51.156,-11.671,-1.452
-36.08,18.783,-29.364,7.862,-26.57,9.799,-30.566,-34.329
-46.495,5.436,-46.931,-31.515,-44.359,-32.903,-39.42,-49.084
-35.993,14.36,-37.883,-27.616,-39.12,-28.944,-25.953,-30.638
-16.845,32.726,-19.245,-6.744,-24.47,-8.819,-9.823,-7.448
-10.586,36.592,-16.674,-7.087,-22.862,-8.986,-9.685,-0.657
-12.307,30.795,-19.767,-11.914,-26.387,-9.98,-17.209,-5.833
-7.727,31.811,-9.139,-3.201,-17.067,-0.295,-16.396,-12.123
-4.69,33.647,2.468,-2.206,-3.403,-5.561,-8.554,-15.355
-14.548,24.364,-1.818,-16.891,-1.962,-25.076,-5.539,-14.071
-25.923,13.259,-10.205,-20.707,-7.695,-24.723,-9.91,-8.048
-22.639,15.846,-5.776,-2.374,-6.928,0.396,-12.1,-2.122
-9.559,27.712,5.542,13.322,-1.018,15.859,-8.702,-2.702
-2.633,33.159,6.234,7.865,-1.159,4.981,-8.419,-8.621
-4.121,30.962,-5.657,-0.537,-8.816,-5.465,-12.097,-10.565
-5.629,29.686,-15.911,7.926,-16.163,6.429,-11.387,-4.203
-5.736,28.239,-17.026,19.29,-20.199,22.101,-8.103,2.637
-9.004,21.793,-15.233,12.826,-23.321,16.065,-9.851,1.163
-15.675,13.86,-15.645,-5.158,-24.298,-6.037,-12.975,-5.777
-20.977,9.645,-14.609,-15.705,-19.162,-20.459,-9.999,-9.962
-23.052,6.92,-9.975,-16.786,-10.553,-23.277,-5.698,-10.834
-25.042,1.289,-6.378,-18.771,-5.902,-28.888,-7.554,-9.41
-28.838,-6.146,-6.98,-20.837,-7.322,-33.75,-11.607,-1.438
-32.359,-11.432,-9.243,-13.618,-10.411,-22.064,-10.333,11.181
-31.59,-12.459,-8.123,-0.181,-9.263,-2.582,-2.689,18.433
-28.79,-12.989,-5.289,1.88,-5.41,-1.559,4.612,15.887
-33.081,-19.845,-10.501,-12.989,-8.837,-19.769,2.423,8.033
-41.127,-28.609,-21.839,-23.857,-19.805,-27.312,-8.281,0.356
-37.486,-26.313,-23.244,-16.762,-25.084,-13.138,-15.642,-5.738
-22.045,-12.159,-11.306,-8.323,-20.056,-4.051,-14.222,-13.078
-11.87,1.494,-3.869,-15.129,-17.065,-17.788,-13.704,-26.515
-15.875,6.103,-15.729,-27.24,-26.406,-34.929,-21.925,-43.579
-25.781,4.349,-35.934,-28.23,-39.991,-33.917,-30.527,-51.104
-33.083,1.459,-44.423,-23.898,-45.832,-25.76,-33.374,-46.462
-38.675,-1.171,-41.463,-25.971,-45.925,-26.961,-37.658,-40.743
-39.363,1.754,-36.736,-23.424,-43.046,-24.997,-40.963,-33.739
-28.602,14.56,-29.755,-9.431,-32.705,-11.786,-31.197,-22.494
-15.355,24.486,-22.021,-6.264,-20.751,-10.501,-15.642,-18.857
-14.959,15.995,-22.569,-24.663,-20.707,-30.357,-13.195,-26.72
-23.182,-2.231,-28.492,-40.046,-28.066,-44.677,-20.744,-29.366
-23.257,-8.459,-25.111,-33.184,-25.165,-35.842,-20.409,-17.816
-10.623,2.148,-8.621,-14.412,-9.057,-16.247,-10.09,-5.074
4.203,15.497,8.722,0.784,6.509,-0.396,-1.903,-3.335
6.054,16.569,10.338,4.934,6.851,4.882,-5.318,-12.384
-9.097,4.525,-6.886,-5.346,-9.629,-5.493,-20.069,-26.156
-24.976,-7.16,-25.103,-20.714,-26.901,-21.929,-33.674,-33.023
-27.196,-9.146,-29.655,-23.68,-31.089,-23.11,-34.302,-26.704
-20.617,-3.726,-24.337,-13.739,-25.64,-8.47,-26.338,-18.624
-11.403,7.662,-14.639,-9.071,-16.653,-3.381,-17.92,-18.55
1.132,24.478,-3.59,-14.812,-4.999,-15.001,-6.964,-15.265
12.47,39.245,3.764,-12.016,5.461,-16.18,6.648,4.33
18.207,47.328,9.366,7.941,11.373,5.195,14.554,28.463
22.171,53.259,15.384,23.882,12.389,22.318,10.301,26.53
24.889,57.631,12.302,15.361,5.815,12.334,-3.793,-8.147
21.641,55.375,-1.816,-8.404,-5.082,-11.834,-15.493,-38.121
15.137,49.285,-8.757,-23.287,-7.993,-25.008,-12.819,-34.495
8.658,44.385,-2.458,-22.434,-3.325,-23.221,-2.058,-16.303
-4.113,35.91,-4.507,-18.902,-8.076,-20.08,-1.722,-8.966
-20.306,23.516,-20.916,-19.038,-23.546,-20.147,-13.814,-8.887
-20.93,20.071,-25.228,-13.669,-28.517,-12.418,-21.381,-9.659
-1.86,30.278,-7.826,2.32,-16.119,9.462,-16.555,-16.513
14.135,40.299,4.547,18.801,-6.036,31.825,-9.726,-24.559
13.281,40.607,-3.604,23.222,-9.285,34.671,-9.009,-22.254
10.154,39.171,-13.109,14.694,-11.505,16.313,-8.155,-10.257
12.772,38.764,-9.826,-1.249,-5.525,-8.239,-3.557,0.739
10.035,30.748,-4.083,-17.773,-4.042,-25.099,-3.839,0.843
4.755,20.735,-2.867,-26.762,-8.612,-31.472,-9.621,-7.116
9.802,23.844,-2.353,-28.362,-6.929,-34.294,-9.408,-9.472
21.59,39.677,0.952,-22.597,1.968,-28.864,-1.813,-1.882
31.837,57.895,9.967,0.209,11.249,0.247,4.796,8.076
39.916,70.925,19.841,29.108,19.454,34.028,9.823,17.242
42.232,72.248,19.334,30.38,23.845,29.733,13.399,21.373
36.027,62.075,11.162,4.076,19.983,-4.896,8.48,7.859
29.736,52.434,9.716,-9.272,13.024,-17.809,-2.118,-16.045
30.564,52.395,16.08,5.964,11.719,3.729,-6.143,-24.713
34.944,58.553,17.876,21.655,14.157,22.114,-3.987,-20.932
37.821,63.99,11.717,18.798,12.359,16.962,-5.846,-24.05
35.424,63.297,4.214,11.012,4.289,7.765,-13.138,-27.854
24.33,53.659,-4.747,11.235,-6.518,10.688,-19.129,-22.835
9.239,39.751,-17.658,11.635,-16.207,13.943,-20.925,-18.941
1.722,31.781,-25.126,3.974,-20.37,5.62,-21.047,-20.407
7.952,36.59,-16.333,-3.969,-14.435,-4.029,-19.067,-17.886
20.735,48.068,0.464,-5.235,-1.767,-6.635,-12.439,-8.291
25.215,49.86,5.947,-3.536,4.394,-7.185,-6.705,0.466
20.926,40.544,-0.131,0.946,-0.276,-3.921,-8.361,2.075
21.636,36.815,-2.681,6.841,-5.165,3.225,-12.457,-0.63
27.005,42.217,-2.388,8.442,-5.503,7.057,-12.031,0.124
28.191,47.18,-5.395,13.756,-2.968,14.644,-6.173,13.163
30.01,50.938,-2.804,26.844,4.532,28.95,2.206,32.331
36.647,54.102,6.26,26.723,11.925,28.481,5.561,25.153
39.37,51.093,8.11,7.731,10.575,9.384,0.237,-15.884
34.53,42.468,3.025,-3.335,6.486,-1.012,-6.276,-45.794
32.988,37.593,4.617,2.933,10.584,4.019,-6.648,-38.78
41.457,41.39,14.93,12.116,19.828,10.219,-1.204,-17.611
49.693,47.749,23.311,23.902,24.821,22.575,6.563,-1.608
46.001,46.849,22.342,33.83,23.425,35.578,11.692,7.335
32.563,34.211,12.842,19.226,17.134,19.139,9.902,6.944
24.335,20.433,8.461,-1.842,12.055,-2.315,5.574,2.754
31.864,22.37,23.996,19.814,17.53,30.797,7.594,8.313
38.84,30.962,35.952,58.685,24.141,77.311,11.584,18.42
24.466,22.357,12.131,40.483,14.898,44.689,7.516,14.693
3.482,3.465,-19.305,-19.649,1.258,-33.872,1.543,1.256
0.006,-1.671,-18.242,-42.569,1.393,-54.897,0.934,-6.605
7.929,6.022,-2.403,-21.026,6.516,-22.446,-2.397,-11.886
14.555,13.435,2.845,-5.399,6.939,-7.055,-9.059,-16.874
23.436,21.195,8.938,-1.818,11.137,-7.877,-6.489,-10.853
35.243,32.45,23.258,20.65,21.465,21.205,4.507,3.703
44.132,43.9,32.376,61.489,30.146,73.293,12.439,10.848
48.479,49.703,32.13,74.393,34.531,82.546,15.847,8.847
44.151,41.214,28.089,28.705,32.85,19.78,16.136,8.507
30.805,21.713,20.599,-25.945,24.527,-41.311,10.989,11.158
21.707,10.129,11.541,-27.718,15.917,-33.475,3.557,8.788
21.766,10.234,3.655,-3.545,8.875,-1.908,-1.497,-1.223
20.478,8.444,-3.434,-3.183,0.91,-1.953,-3.436,-9.667
19.356,6.349,-1.916,-6.19,-1.386,-3.245,0.647,-0.656
30.587,16.373,15.824,24.076,7.584,33.551,11.381,29.768
49.28,32.979,36.494,64.102,19.088,76.95,20.51,61.289
56.769,37.225,38.571,62.75,20.908,70.657,20.519,64.869
46.391,23.187,19.957,20.784,10.518,22.955,12.037,29.706
34.395,9.153,1.244,-3.715,-0.514,0.387,5.048,-13.896
38.027,13.875,-0.12,21.297,1.121,30.117,10.622,-22.701
44.078,22.353,6.491,48.479,6.288,57.727,18.321,-10.521
31.356,9.434,3.854,21.862,-0.549,26.928,11.538,-17.336
13.547,-12.489,-3.415,-33.391,-8.685,-37.308,2.789,-27.727
13.46,-17.503,-3,-56.532,-4.699,-69.435,6.67,-13.839
24.31,-8.596,2.882,-42.484,2.196,-54.842,11.019,2.209
32.771,0.626,10.141,-23.507,6.744,-28.842,10.028,-1.953
39.845,7.78,21.123,-11.203,16.138,-13.524,15.829,-6.582
43.459,10.098,29.735,-0.295,24.894,-2.588,25.723,4.682
38.399,4.267,28.25,8.424,22.167,8.704,23.541,13.449
28.853,-5.161,21.87,9.22,12.413,11.042,9.565,1.87
17.368,-16.208,12.692,-2.274,1.562,-4.955,-1.897,-18.029
3.643,-29.985,-2.507,-21.767,-11.511,-29.481,-4.744,-23.455
-1.922,-37.233,-12.187,-29.861,-20.918,-34.175,-3.368,-11.929
6.676,-30.726,-4.091,-14.646,-20.364,-9.901,-3.571,-2.268
13.727,-24.516,8.419,1.69,-20.062,10.686,-9.509,-7.651
9.721,-30.172,9.659,-0.644,-28.919,7.095,-15.922,-16.209
13.552,-30.162,13.889,1.301,-30.77,9.372,-8.029,-8.111
31.231,-14.687,29.389,19.261,-14.483,27.628,10.818,10.34
36.835,-7.671,31.173,25.489,-1.274,29.207,16.704,14.51
23.501,-20.441,14.057,13.807,-5.683,12.24,5.797,3.122
8.922,-37.218,1.677,-5.299,-16.396,-8.991,-2.971,-4.219
-3.883,-50.929,-5.315,-36.481,-27.925,-41.217,-5.595,-6.437
-16.513,-61.55,-17.489,-63.62,-41.421,-67.904,-13.199,-17.667
-20.963,-63.048,-24.663,-60.094,-48.304,-61.172,-24.005,-33.813
-15.228,-55.368,-16.162,-37.6,-42.448,-35.114,-25.065,-36.43
-6.028,-46.822,-1.502,-24.003,-30.961,-20.373,-15.137,-22.091
-2.48,-44.792,0.338,-25.043,-26.698,-23.711,-8.063,-8.016
-9.002,-50.112,-14.594,-33.636,-34.192,-35.526,-11.754,-10.528
-18.459,-58.723,-29.211,-47.246,-43.56,-49.354,-18.362,-26.304
-22.314,-67.831,-30.447,-62.754,-44.168,-64.133,-20.883,-36.477
-21.388,-74.452,-24.042,-65.407,-37.999,-67.484,-22.442,-33.47
-20.431,-76.579,-19.833,-47.492,-33.966,-47.632,-27.53,-35.403
-18.752,-76.188,-15.363,-26.694,-32.892,-21.717,-31.14,-45.613
-9.537,-69.96,-1.13,-16.065,-23.992,-8.642,-20.533,-32.327
5.443,-54.874,15.675,-11.313,-5.846,-7.106,0.959,4.052
11.11,-42.748,16.016,-14.317,3.745,-15.331,8.923,12.904
4.868,-41.255,6.402,-17.188,-1.14,-16.924,-3.742,-18.517
