EEG 1,EEG 2,EEG 3,EEG 4,EEG 5,EEG 6,EEG 7,EEG 8
-1.252,-19.563,0.861,6.811,2.355,-0.808,2.268,-3.354
0.463,-16.096,3.487,12.073,6.11,4.176,5.457,2.66
-0.599,-16.507,4.896,15.26,9.223,7.839,9.613,7.808
-2.556,-19.294,4.09,14.595,9.406,7.922,10.681,6.773
-5.084,-21.598,0.859,13.907,5.463,7.639,8.162,3.109
-7.951,-22.79,-3.418,14.099,-1.005,7.749,4.413,0.369
-9.528,-24.058,-6.99,9.578,-7.834,2.957,1.356,-1.19
-8.386,-24.775,-9.296,0.746,-13.553,-5.999,0.074,-0.956
-6.926,-24.9,-11.716,-5.297,-18.069,-11.884,-1.068,-0.746
-7.309,-25.533,-13.871,-6.464,-20.733,-12.718,-3.647,-2.618
-6.525,-24.907,-12.053,-4.276,-18.623,-10.245,-4.707,-2.395
-2.888,-21.549,-5.631,1.597,-11.308,-4.27,-1.885,5.129
-0.685,-18.639,-0.561,8.542,-4.673,2.526,1.954,14.597
-2.997,-19.266,-2.743,8.963,-5.356,2.734,2.345,11.544
-5.909,-21.599,-9.785,0.266,-12.216,-5.761,-1.775,-6.443
-4.079,-22.079,-12.816,-8.404,-16.593,-13.697,-5.064,-20.015
1.51,-20.063,-7.785,-8.162,-13.155,-12.716,-1.838,-16.46
6.707,-16.735,0.437,-2.79,-5.863,-7.218,4.55,-8.071
11.475,-12.446,6.844,-0.018,0.071,-5.015,7.649,-5.885
18.153,-7.235,11.691,0.936,4.957,-4.797,8.485,-2.686
26.487,-1.448,16.268,4.768,10.306,-1.268,11.284,6.716
34.099,4.285,19.914,10.279,14.643,4.501,15.155,13.751
38.966,8.855,22.378,13.065,16.648,7.629,16.817,13.418
40.928,12.084,25.813,13.776,18.82,8.219,17.638,13.962
41.042,14.471,30.812,15.862,23.489,10.005,21.182,21.204
38.824,14.488,32.37,18.138,26.684,12.417,24.969,27.84
33.298,10.68,27.201,17.068,23.453,11.61,23.445,25.164
26.861,5.809,20.992,13.425,17.042,7.803,18.084,15.745
24.243,5.258,20.31,11.793,14.431,5.893,15.535,10.343
27.095,11.696,23.707,14.968,16.365,9.172,17.639,14.655
31.414,21.069,25.878,20.605,18.234,15.071,19.973,21.481
31.847,25.765,24.482,23.785,17.101,18.462,19.047,21.862
27.375,23.537,19.918,21.838,12.77,17.062,15.632,17.734
21.054,18.78,12.97,15.686,5.774,11.554,11.499,13.03
15.845,14.795,5.676,7.931,-1.529,3.719,8.384,6.488
13.463,11.765,2.456,1.74,-4.793,-2.986,8.942,1.45
15.622,10.999,6.509,0.154,-1.592,-4.85,13.285,3.109
21.376,13.464,13.473,2.872,4.224,-2.54,16.639,6.407
25.175,16.22,14.345,5.076,5.509,-1.135,15.211,5.062
22.532,15.063,7.736,2.182,0.86,-4.495,11.017,1.626
15.462,9.854,0.802,-4.259,-4.7,-10.692,6.981,-1.904
10.225,5.975,-2.291,-7.481,-7.473,-13.487,2.982,-6.722
10.442,7.774,-2.927,-4.442,-7.605,-10.249,-0.775,-10.352
13.284,12.276,-1.891,1.044,-5.836,-4.83,-2.284,-8.953
14.66,15.181,1.569,5.983,-1.868,-0.183,-0.611,-1.865
15.577,18.276,6.926,11.14,3.931,4.636,2.213,7.266
17.436,23.304,11.182,15.375,8.541,8.622,2.625,11.712
15.778,25.091,10.507,14.763,8.21,7.909,-0.725,7.998
8.039,20.306,6.099,9.988,4.285,3.322,-4.589,1.14
0.691,15.355,4.821,8.052,3.183,1.671,-3.99,0.562
-0.534,16.676,8.402,12.834,6.859,6.461,1.828,10.035
1.712,21.898,11.071,19.239,10.261,12.972,8.321,22.901
2.934,25.015,9.777,19.226,9.134,13.642,9.757,27.203
2.585,23.912,6.016,11.83,3.411,7.088,4.534,19.347
3.572,22.283,2.959,4.709,-2.672,0.429,-1.876,10.51
7.125,23.817,3.747,2.631,-3.976,-1.667,-4.292,7.885
8.641,25.855,6.272,1.187,-1.992,-3.41,-5.041,3.019
5.956,25.661,6.901,-1.31,-0.713,-5.965,-6.127,-6.493
4.974,26.76,7.497,1.031,1.449,-3.178,-4.428,-8.555
8.524,31.152,9.769,7.337,5.855,3.842,-0.459,-1.178
11.707,34.928,11.365,8.076,8.557,5.078,-0.371,0.722
11.768,35.437,11.577,1.764,7.483,-1.413,-5.51,-8.568
11.897,35.469,12.82,-2.144,6.767,-5.665,-8.297,-14.528
14.018,38.302,14.818,1.863,8.869,-1.244,-3.921,-6.547
13.941,41.082,13.635,8.625,9.45,6.431,1.387,5.655
8.556,39.533,8.931,11.55,6.026,10.166,1.24,9.608
3.635,37.521,5.717,10.855,3.242,10.18,-0.989,7.324
5.899,41.109,7.352,10.495,5.061,10.121,0.678,7.177
12.36,47.686,12.933,12.821,10.394,12.159,6.985,13.058
16.397,51.349,20.253,17.654,16.902,16.896,14.565,24.002
17.282,51.715,25.414,21.514,21.542,21.198,18.31,31.64
16.562,50.386,23.506,19.273,20.463,19.328,15.62,26.378
14.292,48.253,16.592,12.903,15.529,12.989,11.372,16.733
12.108,47.96,13.839,10.967,14.425,10.808,11.465,17.516
10.627,49.168,16.55,12.319,16.953,11.814,10.727,17.412
7.965,48.112,16.035,7.685,14.378,7.49,2.388,0.815
6.676,47.551,11.039,1.321,7.597,2.251,-3.275,-12.216
9.547,51.655,7.851,3.602,4.516,5.434,3.18,-0.768
10.295,53.805,4.912,6.091,2.082,8.221,7.284,10.348
4.12,48.089,-2.028,-2.979,-5.176,-0.716,-2.258,-5.647
-3.069,40.908,-8.299,-13.635,-11.458,-11.364,-11.67,-26.558
-7.17,37.34,-9.436,-13.683,-11.853,-11.44,-10.737,-23.813
-10.932,34.432,-9.431,-8.872,-10.688,-6.426,-8.168,-9.358
-11.762,33.792,-9.44,-6.01,-9.147,-3.329,-8.486,-4.433
-3.048,40.909,-2.458,-0.971,-1.124,1.579,-3.426,-2.792
10.421,51.359,11.209,8.788,12.551,10.859,9.292,10.728
16.401,55.426,19.88,18.271,21.271,20.148,19.224,30.472
14.75,54.206,20.651,23.994,22.218,26.264,20.634,39.668
14.697,55.23,22.275,25.489,23.024,28.291,20.26,35.443
16.738,57.845,25.726,21.448,25.362,25.006,23.15,28.534
15.396,57.195,25.695,14.891,25.237,19.695,25.823,25.984
11.556,54.48,22.581,11.115,22.405,16.6,22.964,20.12
8.419,52.962,16.521,8.173,16.84,13.269,13.24,3.288
5.61,52.484,7.019,3.578,9.17,8.987,2.608,-10.346
3.365,52.808,0.009,2.137,4.394,9.175,-1.731,-6.995
3.262,55.092,-0.678,6.577,4.438,14.278,-0.717,0.58
4.865,59,1.658,12.242,6.501,18.888,2.013,2.606
6.896,62.528,5.496,15.517,10.446,21.37,7.183,12.45
8.953,64.735,11.083,17.113,16.253,22.979,13.753,29.908
9.704,66.216,13.586,16.129,18.276,21.749,15.43,29.017
6.374,66.478,8.164,10.824,12.367,16.316,9.753,7.134
-1.273,63.978,-0.466,4.251,3.948,10.481,3.051,-4.754
-8.035,60.342,-2.507,1.476,1.554,8.295,2.308,5.094
-8.587,60.038,3.296,3.529,6.254,9.947,7.51,18.083
-5.012,63.165,7.823,5.77,10.999,11.972,11.594,19.758
-1.807,66.233,6.582,4.438,10.973,11.276,9.894,13.713
2.757,70.237,7.516,5.019,11.909,12.085,10.903,16.912
8.73,75.859,15.169,12.014,19.194,18.783,23.049,37.358
8.913,77.561,20.04,17.089,24.939,24.48,34.184,55.243
3.46,74.879,14.891,12.984,20.246,21.596,26.808,46.389
2.081,74.91,5.972,3.869,9.624,12.504,6.021,12.129
4.615,76.994,-0.767,-5.737,0.713,1.659,-9.821,-22.691
1.507,74.346,-8.049,-15.299,-7.106,-8.679,-17.19,-38.562
-5.783,69.834,-16.235,-22,-15.012,-14.983,-24.153,-42.918
-6.586,71.049,-18.843,-21.859,-17.806,-14.357,-27.76,-44.292
-0.128,76.282,-14.307,-16.111,-13.176,-8.709,-20.387,-32.314
5.112,80.01,-10.046,-10.741,-8.193,-3.492,-10.84,-11.918
7.237,83.617,-9.219,-8.455,-7.512,-1.129,-11.516,-7.695
11.226,90.848,-6.316,-5.62,-6.124,1.814,-15.571,-17.513
16.309,99.056,-0.583,-0.84,-1.649,6.573,-12.117,-16.795
16.563,101.867,1.803,0.469,0.567,7.452,-6.667,-4.382
12.719,98.615,0.49,-3.749,-0.317,2.531,-7.183,1.335
11.356,95.195,0.413,-7.152,1.299,-1.067,-9.52,-3.962
13.466,95.264,2.113,-5.144,6.087,1.306,-7.197,-7.022
12.881,95.675,2.773,-0.325,9.011,6.258,-1.183,5.764
5.456,91.575,-0.301,2.621,6.469,9.291,1.514,30.377
-3.295,84.724,-6.849,1.103,-0.597,8.833,-5.796,36.83
-3.317,82.486,-9.5,-2.384,-5.383,7.234,-17.938,5.508
4.581,85.809,-3.982,-1.096,-2.566,9.732,-19.766,-28.541
8.085,87.131,0.112,5.208,1.476,15.306,-10.922,-24.103
1.977,83.32,-4.948,7.981,-1.561,16.14,-8.06,-2.594
-5.576,79.964,-11.937,4.122,-7.746,10.851,-14.986,-2.954
-8.318,80.231,-14.998,-2.113,-10.729,3.456,-20.182,-17.045
-10.091,79.836,-18.671,-9.066,-13.287,-5.143,-20.582,-19.076
-14.01,76.685,-23.586,-13.921,-17.184,-10.797,-20.289,-8.455
-16.287,75.339,-23.93,-10.64,-16.927,-6.269,-17.147,2.319
-15.258,77.535,-20.311,-2.647,-11.99,3.923,-10.13,6.997
-15.284,78.205,-19.593,-3.399,-10.731,3.885,-7.986,3.281
-18.799,74.429,-22.901,-16.431,-16.874,-10.799,-16.589,-7.322
-22.596,70.236,-24.462,-26.585,-23.467,-22.623,-27.098,-15.939
-22.401,70.821,-21.689,-22.099,-23.408,-17.662,-27.669,-14.522
-18.107,75.849,-18.351,-13.263,-18.355,-7.477,-19.78,-6.548
-14.466,79.661,-18.262,-14.234,-15.326,-8.507,-14.59,-2.778
-13.963,79.609,-19.456,-21.407,-16.709,-17.059,-16.872,-5.955
-12.265,80.415,-17.017,-23.574,-17.012,-20.343,-19.999,-7.932
-7.155,84.792,-12.773,-19.479,-12.88,-16.54,-18.157,-4.287
-3.681,87.467,-12.189,-14.83,-8.486,-11.63,-14.994,-0.249
-4.056,84.929,-12.742,-10.857,-6.639,-6.838,-15.247,0.395
-3.708,81.041,-9.618,-5.555,-4.961,-0.474,-16.512,0.251
-0.571,78.757,-4.956,-1.901,-1.891,3.384,-14.759,0.993
1.979,76.29,-2.259,-4.458,1.236,-0.361,-10.777,1.951
1.518,72.227,-2.205,-10.406,2.494,-7.599,-7.717,4.774
-1.214,66.598,-5.546,-13.006,0.391,-10.181,-8.371,8.537
-6.447,58.316,-13.877,-12.826,-6.417,-9.398,-15.468,4.243
-15.086,47.108,-26.224,-16.879,-17.403,-13.526,-27.35,-11.789
-21.926,37.947,-33.993,-23.472,-25.322,-20.508,-33.796,-24.191
-20.29,36.597,-28.915,-21.859,-22.278,-18.864,-27.969,-16.621
-14.713,39.801,-19.066,-12.638,-14.885,-8.914,-20.371,0.287
-12.509,41.106,-17.222,-6.611,-14.353,-0.931,-21.891,4.09
-11.09,40.197,-19.849,-7.516,-17.199,0.467,-26.306,-7.823
-8.032,37.006,-18.635,-15.57,-17.026,-8.078,-27.423,-26.682
-5.577,31.932,-13.425,-27.057,-14.727,-23.295,-25.886,-39.178
-3.793,29.322,-6.95,-29.246,-10.952,-27.829,-20.36,-27.814
-3.979,28.396,-4.793,-18.962,-8.699,-16.048,-14.356,-0.012
-8.772,23.756,-11.951,-10.336,-12.419,-5.768,-14.256,15.079
-15.499,16.122,-23.291,-13.51,-19.569,-9.638,-20.573,2.926
-18.759,10.493,-27.342,-20.422,-23.036,-16.92,-27.889,-23.181
-19.852,5.805,-23.141,-20.623,-21.337,-16.101,-28.168,-36.44
-25.739,-3.761,-22.681,-19.573,-21.801,-15.518,-23.146,-30.311
-36.954,-17.888,-31.294,-25.665,-29.621,-23.641,-24.24,-24.141
-47.914,-30.985,-42.768,-36.75,-41.745,-35.055,-34.543,-29.247
-53.427,-37.45,-49.377,-45.268,-49.904,-42.199,-42.044,-32.15
-48.586,-33.448,-44.912,-43.51,-45.213,-40.61,-34.826,-19.549
-36.516,-25.292,-31.858,-34.998,-30.92,-34.285,-21.493,-7.978
-28.911,-24.635,-22.262,-32.816,-21.553,-33.712,-19.072,-19.024
-29.959,-31.176,-23.144,-37.014,-23.304,-38.103,-26.059,-39.942
-35.109,-38.032,-30.833,-38.591,-30.803,-39.834,-32.008,-48.504
-40.222,-43.548,-36.977,-38.289,-36.583,-39.994,-34.632,-47
-40.485,-44.947,-34.131,-36.913,-33.621,-38.573,-31.222,-40.324
-33.799,-39.34,-22.367,-28.609,-20.848,-29.797,-17.419,-18.137
-26.241,-33.326,-10.696,-16.616,-8.177,-17.665,-1.201,14.347
-23.035,-34.31,-5.528,-12.167,-5.094,-13.609,3.636,27.883
-23.238,-40.292,-6.754,-18.52,-11.269,-20.767,-4.888,9.645
-26.611,-47.542,-17.213,-31.35,-24.132,-34.681,-22.136,-27.533
-30.14,-52.634,-32.265,-41.808,-36.248,-45.948,-38.027,-59.203
-26.83,-50.306,-33.793,-39.801,-33.845,-43.565,-35.758,-57.881
-18.489,-42.322,-19.445,-27.596,-18.611,-30.075,-17.893,-29.048
-9.797,-32.9,-4.315,-14.266,-4.367,-16.274,-3.156,-4.952
2.563,-19.458,8.331,0.014,7.61,-2.479,6.95,8.97
16.142,-4.912,21.273,15.423,19.522,13.393,18.415,22.675
21.263,1.228,28.216,25.526,24.685,25.024,24.551,28.638
18.661,-0.711,25.35,27.356,21.068,27.36,20.877,22.731
15.447,-4.36,18.451,23.614,15.045,22.752,15.374,19.491
12.012,-8.897,14.402,16.947,11.147,16.007,15.4,27.307
7.197,-14.66,14.054,9.41,9.597,10.125,17.564,31.13
5.436,-18.064,14.764,5.362,10.095,7.525,15.548,19.817
10.828,-15.601,16.776,8.371,13.222,10.222,11.592,10.187
19.179,-9.223,20.49,13.353,17.254,14.352,11.5,14.057
22.576,-5.624,22.673,12.442,18.209,13.466,14.345,17.931
19.643,-8.992,21.868,7.652,15.883,9.092,15.792,16.195
15.553,-15.685,20.51,6.23,14.382,7.821,15.417,17.572
14.443,-18.8,20.218,9.027,15.732,10.7,14.581,19.664
14.644,-18.128,19.629,10.127,17.142,11.934,12.958,14.402
11.738,-19.563,16.829,5.682,15.375,7.408,10.914,6.21
7.209,-22.693,14.602,1.986,13.355,3.053,10.659,6.295
6.403,-21.368,16.582,6.644,15.308,6.598,11.745,15.478
6.164,-18.761,15.613,11.705,14.545,11.325,8.046,18.886
0.546,-22.664,4.651,5.471,4.596,6.371,-2.082,6.777
-4.154,-28.281,-4.947,-4.659,-3.573,-2.241,-7.593,-5.956
0.969,-25.694,0.445,-3.567,1.602,-1.047,-0.01,0.04
11.693,-16.139,15.412,10.34,13.823,12.342,13.982,20.535
17.952,-8.375,26.112,26.832,21.458,29.827,23.51,35.714
17.592,-6.613,27.928,35.274,22.15,40.522,26.156,36.475
17.145,-6.31,26.533,34.982,21.147,40.459,27.13,31.925
21.635,-2.28,27.581,32.057,22.015,34.763,28.738,31.295
27.287,2.404,29.735,27.729,22.99,28.167,27.66,34.298
28.99,3.657,31.446,25.055,23.65,25.769,25.813,41.917
27.779,3.63,33.864,29.227,24.482,31.05,27.817,51.136
24.044,2.34,30.804,31.636,20.417,33.837,27.51,47.699
15.23,-3.317,15.386,23.215,8.85,25.126,17.933,30.009
5.421,-9.476,-2.177,11.483,-2.121,13.052,7.067,14.771
3.455,-9.82,-6.559,3.146,-4.726,4.711,4.03,7.237
9.362,-5.56,0.231,0.905,-0.994,2.98,5.361,0.088
13.436,-1.3,5.851,10.085,2.94,12.823,5.725,-5.576
10.014,0.016,5.621,19.703,3.579,21.976,5.556,-4.31
5.107,-2.504,4.462,13.625,3.427,14.45,8.428,3.66
4.053,-7.44,5.931,2.754,6.563,3.005,15.403,13.556
1.584,-13.825,6.809,3.508,10.527,3.757,20.273,20.259
-3.866,-20.129,6.902,8.91,12.949,7.733,19.53,24.673
-1.696,-20.861,13.349,11.079,18.188,8.244,19.623,29.882
10.934,-15.358,24.813,16.374,25.039,14.404,22.165,28.785
16.419,-16.396,24.785,18.77,21.529,17.949,18.339,12.588
2.4,-31.705,7.778,4.168,5.448,1.217,7.013,-6.832
-14.774,-46.281,-5.588,-12.683,-6.116,-17.564,0.222,-8.182
-15.6,-45.908,-0.254,-9.824,-2.41,-12.21,3.745,5.64
-7.584,-39.682,9.425,0.458,4.112,1.081,7.753,12.561
-7.894,-40.797,5.178,-2.818,-0.417,-3.389,3.185,5.74
-15.197,-46.243,-7.085,-13.482,-9.914,-16.909,-4.282,-1.199
-15.901,-46.025,-9.816,-14.33,-10.415,-18.205,-3.408,1.413
-5.623,-37.768,0.603,-2.06,-0.435,-4.483,6.608,9.794
8.376,-26.108,14.412,15.686,11.298,14.537,17.425,21.082
18.05,-16.466,22.415,30.27,17.884,29.755,23.758,35.842
20.565,-12.86,21.503,34.875,17.257,34.573,24.475,41.718
19.946,-14.711,16.356,28.737,12.712,28.203,20.588,27.865
20.464,-18.015,13.509,17.201,9.405,15.705,16.389,9.347
17.461,-23.244,10.903,3.681,6.067,0.624,12.068,-2.78
7.636,-31.208,5.318,-8.813,0.802,-12.979,5.974,-15.895
0.71,-35.109,2.832,-12.477,-0.506,-16.654,3.822,-22.079
5.536,-30.015,9.246,-2.755,6.366,-5.998,9.4,-7.433
17.546,-20.122,21.698,14.206,17.526,13.257,17.775,14.713
28.275,-10.613,33.403,26.646,27.013,28.612,22.761,20.641
35.413,-3.426,39.202,30.158,31.24,32.115,22.41,12.266
39.2,-1.231,38.095,29.314,29.759,27.711,19.496,8.731
36.134,-6.757,32.395,22.942,23.62,18.783,16.344,10.611
24.2,-16.816,25.166,8.185,14.924,3.951,12.434,5.642
11.954,-22.466,18.816,-2.604,8.815,-6.999,10.691,-0.782
10.846,-19.023,15.092,1.597,9.55,-2.526,14.172,2.797
18.199,-12.895,14.521,8.571,13.613,6.396,16.995,8.945
19.847,-13.659,14.274,4.746,13.377,3.97,13.49,8.05
9.967,-22.206,10.06,-2.475,7.042,-4.015,8.246,7.661
-3.695,-32.431,2.389,-4.585,-0.808,-7.743,6.263,14.272
-11.757,-38.918,-2.155,-5.409,-4.95,-9.022,6.1,18.636
-11.263,-38.342,-0.102,-4.481,-3.908,-6.621,6.131,12.145
-6.773,-32.383,2.353,2.209,-2.492,1.818,5.756,-1.866
-5.353,-28.583,-0.648,6.582,-6.171,6.235,2.847,-17.342
-9.406,-31.737,-7.562,-0.773,-14.458,-2.174,-3.545,-29.08
-16.461,-38.938,-15.14,-14.705,-22.945,-16.777,-10.386,-30.922
-20.88,-42.762,-18.632,-23.699,-25.84,-25.993,-12.592,-21.521
-18.741,-38.836,-14.787,-23.173,-21.347,-25.612,-9.816,-8.619
-15.317,-32.288,-10.435,-19.196,-16.916,-21.59,-8.11,-4.218
-16.45,-29.175,-12.56,-18.665,-18.047,-20.423,-9.301,-10.231
-17.906,-26.74,-15.391,-16.836,-19.218,-16.813,-7.911,-13.308
-16.912,-23.294,-13.797,-9.579,-18.171,-7.132,-4.886,-8.37
-18.425,-24.075,-14.717,-7.165,-22.204,-4.006,-8.648,-10.175
-22.523,-29.393,-21.578,-15.549,-30.872,-14.586,-17.127,-22.001
-22.369,-31.055,-24.902,-21.302,-32.863,-22.72,-17.38,-24.639
-14.772,-24.064,-17.232,-11.84,-24.065,-12.507,-6.66,-12.583
-4.416,-14.108,-5.587,2.629,-13.517,4.804,2.742,-2.956
-0.274,-11.392,-2.86,0.963,-11.294,3.8,1.969,-2.245
-6.872,-18.568,-10.849,-17.719,-17.458,-17.592,-4.517,-1.428
-17.24,-27.612,-19.142,-32.251,-23.874,-34.369,-9.707,-2.993
-20.91,-29.594,-20.027,-31.397,-24.496,-33.004,-10.811,-14.767
-16.491,-23.894,-14.648,-23.435,-19.635,-24.276,-5.432,-23.412
-9.625,-16.862,-6.839,-15.86,-12.691,-17.192,3.96,-14.491
-5.375,-13.933,-1.953,-9.2,-8.46,-10.256,8.058,-2.045
-5.901,-14.864,-5.088,-5.703,-10.863,-5.319,3.056,-4.341
-10.261,-16.948,-13.329,-8.866,-18.066,-8.708,-4.811,-15.642
-14.365,-18.343,-18.485,-16.239,-22.69,-18.414,-7.981,-20.422
-12.561,-16.915,-17.427,-20.064,-19.975,-23.336,-5.076,-15.241
-4.276,-12.134,-13.489,-14.704,-13.805,-16.315,-1.346,-8.476
2.778,-8.414,-10.13,-2.187,-9.992,-1.814,-0.425,-6.156
0.395,-12.195,-8.454,4.933,-9.502,5.366,-0.889,-7.009
-12.113,-24.026,-11.183,-4.16,-13.291,-4.246,-3.211,-8.983
-26.068,-35.812,-19.729,-18.178,-21.625,-17.576,-8.666,-10.563
-32.677,-42.505,-29.009,-22.115,-29.65,-21.103,-15.019,-12.281
-34.962,-48.715,-34.495,-25.651,-34.021,-25.596,-20.415,-18.453
-37.684,-54.35,-35.659,-36.474,-34.886,-37.112,-23.466,-26.166
-35.811,-51.761,-31.707,-38.692,-31.194,-38.973,-21.883,-25.425
-28.339,-42.791,-25.259,-26.076,-24.505,-25.688,-17.164,-19.605
-24.962,-38.601,-23.277,-16.301,-20.921,-15.358,-14.535,-21.691
-28.942,-43.114,-26.567,-20.642,-22.928,-19.443,-16.278,-29.387
-31.149,-49.572,-28.482,-28.646,-25.793,-27.574,-19.122,-30.13
-26.15,-51.239,-26.703,-26.568,-25.124,-25.99,-19.028,-23.946
-19.399,-47.834,-23.067,-15.103,-21.031,-15.338,-15.349,-19.386
-15.123,-41.345,-15.639,-3.928,-13.592,-3.871,-8.074,-14.286
-12.015,-34.26,-6.696,0.177,-5.318,2.882,0.985,-3.545
-12.324,-32.509,-6.602,-5.712,-4.731,-0.923,3.207,1.38
-18.347,-38.755,-16.4,-18.348,-13.65,-15.083,-5.787,-10.722
-23.198,-45.294,-23.282,-26.265,-20.989,-25.387,-15.482,-27.213
-19.823,-43.611,-19.58,-21.635,-18.917,-20.427,-16.041,-30.574
-12.743,-36.362,-12.582,-10.265,-13.478,-7.605,-12.403,-23.608
-11.424,-32.929,-13.46,-6.029,-14.253,-4.138,-12.405,-18.571
-16.429,-36.086,-21.409,-14.51,-19.441,-14.693,-14.35,-17.555
-21.688,-41.125,-26.908,-24.226,-20.46,-24.253,-14.452,-17.764
-26.313,-44.955,-27.997,-23.912,-17.445,-22.334,-13.817,-19.195
-30.654,-46.142,-26.713,-18.979,-14.411,-17.958,-12.397,-17.275
-30.271,-43.075,-20.595,-18.219,-9.773,-18.788,-9.034,-11.289
-23.964,-36.982,-10.253,-18.85,-2.593,-18.783,-5.363,-11.504
-16.906,-31.015,-1.919,-16.489,3.873,-14.808,-2.309,-17.299
-12.8,-27.451,-0.466,-14.051,6.043,-12.081,-0.238,-16.315
-8.517,-24.402,-2.851,-8.736,4.718,-6.469,0.581,-8.352
-0.908,-18.729,-1.439,5.156,4.2,9.147,1.601,-2.946
3.263,-15.514,1.103,12.43,2.892,17.356,1.717,-3.292
-5.052,-21.999,-5.646,-4.65,-5.211,-2.088,-2.132,-8.366
-20.465,-32.958,-18.701,-30.211,-17.414,-31.283,-8.916,-18.996
-27.193,-35.622,-23.233,-36.646,-23.149,-38.693,-13.267,-27.504
-21.805,-27.51,-16.065,-24.164,-18.281,-24.993,-10.733,-19.735
-18.224,-20.653,-10.919,-13.584,-11.929,-13.856,-5.868,-3.702
-24.42,-24.229,-17.508,-14.44,-14.369,-14.151,-8.347,-5.201
-30.951,-31.438,-27.523,-18.679,-21.429,-16.037,-16.033,-25.468
-29.981,-32.559,-28.918,-19.332,-22.117,-14.531,-17.734,-38.899
-26.464,-29.547,-23.221,-16.283,-16.361,-11.977,-12.481,-32.554
-25.364,-28.412,-18.365,-10.767,-12.182,-7.837,-8.365,-18.963
-23.947,-28.169,-15.587,-5.921,-12.182,-3.181,-7.559,-12.135
-19.193,-25.265,-13.133,-5.874,-13.235,-3.647,-6.157,-11.35
-14.15,-21.885,-12.719,-12.807,-14.046,-12.353,-3.462,-11.727
-14.683,-23.384,-15.509,-25.458,-15.866,-26.435,-2.778,-14.753
-20.448,-29.166,-18.402,-35.914,-18.173,-37.423,-5.324,-20.146
-24.335,-32.433,-19.12,-35.418,-19.119,-37.343,-8.441,-21.924
-24.662,-31.592,-20.663,-28.499,-19.875,-30.753,-10.248,-20.393
-26.802,-31.692,-24.223,-25.973,-21.485,-28.495,-11.081,-22.075
-30.612,-32.307,-23.294,-25.306,-19.423,-28.185,-9.433,-24.232
-29.729,-28.012,-13.528,-17.308,-10.884,-19.791,-3.811,-18.163
-23.093,-19.771,-2.477,-5.572,-2.862,-6.841,1.731,-7.151
-17.513,-14.536,-1.427,-2.879,-4.054,-3.86,1.624,-2.732
-17.841,-16.129,-10.603,-12.351,-13.126,-14.756,-4.03,-7.687
-20.05,-20.661,-18.981,-21.692,-20.332,-25.247,-10.054,-15.429
-17.389,-20.53,-17.616,-18.55,-17.985,-20.529,-9.821,-17.213
-10.477,-14.929,-8.733,-7.07,-8.452,-6.038,-1.719,-7.708
-7.433,-12.638,-2.706,-1.082,-2.625,0.284,4.766,4.853
-13.583,-19.26,-6.981,-3.493,-7.526,-4.514,-0.75,2.512
-23.459,-28.472,-17.328,-6.23,-17.177,-8.41,-13.108,-15.871
-27.093,-31.231,-22.697,-9.144,-20.562,-11.176,-18.138,-29.543
-23.143,-27.134,-18.209,-18.672,-15.196,-22.399,-12.667,-27.327
-18.952,-22.561,-9.236,-29.321,-8.43,-35.318,-5.42,-18.289
-17.332,-19.923,-3.143,-26.868,-6.666,-31.454,-2.455,-10.84
-14.321,-15.493,-1.956,-9.685,-7.405,-10.066,-1.947,-6.161
-11.579,-10.788,-5.343,3.127,-7.124,3.7,-2.03,-4.974
-14.27,-11.785,-12.645,-4.603,-8.813,-7.812,-4.838,-8.042
-18.029,-14.604,-17.796,-19.247,-11.843,-25.129,-9.306,-13.884
-16.074,-11.758,-14.374,-20.781,-9.373,-26.039,-9.851,-18.466
-11.909,-7.106,-7.734,-15.701,-3.287,-21.361,-6.21,-18.369
-10.917,-5.919,-7.222,-15.425,-2.641,-22.344,-3.564,-13.825
-9.587,-2.67,-9.024,-13.733,-5.661,-18.296,-2.1,-7.986
-4.139,6.515,-4.475,-6.779,-3.073,-7.247,1.977,-4.152
0.347,13.491,2.305,-4.177,4.246,-4.686,7.41,-2.608
-1.181,11.236,3.039,-9.665,8.23,-13.801,10.327,0.025
-5.349,4.897,0.781,-12.631,7.996,-18.13,10.987,5.354
-7.381,1.809,1.801,-6.469,8.199,-9.295,10.617,8.023
-8.01,1.006,3.877,1.044,9.734,0.923,7.889,3.925
-8.581,-0.713,4.602,3.044,11.353,2.727,3.249,0.638
-7.587,-1.72,6.616,1.548,12.242,-0.177,-0.164,3.767
-5.385,0.081,8.058,-1.237,9.807,-2.683,-1.336,2.459
-3.888,3.115,5.998,-0.681,5.162,-0.619,-0.871,-8.744
-4.053,3.467,3.946,8.674,3.95,9.227,1.057,-13.656
-8.161,-1.475,1.278,17.908,4.386,19.012,1.754,-5.518
-16.106,-8.95,-5.689,11.666,0.038,13.798,-2.313,-4.036
-21.425,-13.687,-9.947,-7.35,-5.561,-7.296,-8.156,-15.223
-19.796,-14.404,-5.731,-20.246,-5.017,-24.31,-9.5,-17.253
-15.973,-13.786,-2.501,-19.945,-1.471,-24.945,-7.818,-8.017
-14.898,-13.432,-6.57,-19.076,-1.528,-22.59,-8.657,-9.871
-13.723,-12.085,-9.603,-24.104,-3.929,-27.168,-11.069,-21.605
-10.298,-9.527,-7.863,-25.366,-5.757,-28.134,-11.774,-23.568
-8.647,-7.011,-8.249,-17.553,-7.922,-19.086,-11.851,-16.78
-9.776,-3.958,-10.645,-9.211,-9.024,-10.197,-11.678,-13.216
-8.54,0.297,-7.715,-8.05,-5.249,-9.557,-7.647,-10.378
-2.574,4.568,-0.086,-8.797,2.114,-10.37,0.996,-2.57
4.989,8.675,6.87,-1.72,8.893,-2.447,9.682,5.332
11.402,13.464,13.358,12.282,14.834,12.45,15.038,8.338
16.613,17.9,20.295,22.787,20.53,23.323,17.673,8.765
19.892,19.424,24.05,23.009,23.134,23.189,18.803,9.765
16.646,14.524,20.974,14.858,19.149,13.83,16.491,9.461
4.873,2.029,12.039,6.223,9.772,4.08,8.1,5.058
-6.395,-10.757,3.696,2.769,2.448,0.219,-2.123,0.839
-7.27,-14.549,2.602,0.263,2.756,-3.151,-5.427,2.653
-0.581,-10.168,6.867,-4.228,7.067,-8.754,-0.799,5.334
3.828,-5.993,7.372,-7.143,7.772,-11.364,2.951,-0.25
-0.377,-8.648,-1.924,-11.263,0.244,-13.912,-1.421,-11.304
-13.518,-18.957,-18.774,-19.49,-14.778,-20.635,-12.353,-20.107
-28.899,-30.724,-33.172,-25.076,-29.133,-26.146,-22.893,-26.047
-35.559,-35.022,-34.728,-24.013,-32.415,-26.617,-26.934,-28.429
-30.619,-30.885,-26.927,-20.028,-25.143,-23.364,-24.313,-24.55
-23.484,-26.235,-23.54,-15.526,-18.875,-17.186,-20.573,-18.806
-21.674,-25.822,-26.775,-11.191,-19.239,-10.778,-19.835,-17.402
-24.368,-28.114,-28.34,-11.015,-21.923,-10.65,-21.623,-19.306
-29.989,-32.111,-28.438,-16.894,-25.255,-18.018,-24.37,-21.19
-35.26,-35.685,-30.826,-19.463,-29.491,-20.212,-25.692,-20.658
-33.983,-34.025,-30.165,-8.387,-29.883,-5.631,-23.37,-16.891
-27.677,-28.236,-22.908,7.083,-25.131,12.315,-19.873,-14.864
-24.413,-24.899,-15.977,7.041,-21.049,9.155,-17.936,-17.024
-23.91,-23.644,-14.314,-7.514,-18.898,-10.881,-13.916,-14.597
-18.723,-17.187,-14.331,-15.206,-13.869,-20.091,-4.529,-1.953
-9.315,-5.73,-12.628,-8.376,-6.874,-11.535,4.099,11.256
-4.928,0.389,-11.57,-1.746,-5.71,-3.593,3.152,12.137
-9.718,-4.703,-16.072,-6.617,-12.611,-7.889,-4.991,1.046
-17.554,-15.397,-25.305,-16.438,-20.21,-17.314,-11.136,-7.979
-20.529,-22.464,-30.322,-19.064,-21.765,-19.669,-13.853,-7.188
-17.404,-21.627,-26.031,-14.265,-17.421,-15.546,-15.925,-7.128
-12.551,-15.917,-17.986,-11.786,-10.615,-15.137,-15.376,-15.137
-10.343,-12.074,-13.835,-13.433,-6.422,-17.318,-13.153,-22.034
-13.105,-13.856,-16.032,-11.473,-9.84,-12.516,-16.493,-22.438
-17.727,-16.843,-19.192,-4.01,-15.998,-2.478,-23.148,-21.437
-16.206,-14.31,-14.79,3.368,-12.477,4.27,-20.324,-19.211
-7.197,-8.737,-4.194,6.559,0.344,5.056,-7.741,-13.78
0.916,-7.055,2.471,4.076,8.614,0.677,0.726,-8.132
2.484,-8.552,1.597,-1.102,7.358,-4.087,0.41,-1.31
0.269,-9.778,-1.84,-3.272,3.997,-4.744,-2.017,7.873
-2.423,-13.174,-3.923,-4.131,1.947,-6.64,-5.075,10.576
-4.147,-18.897,-3.608,-6.18,-0.273,-10.707,-9.856,3.064
-3.468,-21.343,-2.372,-5.636,-1.047,-8.857,-11.398,-2.079
-4.69,-23.033,-5.702,-7.265,-2.327,-7.956,-11.027,-1.738
-13.069,-32.054,-14.279,-19.397,-9.194,-20.412,-18.12,-12.032
-21.435,-42.792,-18.811,-30.06,-16.118,-32.102,-27.545,-29.764
-18.625,-41.745,-12.986,-20.618,-12.984,-20.707,-24.219,-29.028
-6.652,-29.734,-1.792,2.414,-2.078,5.412,-11.666,-11.291
3.731,-19.379,7.24,15.826,6.265,18.612,-4.934,-3.636
6.967,-16.081,12.16,11.625,8.611,10.626,-4.216,-8.529
4.699,-16.528,13.614,1.822,9.106,-2.177,-0.53,-6.709
1.085,-18.944,11.302,-1.549,10.043,-5.299,5.104,3.092
-0.447,-22.168,7.417,3.251,9.869,0.908,5.879,8.197
0.879,-21.789,5.897,11.443,8.31,10.698,3.227,8.591
5.078,-15.042,8.582,17.455,9,19.626,5.201,11.554
11.566,-5.343,15.245,20.442,14.585,24.655,14.079,19.382
16.33,0.809,21.224,22.913,19.97,24.81,21.772,30.651
17.885,2.552,23.853,28.222,20.291,26.809,21.007,37.016
21.056,6.449,28.691,39.763,19.491,40.824,14.817,30.741
25.773,13.975,32.044,46.154,19.004,51.308,9.105,19.948
24.102,16.801,21.597,28.841,13.85,30.093,5.024,15.655
16.603,13.21,5.941,2.703,6.911,-3.172,2.839,15.049
15.475,14.017,4.345,-0.814,7.549,-7.036,5.59,13.939
23.008,21.896,13.06,11.607,14.216,8.195,12.601,12.692
27.071,25.44,17.185,16.328,16.59,12.55,15.03,8.155
22.694,20.36,16.056,14.865,13.799,10.452,9.133,1.988
16.277,13.595,15.083,11.896,12.933,8.821,3.693,3.055
10.741,8.449,12.825,1.601,14.095,-1.176,4.852,10.901
4.982,5.052,8.199,-6.492,13.512,-10.198,9.107,16.88
2.688,6.702,7.455,4.925,13.918,1.818,12.32,20.535
7.877,13.251,14.81,28.301,18.755,26.958,13.432,26.233
14.963,17.6,22.542,37.398,23.099,37.047,12.029,28.261
15.292,14.636,20.853,21.303,20.248,21.443,7.397,16.925
11.97,8.761,14.338,2.116,14.254,2.792,2.122,0.045
14.348,8.198,14.386,6.276,14.593,6.312,1.458,-3.835
20.411,11.707,18.579,18.712,19.237,16.724,4.24,5.062
21.526,11.136,17.359,9.709,19.15,6.856,4.765,12.219
19.297,7.495,13.552,-7.785,16.059,-9.928,3.371,13.87
19.402,7.534,12.512,-6.748,16.197,-9.874,2.892,14.097
19.022,9.427,9.762,5.311,16.064,0.108,0.56,10.148
16.176,9.1,6.314,9.995,12.697,6.033,-5.174,-1.11
16.652,9.661,10.616,9.824,12.095,9.846,-8.201,-10.393
22.357,12.739,21.085,14.698,17.171,16.799,-3.547,-6.642
25.855,12.438,28.091,21.456,23.343,22.466,5.276,6.842
21.567,5.769,25.078,20.704,24.757,19.973,10.428,17.621
15.359,0.121,13.597,14.864,18.564,13.786,7.719,17.082
14.859,1.379,3.448,12.132,9.202,11.696,0.348,6.756
18.376,5.37,2.266,10.874,5.906,10.536,-4.16,-1.702
23.541,9.754,10.091,9.919,13.079,9.302,0.804,4.191
31.034,16.896,22.778,14.356,25.262,14.555,14.192,22.237
36.44,23.295,31.887,19.924,32.604,21.19,25.076,35.054
35.64,24.723,30.721,18.258,31.343,19.352,24.247,31.441
32.457,24.593,23.686,13.6,26.129,14.847,14.779,18.491
31.671,25.736,20.072,13.669,22.795,16.041,7.119,10.723
32.47,24.689,20.748,14.933,21.697,17.186,7.282,13.404
30.949,19.009,19.221,9.153,18.451,9.978,9.813,14.135
26.391,13.508,13.124,0.333,12.585,0.925,7.868,4.662
24.656,15.566,9.045,4.993,11.229,7.514,7.199,3.307
31.009,24.821,15.339,26.501,18.832,30.694,14.031,21.442
40.102,32.47,28.918,42.43,29.415,45.754,20.761,36.759
41.805,32.755,36.424,36.833,34.972,39.028,20.284,32.94
36.997,29.835,34.342,26.128,35.784,29.411,18.902,26.171
34.965,29.398,31.112,27.959,35.787,32.248,23.045,32.021
36.478,28.688,29.128,30.483,34.64,33.638,27.387,40.388
35.624,23.235,25.807,21.555,32.029,24.058,26.534,38.518
33.283,17.218,23.312,16.447,30.368,21.313,23.288,31.35
33.97,16.69,23.842,27.716,30.253,34.627,20.049,27.206
35.696,18.72,25.713,38.539,31.161,43.034,17.183,25.838
33.458,16.189,26.938,30.548,32.456,31.941,15.28,23.12
28.027,8.948,26.64,14.678,31.291,17.603,12.509,17.184
22.947,1.476,23.92,10.439,26.208,16.286,8.962,13.19
19.209,-4.301,19.113,13.838,21.63,19.34,9.122,16.232
18.956,-6.112,14.914,10.936,21.759,15.202,13.345,18.787
25.097,-1.416,14.46,4.844,23.091,10.034,14.987,10.143
35.314,6.925,18.951,7.056,21.457,14.079,10.394,-3.542
41.827,12.213,23.631,13.912,18.87,22,4.404,-6.213
36.714,8.79,19.282,12.298,15.559,20.081,0.836,2.789
21.557,-2.678,5.541,4.457,8.466,11.038,-3.29,9.637
10.248,-12.644,-5.442,4.361,1.563,10.937,-8.699,7.616
12.865,-13.289,-3.944,12.241,2.687,19.799,-9.946,1.845
22.031,-9.285,6.382,13.934,10.28,20.924,-4.245,-0.315
24.111,-9.862,13.268,3.538,14.517,9.261,3.015,2.874
19.214,-14.623,11.501,-6.478,11.854,-0.788,6.16,9.206
18.456,-16.039,9.773,-2.456,10.049,3.215,9.097,20.439
23.2,-13.186,15.147,11.319,13.822,16.643,16.097,34.645
26.537,-9.911,24.002,25.067,18.139,31.784,20.881,39.137
29.403,-4.663,30.749,39.771,20.278,49.457,20.162,31.101
31.892,0.454,28.571,48.707,19.199,59.097,17.934,22.228
26.804,-3.635,14.251,34.573,11.03,41.369,12.367,14.777
19.087,-11.963,1.402,7.241,3.038,10.048,5.595,6.435
21.709,-9.977,3.834,-1.647,6.919,0.661,7.237,3.107
27.951,-3.583,11.274,8.578,13.363,12.243,11.259,2.07
24.841,-6.306,11.177,13.756,9.59,18.092,6.769,-3.125
21.751,-8.531,13.084,14.358,7.526,18.674,4.885,-2.231
26.821,-1.109,20.893,21.154,15.697,25.076,13.639,10.271
27.781,2.55,20.138,22.762,18.435,26.452,16.78,20.186
23.464,-1.438,13.871,16.387,11.52,21.435,7.002,20.164
26.716,0.128,18.213,20.009,9.932,27.646,-1.204,15.654
32.64,5.829,24.522,30.108,13.401,38.106,-0.731,8.497
28.468,4.005,17.819,24.972,10.511,29.283,1.748,2.354
19.983,-1.907,9.58,11.287,6.275,11.779,4.56,9.002
19.213,-1.36,14.96,13.108,11.373,13.727,12.357,27.34
24.3,5.072,26.012,25.407,19.126,28.191,20.78,34.037
26.017,9.953,27.387,25.326,16.683,29.195,17.953,18.551
21.702,10.23,17.774,12.821,7.196,17.042,6.244,2.013
18.628,10.431,9.571,7.723,4.711,12.207,4.406,4.538
24.506,16.252,13.954,17.92,13.643,21.942,19.074,22.16
30.949,21.303,22.644,26.196,20.936,29.411,30.23,34.494
22.521,13.908,16.555,15.097,12.091,18.761,18.805,24.271
6.754,1.714,-0.398,-1.294,-4.797,4.154,-2.399,4.584
2.88,1.24,-7.391,0.129,-10.919,6.361,-9.703,3.704
7.621,8.446,-4.298,8.343,-8.356,12.736,-6.613,14.16
7.033,11.218,-5.205,3.291,-9.767,5.038,-9.583,6.779
1.356,11.062,-11.069,-5.981,-14.524,-3.816,-18.311,-17.211
-2.899,12.061,-15.254,-8.037,-17.583,-1.999,-23.655,-34.908
-3.562,12.509,-15.299,-9.925,-18.823,-1.833,-23.505,-38.811
-2.186,11.771,-12.008,-15.086,-17.874,-9.291,-20.627,-36.249
-3.53,9.758,-10.186,-16.783,-15.749,-12.665,-16.265,-29.605
-8.162,7.25,-12.121,-11.115,-14.366,-5.616,-10.153,-17.276
-8.395,9.158,-11.798,-0.759,-11.832,4.945,-3.977,-3.831
-2.049,15.877,-8.331,5.589,-9.43,9.295,-1.712,2.522
3.347,20.724,-7.596,0.672,-11.4,3.829,-3.376,0.175
5.387,21.989,-7.195,-7.399,-13.162,-2.512,-2.947,-0.618
6.63,22.508,-3.508,-5.173,-9.887,1.245,0.123,6.656
2.798,19.43,-4.471,0.484,-10.467,6.278,-3.608,8.18
-9.315,9.601,-16.393,-6.697,-22.314,-3.006,-17.407,-8.514
-18.806,1.166,-29.885,-19.631,-34.067,-16.992,-29.134,-26.413
-14.022,4.329,-30.953,-18.243,-31.47,-14.807,-27.477,-22.294
-2.892,13.153,-20.453,-5.615,-19.411,-0.911,-17.371,-5.176
-2.594,13.285,-13.73,-2.191,-13.298,3.391,-10.992,0.121
-13.807,5.078,-18.697,-11.23,-16.268,-5.277,-11.432,-8.496
-20.924,2.363,-25.258,-17.351,-18.598,-11.945,-13.652,-17.173
-15.13,10.897,-21.803,-12.711,-14.042,-8.633,-13.031,-19.064
-3.23,23.184,-8.966,-2.754,-4.003,0.499,-5.517,-11.354
4.668,30.952,3.516,5.394,6.604,8.694,7.465,3.188
4.919,31.11,5.717,6.876,10.929,9.891,14.225,10.413
0.897,25.896,-1.278,2.866,7.848,4.999,9.776,5.581
-0.994,21.941,-5.331,1.748,5.018,3.273,5.125,2.419
0.642,22.641,-0.57,7.364,6.419,8.896,6.326,6.797
1.599,25.349,5.307,14.342,7.649,16.816,6.302,9.179
2.317,29.915,5.768,19.172,6.897,23.326,2.931,6.694
7.955,39.362,4.363,23.079,7.136,27.591,1.589,5.366
17.244,51.195,6.468,24.93,9.091,27.531,2.238,6.175
25.195,61.228,13.013,25.773,12.566,26.748,2.808,9.049
29.311,68.099,18.345,28.7,15.395,30.536,3.742,14.439
25.168,66.885,13.611,27.684,10.797,31.377,0.884,13.891
14.663,58.734,2.377,19.331,0.762,23.018,-6.857,3.85
10.152,56.723,-0.773,14.002,-2.304,15.551,-9.491,-0.296
15.142,63.655,5.984,18.757,3.39,19.264,-2.438,11.399
21.585,69.157,10.848,27.414,8.385,29.924,5.704,23.367
26.023,70.394,11.347,28.816,9.809,33.03,8.175,20.363
28.69,70.145,13.35,19.725,10.024,22.907,5.974,11.366
25.535,65.666,11.346,8.509,6.458,11.055,0.74,7.965
18.278,58.028,0.941,3.239,-0.158,6.776,-4.914,6.045
19.87,57.142,-2.172,4.092,0.561,6.337,-5.269,1.658
31.43,63.966,10.099,5.28,10.856,3.291,0.966,-0.089
36.144,66.592,18.989,3.198,17.818,-1.186,7.613,3.927
29.18,61.371,12.572,2.386,14.42,-1.056,9.503,9.071
22.153,56.092,2.533,5.121,6.847,2.589,7.623,11.329
20.342,54.481,0.056,9.038,2.169,6.524,6.214,13.337
21.705,54.665,5.002,15.668,4.135,14.232,9,16.337
22.44,53.217,10.512,21.202,9.687,21.024,13.638,15.115
15.614,45.776,8.736,15.159,8.25,13.53,11.183,6.503
2.655,35.111,2.762,1.916,-1.615,-2.314,0.878,-1.87
-3.076,32.79,1.939,1.012,-6.045,-1.801,-3.408,2.105
5.11,44.267,5.74,19.655,3.468,21.287,7.044,16.07
18.676,59.591,9.753,38.47,17.492,40.352,21.529,23.33
24.326,62.875,13.046,31.775,22.05,28.529,24.271,17.696
18.969,52.167,12.519,4.453,16.275,-3.029,15.337,11.989
14.833,44.358,9.405,-10.207,11.973,-18.488,7.989,14.803
18.973,48.36,9.313,-2.209,13.101,-10.54,5.797,12.971
22.148,53.273,10.553,7.032,11.327,-0.751,1.704,-1.963
22.184,55.368,12.897,12.474,9.711,7.142,0.76,-10.574
24.375,58.996,17.726,20.693,16.187,16.916,10.111,-2.73
23.437,57.096,17.065,20.843,20.659,15.436,17.534,4.605
18.204,46.969,12.121,11.885,17.138,4.958,13.795,6.937
16.387,37.656,15.254,11.746,16.58,6.506,8.77,14.179
17.461,31.896,22.989,23.504,20.989,22,10.297,21.92
19.43,29.3,24.847,34.949,23.583,36.423,15.8,19.581
24.221,31.431,23.1,37.387,24.56,37.767,20.474,8.863
23.19,29.261,17.931,24.941,20.726,20.437,17.478,-0.953
8.877,14.25,4.917,0.886,6.773,-6.321,5.054,-4.886
-1.791,1.861,-5.254,-14.042,-4.472,-19.649,-3.55,-1.777
6.443,8.577,-1.208,-8.651,1.136,-13.121,1.735,6.053
18.204,21.176,7.032,-0.469,11.501,-5.663,9.718,9.556
16.697,21.445,8.081,-2.163,10.242,-6.198,8.24,5.33
9.516,14.069,5.621,-2.432,3.533,-3.316,3.735,2.872
8.28,10.43,4.994,4.747,4.058,4.726,7.332,9.107
11.621,10.419,6.398,7.379,10.647,4.995,16.516,15.922
14.028,10.066,9.22,-0.005,14.993,-4.315,18.932,9.147
15.8,12.368,13.846,-1.402,15.833,-4.47,12.063,-5.14
21.104,21.976,20.351,17.386,19.143,17.782,9.736,-2.58
29.187,33.918,25.049,39.745,26.887,42.155,20.393,15.346
32.612,37.392,23.547,36.795,31.744,37.317,31.997,21.98
30.055,32.346,19.743,14.464,28.983,12.006,32.787,15.277
30.487,30.29,22.209,7.874,26.584,5.362,31.26,16.058
32.805,31.493,27.568,23.282,29.017,22.385,36.29,25.847
22.136,20.861,22.909,29.061,25.553,28.342,36.854,25.635
1.518,-0.788,11.042,13.337,15.062,11.921,27.861,14.48
-4.002,-9.877,10.021,4.409,15.276,3.022,27.247,18.565
12.136,2.339,22.974,21.676,29.829,20.793,40.63,47.314
29.059,17.741,35.315,44.701,41.081,44.078,48.115,70.786
33.216,22.011,38.546,46.56,40.225,45.452,39.455,58.002
28.802,17.226,34.237,31.622,33.29,29.574,24.985,18.24
19.571,7.629,24.791,19.558,25.023,17.085,15.317,-10.913
6.255,-4.349,13.001,10.942,16.378,8.064,12.909,-12.901
-3.288,-11.509,5.507,0.834,11.504,-3.082,15.712,-2.987
-1.03,-7.497,8.524,3.822,13.909,0.283,18.609,7.89
4.38,-0.713,13.916,22.807,15.072,22.259,14.471,19.97
-3.549,-6.826,4.892,25.95,4.093,27.586,1.447,21.894
-21.894,-24.132,-14.616,-2.469,-11.236,-2.505,-11.344,1.24
-29.962,-34.408,-21.915,-30.442,-13.878,-33.612,-12.016,-24.364
-19.847,-29.627,-10.698,-28.705,-2.588,-32.74,0.151,-24.389
-8.03,-22.245,1.442,-9.559,7.524,-11.965,11.544,-4.359
-11.915,-26.268,0.665,1.475,4.589,1.36,9.555,5.256
-24.655,-36.152,-4.987,0.121,-3.911,1.204,1.774,3.303
-28.616,-37.315,-5.477,-5.072,-4.325,-4.84,2.524,7.77
-27.618,-33.347,-10.713,-14.705,-4.197,-16.087,3.783,7.434
-36.125,-36.915,-27.534,-28.842,-16.98,-30.193,-7.955,-13.578
-46.705,-42.28,-39.08,-33.666,-30.897,-33.441,-20.775,-30.937
-43.101,-36.404,-31.673,-21.126,-27.805,-19.724,-16.779,-16.857
-30.949,-23.752,-16.56,-4.89,-13.945,-3.086,-1.855,11.378
-27.323,-18.15,-12.442,-2.982,-8.75,-0.694,3.157,14.341
-32.941,-21.54,-20.155,-13.443,-16.222,-10.327,-8.339,-14.32
-35.247,-24.017,-23.783,-19.598,-21.665,-15.816,-18.811,-37.81
-32.276,-20.969,-19.188,-18.247,-18.695,-14.892,-15.001,-32.467
-33.936,-18.395,-20.355,-21.007,-19.09,-19.163,-8.592,-20.069
-40.691,-19.235,-28.727,-27.275,-25.533,-26.686,-10.628,-19.421
-41.954,-18.265,-29.818,-23.539,-25.915,-23.182,-12.929,-16.71
-35.3,-13.106,-23.599,-9.55,-19.97,-8.369,-8.966,-5.087
-29.291,-8.792,-23.518,-0.819,-18.735,1.866,-5.866,-1.211
-29.619,-10.918,-29.685,-5.963,-22.783,-2.621,-9.282,-11.459
-32.998,-17.687,-30.238,-16.884,-24.157,-14.725,-14.373,-19.782
-33.115,-20.252,-22.065,-19.711,-20.32,-19.706,-14.18,-12.936
-28.849,-14.878,-13.269,-11.63,-15.65,-12.889,-8.876,0.64
-23.288,-7.545,-8.658,-5.115,-13.389,-5.042,-4.633,3.062
-17.722,-2.597,-4.656,-9.066,-11.824,-5.983,-5.642,-7.036
-13.783,1.128,-1.084,-16.057,-10.612,-11.159,-9.345,-14.04
-14.063,3.686,-3.458,-17.634,-11.539,-12.997,-9.789,-8.938
-15.786,4.588,-9.144,-13.728,-11.648,-10.408,-5.01,2.581
-12.989,6.528,-8.063,-3.511,-6.861,-1.234,1.547,12.557
-5.312,11.405,0.606,11.24,0.334,13.825,6.169,17.359
1.172,15.836,6.596,17.853,3.795,21.356,6.256,15.285
1.477,15.832,3.751,9.193,1.241,13.001,1.397,8.815
-1.304,13.964,-0.798,-0.432,-1.854,3.631,-2.773,4.388
0.115,16,3.189,3.853,1.908,7.801,-0.681,5.29
6.67,22.262,13.001,15.239,10.235,16.831,5.142,11.599
14.868,29.689,19.365,20.267,15.118,18.599,10.008,19.055
23.307,36.686,20.659,16.561,15.813,13.776,12.453,17.263
26.764,38.538,16.096,6.747,13.842,4.308,9.579,2.603
18.099,29.42,3.145,-7.03,5.843,-9.231,-1.434,-17.531
3.236,14.302,-10.59,-17.492,-5.803,-18.673,-13.61,-31.982
-2.093,6.908,-12.49,-14.922,-9.839,-14.233,-14.558,-29.208
6.134,12.057,-1.868,-1.911,-2.33,-0.648,-4.539,-11.183
15.026,18.808,9.768,6.368,6.758,5.768,3.818,3.446
14.379,16.55,13.442,3.237,8.325,0.066,4.532,3.778
8.51,8.681,10.211,-1.342,4.42,-5.379,3.062,-1.304
4.875,3.727,5.948,1.9,1.352,-1.156,5.154,1.977
5.738,4.917,7.06,10.433,3.274,8.61,11.948,16.207
10.612,11.128,15.414,18.549,10.084,17.409,20.159,29.735
13.739,16.357,21.814,22.913,14.051,21.781,20.855,28.012
7.385,13.476,16.938,20.119,8.69,17.898,10.147,13.076
-3.189,7.023,8.718,13.516,2.739,9.511,2,7.106
-4.222,8.058,10.449,13.909,7.418,8.574,9.179,23.314
2.9,13.624,16.206,19.359,13.84,13.482,16.529,36.45
4.436,13.063,11.304,15.186,7.117,9.564,4.818,13.638
-1.779,8.172,-2.025,0.619,-7.006,-3.917,-13.654,-27.448
-6.597,6.2,-10.549,-10.002,-13.729,-13.357,-18.504,-42.874
-5.46,8.221,-8.31,-6.581,-11.004,-9.291,-12.979,-28.327
-0.335,13.932,1.518,8.397,-3.764,5.826,-7.789,-10.684
5.615,21.854,11.463,20.427,5.025,17.448,-3.212,-3.993
7.709,25.654,12.992,17.176,9.164,13.216,1.427,-3.594
2.586,21.861,4.277,4.572,2.258,-0.567,0.85,-4.908
-2.526,18.848,-3.481,-3.004,-8.221,-9.008,-4.215,-8.903
0.5,24.479,-2.279,-3.85,-10.123,-10.368,-4.598,-11.647
3.446,30.389,-2.09,-6.188,-7.929,-13.26,-1.09,-7.414
-2.906,28.269,-10.578,-8.364,-11.071,-16.38,-3.685,-0.999
-11.679,25.016,-19.117,-2.786,-16.525,-11.607,-12.775,-3.06
-14.682,25.733,-20.467,3.838,-19.336,-3.788,-19.518,-12.194
-14.555,26.057,-18.245,1.994,-19.9,-2.186,-17.551,-12.247
-14.973,26.419,-16.366,-0.632,-17.72,-2.253,-8.736,0.517
-13.57,31.357,-13.703,0.407,-12.958,-2.09,-2.706,5.425
-12.096,35.234,-12.009,-7.617,-11.508,-13.385,-7.686,-9.63
-17.14,29.894,-15.533,-24.24,-16.985,-32.648,-18.425,-27.214
-23.165,23.746,-19.089,-27.978,-21.307,-36.577,-20.962,-26.276
-19.382,28.783,-15.671,-14.173,-17.455,-21.464,-14.203,-11.644
-11.836,37.459,-11.967,-4.255,-12.956,-10.638,-11.724,-5.315
-12.304,37.475,-15.659,-9.955,-15.009,-16.588,-17.476,-13.723
-17.37,33.453,-20.24,-19.761,-17.396,-27.126,-21.146,-22.677
-18.504,33.986,-18.679,-22.858,-15.285,-30.403,-18.195,-22.556
-16.448,37.145,-15.733,-19.132,-14.537,-26.291,-13.273,-14.31
-14.444,40.077,-15.661,-8.538,-17.167,-14.594,-9.225,-1.421
-12.77,43.777,-15.077,4.614,-16.679,1.282,-7.635,5.856
-12.488,46.811,-12.812,8.472,-11.806,8.487,-10.153,-1.334
-14.009,47.191,-10.386,2.053,-7.962,3.366,-13.606,-13.979
-15.293,45.932,-6.138,-3.424,-7.191,-3.266,-13.554,-16.446
-14.672,45.625,-0.685,-3.253,-6.838,-4.542,-9.206,-6.85
-12.775,47.609,0.049,-2.881,-4.469,-5.328,-2.13,3.048
-13.645,47.755,-7.753,-9.392,-2.857,-14.16,2.257,2.059
-20.016,41.837,-19.517,-21.331,-6.66,-28.804,-1.159,-6.607
-26.434,35.027,-24.345,-29.085,-12.191,-37.197,-8.405,-10.948
-27.056,33.573,-18.171,-28.738,-13.067,-35.236,-12.839,-9.141
-26.163,33.893,-12.978,-23.602,-13.404,-27.728,-15.249,-9.271
-29.63,30.521,-20.462,-16.405,-19.846,-18.659,-18.509,-14.841
-31.924,26.687,-31.186,-10.966,-25.778,-12.857,-19.667,-21.115
-23.771,28.785,-28.429,-10.434,-19.836,-13.976,-14.346,-21.068
-9.483,33.776,-14.044,-9.718,-6.006,-15.829,-5.252,-13.013
-1.742,32.912,-0.691,-3.993,2.731,-10.975,1.629,-3.51
-4.395,25.176,4.882,-2.084,2.63,-7.737,5.213,0.621
-12.797,16.06,0.438,-11.391,-2.258,-16.795,6.86,2.011
-19.742,10.272,-8.564,-20.889,-6.465,-28.121,8.079,7.698
-19.157,9.777,-11.568,-20.303,-7.048,-27.778,9.785,13.979
-13.466,12.205,-9.575,-14.632,-7.757,-19.726,8.655,9.908
-11.475,11.841,-10.918,-10.948,-12.621,-14.459,1.441,-3.968
-17.78,4.287,-16.502,-13.003,-20.704,-17.541,-10.481,-19.578
-26.515,-7.138,-21.998,-20.909,-27.943,-26.884,-21.222,-32.475
-26.775,-12.401,-23.35,-26.786,-28.1,-31.925,-21.937,-35.455
-17.793,-8.257,-19.032,-24.695,-20.041,-28.076,-12.691,-24.732
-8.909,-1.496,-11.74,-18.457,-11.131,-22.312,-5.407,-10.87
-4.547,2.502,-5.67,-13.541,-7.311,-19.324,-6.513,-6.216
-2.63,2.893,-2.032,-11.563,-7.302,-18.127,-10.739,-11.931
-0.571,1.801,1.342,-9.914,-5.981,-15.952,-11.197,-18.525
3.009,3.217,5.56,-6.26,-0.585,-11.347,-6.202,-15.601
5.772,6.129,8.923,-3.653,5.139,-8.005,0.002,-5.759
3.584,4.791,8.795,-6.087,5.512,-10.502,2.022,-0.392
-4.022,-2.605,3.743,-13.262,0.31,-18.036,-0.836,-2.519
-12.652,-11.651,-1.959,-18.911,-4.909,-23.212,-4.692,-5.483
-16.822,-16.628,-1.793,-17.134,-5.233,-20.539,-5.364,-4.49
-16.667,-16.488,1.418,-12.377,-2.27,-16.115,-3.034,-1.949
-17.939,-15.07,-0.937,-12.104,-1.251,-17.231,-1.653,-2.546
-23.454,-15.919,-9.128,-16.451,-4.305,-21.835,-3.309,-6.529
-30.1,-19.26,-15.279,-20.478,-9.144,-24.527,-6.968,-9.708
-32.334,-21.04,-12.735,-17.283,-10.382,-19.598,-10.187,-9.592
-25.794,-15.841,-0.846,-7.003,-4.038,-7.028,-9.727,-9.052
-15.371,-6.111,11.346,-2.267,3.598,-0.519,-6.302,-10.656
-14.726,-2.114,10.706,-10.131,2.044,-9.662,-5.307,-9.646
-27.041,-7.561,-3.538,-22.057,-6.109,-24.119,-7.95,-3.625
-39.275,-15.366,-18.923,-31.529,-12.094,-34.577,-10.375,-3.11
-41.773,-18.884,-26.06,-38.785,-16.566,-42.522,-10.927,-11.855
-36.597,-16.675,-25.243,-37.902,-20.59,-41.688,-10.023,-16.138
-27.787,-9.467,-19.678,-23.667,-18.377,-24.775,-7.252,-11.558
-21.167,-2.767,-14.65,-10.407,-11.989,-8.856,-5.186,-12.388
-24.055,-3.79,-16.92,-18.718,-12.687,-18.61,-8.717,-24.604
-31.122,-7.728,-22.536,-37.404,-18.707,-40.66,-13.571,-31.891
-29.897,-3.692,-20.653,-36.785,-16.414,-40.35,-10.283,-22.465
-22.842,5.544,-12.143,-21.117,-5.939,-22.191,-2.687,-10.43
-20.09,10.401,-5.671,-15.841,0.105,-15.308,-1.655,-9.812
-20.071,11.452,-3.423,-19.341,-1.243,-18.899,-5.308,-12.395
-16.233,13.702,-1.846,-13.6,-1.825,-13.069,-5.138,-8.457
-9.553,16.682,1.627,0.249,2.53,1.926,-1.995,-4.163
-4.559,17.761,5.753,6.449,7.404,8.692,-0.083,-4.995
-2.015,17.542,7.657,4.045,8.152,4.842,2.871,-2.753
0.389,18.68,7.973,7.254,6.143,6.402,8.61,8.259
3.902,21.174,10.273,14.875,6.44,14.207,13.725,19.315
6.613,21.593,12.492,11.168,9.909,11.604,15.264,20.034
5.38,17.832,9.082,-2.012,10.991,-1.346,13.251,11.571
1.232,12.653,3.51,-8.987,7.201,-9.213,9.189,3.473
-0.864,10.127,1.954,-8.512,2.537,-8.877,3.343,1.031
-0.461,9.815,0.761,-8.286,-1.053,-6.638,-4.182,0.93
-3.192,7.591,-5.372,-8.789,-5.799,-5.51,-9.422,-1.49
-10.306,2.044,-13.709,-11.33,-11.901,-9.63,-9.633,-8.235
-14.682,-2.439,-17.373,-17.713,-14.96,-18.376,-7.504,-15.527
-12.546,-2.055,-13.005,-19.719,-11.207,-19.811,-5.259,-14.526
-8.639,0.699,-3.894,-10.325,-2.686,-8.659,-2.28,-4.2
-6.21,2.188,4.092,2.786,5.532,3.388,2.354,7.493
-4.601,1.965,8.042,6.307,9.834,4.26,6.626,14.102
-3.599,1.412,9.959,0.348,9.749,-1.376,5.638,10.825
-2.024,2.513,13.115,0.218,8.207,1.816,0.089,-2.173
-0.464,3.673,14.32,8.149,7.259,11.431,-3.28,-15.084
-2.963,-0.117,7.236,3.025,4.401,4.24,-2.913,-18.183
-7.639,-7.219,-3.832,-17.44,-1.313,-18.612,-1.47,-10.179
-7.147,-10.062,-7.1,-25.365,-4.409,-26.528,1.702,1.87
-2.24,-8.565,-0.571,-13.786,-1.693,-15.043,6.3,8.041
-0.606,-9.437,6.97,-5.575,1.179,-7.97,7.427,4.461
-5.218,-15.622,6.035,-11.788,-3.261,-13.156,0.811,-8.015
-12.303,-24.079,-5.468,-21.735,-13.297,-20.78,-10.213,-23.638
-14.783,-28.439,-15.021,-23.752,-16.278,-23.519,-13.498,-26.054
-9.296,-26.602,-9.82,-20.232,-5.919,-23.202,-3.054,-8.706
-0.715,-24.109,1.925,-19.317,6.028,-24.111,9.831,9.36
6.469,-23.462,7.206,-16.59,9.321,-20.682,14.073,14.26
13.666,-20.923,10.317,-4.481,9.988,-6.423,12.687,12.856
19.925,-17.41,17.226,8.393,14.107,8.768,11.461,8.174
19.691,-18.76,20.372,8.551,16.405,10.067,11.432,0.124
14.474,-23.123,15.726,0.959,13.561,2.124,12.784,-1.553
15.803,-20.502,15.324,5.71,13.78,6.131,16.288,6.169
27.132,-9.947,26.224,24.688,22.104,24.857,20.997,12.818
34.578,-5.078,33.242,29.704,27.492,29.738,23.123,12.383
29.202,-13.001,24.483,8.928,21.888,7.856,21.935,10.409
21.343,-23.296,14.143,-8.959,15.662,-11.444,21.175,11.359
20.399,-27.071,16.397,-4.214,16.806,-5.985,20.442,12.436
23.456,-26.588,24.26,8.109,20.068,8.697,17.683,14.096
27.55,-24.386,28.079,12.346,21.967,13.888,15.795,18.119
30.705,-22.545,26.543,10.37,22.692,11.12,15.462,17.788
28.063,-25.847,21.035,7.764,20.65,7.84,13.047,10.354
21.036,-33.518,17.231,6.06,17.539,6.639,9.403,5.296
17.517,-37.822,21.3,7.412,18.306,9.271,10.304,8.511
19.036,-35.109,28.227,13.735,22.32,15.574,16.286,13.979
20.705,-29.771,27.711,20.155,23.933,19.466,19.927,14.777
21.138,-26.95,21.51,19.132,23.086,15.574,18.463,13.209
21.007,-28.132,18.148,11.299,23.408,6.918,16.439,13.122
18.804,-32.154,17.408,5.651,23.231,2.021,14.068,11.878
16.132,-35.574,17.205,7.997,21.988,5.457,11.746,11.454
16.924,-36.393,20.275,13.372,23.572,11.945,14.467,16.979
18.117,-39.03,23.743,12.486,25.39,11.8,17.422,19.019
13.648,-47.741,21.197,3.45,21.201,3.086,10.52,4.693
6.276,-57.879,15.092,-5.532,13.58,-5.491,-1.415,-16.409
2.484,-63.418,10.748,-6.816,8.453,-6.493,-6.331,-22.091
2.522,-64.996,8.599,-2.281,6.52,-1.811,-4.033,-10.898
4.681,-63.927,9.596,2.983,6.702,3.997,-1.65,-1.938
8.315,-60.292,12.007,7.618,6.756,9.088,-0.568,-1.638
10.523,-57.738,9.483,10.209,4.03,11.444,1.71,0.288
10.079,-59.174,3.873,9.042,1.101,9.509,4.525,6.05
10.178,-61.612,3.303,8.827,2.699,8.251,8.146,13.744
12.469,-62.053,8.004,16.541,8.499,15.166,15.995,30.469
15.697,-61.692,12.913,26.466,13.226,24.776,23.185,46.825
19.278,-61.16,16.141,22.619,12.955,21.296,19.393,34.168
21.812,-59.352,18.051,3.94,10.809,4.069,9.092,-0.586
20.605,-56.838,17.658,-10.199,11.005,-8.725,5.541,-17.5
17.376,-53.218,14.439,-7.412,11.862,-5.928,10.021,-7.732
17.187,-46.464,12.012,5.068,12.257,6.371,16.181,8.872
19.188,-39.778,12.935,16.054,13.349,17.665,19.434,20.994
18.395,-39.315,14.106,20.489,12.604,21.849,15.809,22.084
16.243,-43.267,13.676,18.686,9.358,19.368,6.796,8.798
17.738,-44.302,13.782,14.739,9.419,14.979,1.598,-6.832
19.051,-44.007,13.04,11.633,13.03,10.736,4.306,-9.559
12.888,-50.197,7.655,10.377,11.752,7.613,7.973,-0.711
5.145,-58.838,1.825,12.175,5.354,8.842,7.167,8.42
5.294,-59.88,1.596,12.42,1.923,10.287,3.714,10.73
8.43,-56.63,2.759,3.588,1.765,2.476,0.387,4.883
8.221,-56.781,1.889,-8.201,2.124,-9.254,-0.186,-2.042
9.189,-56.803,3.046,-8.232,5.083,-8.865,3.943,1.059
13.776,-51.878,5.967,4.159,9.475,4.712,10.561,12.777
16.282,-47.131,6.508,15.418,10.591,16.919,14.084,18.765
13.016,-48.36,4.456,16.765,7.958,18.966,10.485,10.707
8.407,-51.219,2.958,12.854,6.04,15.52,4.363,-0.705
9.182,-48.422,5.328,11.848,9.257,13.415,5.983,2.216
14.339,-42.848,10.34,12.524,14.646,11.829,13.471,17.036
15.39,-44.026,11.632,7.151,12.214,5.859,11.475,20.599
9.689,-52.069,7.042,-4.645,0.675,-3.763,-2.639,4.802
4.433,-57.118,0.46,-13.913,-8.555,-10.56,-13.517,-11.537
2.753,-56.855,-8.171,-16.245,-11.641,-12.666,-15.711,-18.072
0.499,-57.939,-18.544,-16.653,-14.716,-14.18,-18.409,-24.962
-2.203,-60.794,-22.843,-19.089,-17.258,-17.009,-23.617,-34.875
-1.542,-60.38,-17.716,-21.301,-15.292,-19.129,-24.841,-36.88
1.437,-57.076,-9.504,-20.049,-10.774,-18.212,-20.56,-27.615
2.299,-55.255,-6.175,-16.25,-8.206,-14.885,-15.348,-16.658
0.83,-55.177,-9.964,-10.599,-8.801,-9.374,-12.534,-10.22
1.632,-53.312,-14.242,-1.709,-9.267,-0.539,-11.476,-7.363
4.919,-50.801,-14.522,3.165,-8.488,3.606,-11.11,-8.327
4.837,-52.497,-14.332,-3.694,-9.467,-4.702,-11.022,-9.78
1.073,-56.157,-12.426,-10.917,-10.141,-12.692,-9.543,-6.73
-0.484,-55.877,-4.426,-4.775,-5.671,-5.982,-6.501,-2.504
0.584,-53.382,4.152,8.506,0.491,7.785,-4.349,1.449
0.616,-52.306,4.299,15.486,1.883,14.394,-2.643,10.961
-1.269,-52.2,-4.794,8.836,-1.805,7.702,-0.603,19.489
-6.214,-55.025,-16.297,-9.933,-7.79,-10.3,-3.424,9.644
-14.759,-62.016,-23.285,-25.978,-13.306,-25.959,-12.183,-13.137
-22.022,-67.646,-24.968,-25.745,-15.428,-26.337,-17.129,-23.519
-21.432,-66.524,-21.591,-13.857,-12.132,-15.076,-12.034,-16.587
-12.452,-59.033,-11.321,-1.006,-4.4,-1.78,-2.457,-6.921
-2.743,-50.599,0.408,7.722,2.794,7.221,3.702,0.123
-0.518,-48.136,3.129,7.34,4.709,5.019,4.452,6.325
-5.533,-52.893,-4.134,-3.748,0.987,-8.125,1.09,7.582
-10.91,-58.622,-12.802,-15.12,-5.164,-19.477,-5.263,0.719
-12.211,-60.068,-16.656,-15.598,-9.37,-19.705,-10.956,-6.606
-11.121,-58.734,-16.413,-8.652,-9.559,-13.215,-12.014,-5.296
-10.004,-56.511,-14.915,-3.09,-7.565,-7.004,-9.933,1.835
-8.432,-52.066,-12.147,-0.13,-5.64,-3.137,-8.676,5.676
-6.926,-47.081,-7.844,2.22,-3.823,-1.474,-9.241,3.565
-6.638,-45.129,-5.183,5.897,-1.332,1.01,-9.364,1.315
-5.141,-44.522,-4.028,12.254,2.75,6.846,-6.305,4.377
-0.037,-41.073,0.55,17.801,8.474,12.916,0.273,11.54
5.894,-34.803,7.318,18.213,13.021,15.392,7.842,18.292
7.562,-30.454,9.806,14.406,12.789,13.739,11.827,19.966
4.378,-30.98,6.911,10.417,7.979,10.18,9.624,16.108
3.826,-29.967,4.212,10.316,4.184,9.29,6.09,14.876
11.25,-20.532,5.941,14.536,6.015,12.289,7.2,21.365
16.199,-11.505,5.644,17.004,7.494,13.594,7.701,25.439
6.275,-15.841,-5.639,11.393,-0.897,8.081,-1.135,15.897
-8.765,-26.316,-18.847,1.197,-13.438,-0.962,-13.452,-0.186
-9.854,-25.336,-16.296,-1.907,-14.279,-3.649,-15.099,-4.281
1.836,-12.29,-0.157,6.723,-1.243,4.967,-3.239,11.014
10.988,-0.241,14.121,18.131,13.845,17.334,12.34,30.682
12.673,5.19,21.513,23.727,23.283,23.415,22.109,34.571
12.08,7.684,24.201,24.738,26.687,23.625,24.266,26.774
10.186,8.812,20.439,22.349,23.475,22.176,20.587,24.847
3.009,5.44,8.114,12.337,12.223,15.059,11.549,23.18
-8.152,-2.164,-8.313,-4.082,-3.865,-1.062,-0.777,5.993
-15.368,-7.196,-18.991,-16.74,-15.947,-16.424,-11.532,-17.273
-15.985,-5.608,-19.381,-19.759,-18.967,-20.377,-17.74,-26.662
-16.613,-1.841,-17.109,-17.387,-18.673,-16.022,-20.851,-22.566
-20.612,-1.036,-20.513,-13.954,-21.821,-10.812,-23.138,-18.807
-22.296,-1.924,-25.393,-9.336,-24.64,-5.503,-23.422,-17.915
-19.542,-1.83,-24.799,-5.879,-22.355,-0.799,-21.335,-13.059
-20.081,-2.474,-22.534,-9.223,-21.183,-2.522,-21.975,-8.735
-28.764,-6.296,-25.661,-20.071,-27.788,-13.145,-28.339,-14.645
-39.573,-11.323,-33.293,-30.67,-37.281,-24.73,-34.5,-24.715
-42.797,-11.336,-36.663,-31.045,-38.553,-25.497,-31.745,-22.125
-35.288,-2.178,-29.618,-20.258,-27.869,-14.249,-19.358,-2.774
-24.775,10.643,-19.75,-8.851,-16.235,-2.395,-8.721,13.73
-21.463,16.749,-18.295,-5.001,-15.635,2.169,-11.473,6.341
-24.467,15.189,-22.137,-5.903,-21.162,2.343,-21.544,-16.046
-24.638,14.457,-22.64,-7.381,-21.743,0.752,-22.882,-25.928
-19.982,17.564,-22.239,-8.829,-19.125,-2.611,-15.599,-14.947
-16.518,19.684,-24.85,-8.162,-19.651,-3.672,-12.851,0.503
-16.422,18.879,-25.74,-6.387,-21.037,-1.846,-17.502,1.207
-16.154,17.982,-22.407,-8.113,-19.529,-2.767,-22.757,-15.42
-12.582,20.32,-17.783,-8.527,-15.728,-2.983,-24.212,-28.328
-6.478,26.793,-12.925,0.102,-10.901,5.755,-21.403,-19.54
-2.18,33.255,-9.399,10.489,-7.461,16.994,-16.742,-4.333
-2.093,34.965,-9.805,10.719,-7.789,17.777,-13.89,-6.029
-3.447,33.471,-12.272,2.739,-10.214,8.729,-14.534,-18.578
-3.261,33.707,-13.223,-3.09,-11.328,1.373,-15.942,-20.828
-2.266,36.429,-12.898,-2.731,-10.462,1.789,-14.443,-9.935
-3.396,37.126,-13.361,-1.458,-9.835,4.647,-12.322,-1.539
-7.644,33.627,-13.717,-2.518,-10.155,4.954,-13.383,-3.908
-11.417,30.539,-11.812,-1.113,-9.339,6.324,-15.464,-6.968
-10.94,31.708,-8.957,3.151,-7.525,10.025,-16.143,-2.667
-7.278,35.151,-6.282,4.413,-6.253,11.725,-16.767,-0.262
-3.158,38.288,-0.674,5.381,-3.404,13.515,-15.963,-6.036
0.798,40.365,8.319,10.034,3.081,17.878,-9.501,-7.658
3.136,39.761,12.902,10.065,8.725,17.429,-0.078,1.145
0.133,35.159,6.256,2.884,6.978,11.356,2.429,4.545
-7.365,29.636,-5.216,1.075,0.163,11.423,-3.932,-4.062
-11.167,28.969,-9.473,7.987,-2.829,18.558,-8.543,-5.514
-6.709,34.622,-5.91,12.239,0.12,20.731,-4.395,13.073
-0.604,41.506,-3.894,9.176,1.899,15.872,0.527,34.451
-1.772,42.043,-9.99,1.465,-5.276,9.497,-6.711,24.029
-10.117,33.284,-20.823,-10.804,-19.632,0.095,-24.013,-22.143
-16.205,23.142,-24.407,-21.319,-27.114,-9.65,-32.727,-53.689
-13.387,21.413,-15.808,-19.009,-19.485,-8.428,-24.157,-37.413
-10.357,22.607,-9.414,-8.3,-10.782,1.861,-14.645,-10.854
-19.007,14.622,-17.556,-5.913,-17.101,4.698,-20.661,-16.003
-32.325,1.073,-29.26,-16.708,-31.61,-6.073,-35.508,-39.503
-37.59,-7.332,-32.678,-30.272,-40.407,-20.103,-45.833,-50.807
-39.008,-11.607,-34.355,-36.8,-43.658,-26.836,-50.753,-47.232
-42.683,-14.46,-39.035,-33.116,-44.06,-21.927,-51.89,-40.66
-44.097,-12.463,-40.768,-21.131,-39.496,-6.377,-46.958,-35.704
-43.354,-8.618,-39.284,-11.172,-34.125,6.539,-39.408,-34.402
-42.07,-7.365,-36.544,-14.287,-31.251,1.291,-32.777,-36.391
-32.755,-3.015,-27.136,-25.334,-24.228,-15.26,-21.079,-30.936
-18.244,3.846,-13.988,-29.262,-14.331,-22.218,-5.522,-12.692
-17.089,-0.063,-12.141,-24.928,-14.816,-17.327,-0.753,7.333
-34.283,-16.878,-26.632,-26.025,-28.414,-17.529,-10.648,15.24
-53.215,-32.692,-46.078,-35.18,-44.307,-25.662,-26.001,-3.793
-58.764,-37.38,-56.033,-37.329,-53.179,-25.257,-40.898,-47.649
-49.15,-30.321,-47.405,-26.219,-48.541,-12.811,-44.984,-72.017
-30.905,-14.934,-21.664,-10.342,-28.625,1.885,-26.645,-43.783
-15.005,0.586,3.272,5.723,-7.262,17.604,1.156,2.84
-11.098,7.074,5.813,16.83,-1.372,28.544,14.518,23.274
-18.948,2.883,-11.726,11.315,-8.51,20.039,10.467,18.937
-28.63,-5.906,-25.083,-10.823,-15.626,-4.77,-0.681,2.573
-29.423,-9.924,-21.974,-29.911,-16.867,-22.759,-8.993,-17.154
-18.632,-2.791,-10.22,-22.484,-11.148,-12.337,-5.887,-16.47
-3.929,11.102,3.274,15.784,0.796,29.901,6.434,11.111
2.591,18.41,12.642,53.419,10.209,71.679,14.391,31.022
-5.669,10.252,5.853,43.659,5.343,60.461,8.72,16.938
-22.168,-6.591,-15.092,-9.661,-10.772,-0.996,-5.089,-10.797
-30.979,-15.447,-26.487,-44.461,-19.069,-41.186,-12.427,-19.704
-24.423,-9.394,-16.876,-32.847,-9.944,-27.68,-7.086,-11.071
-11.028,3.245,-1.293,-8.326,4.349,-0.746,3.255,-2.758
1.174,15.718,11.326,15.271,12.937,24.192,11.878,8.83
14.969,29.053,28.593,50.43,20.994,64.023,18.677,29.831
28.679,39.225,45.266,68.582,30.795,83.452,21.82,43.366
29.926,37.825,41.679,38.643,31.1,45.048,19.159,37.596
14.944,26.017,17.111,0.318,16.013,1.09,13.01,22.286
-2.106,13.639,-5.412,-1.253,-2.641,5.287,6.882,8.033
-7.323,7.552,-11.413,10.677,-11.189,21.642,4.056,2.049
-3.224,7.072,-9.117,6.49,-10.359,13.31,5.786,7.789
0.637,8.117,-7.594,2.275,-7.575,6.653,8.683,15.054
2.031,7.421,-5.121,9.668,-5.919,17.143,9.659,14.398
3.732,3.866,-1.821,11.744,-6.113,19.838,8.289,10.387
6.013,-0.352,-1.828,1.585,-8.333,5.346,2.818,5.849
5.398,-3.518,-5.536,-9.857,-11.172,-9.995,-5.986,-2.39
-0.241,-7.418,-9.767,-16.709,-13.109,-16.817,-9.779,-8.764
-7.628,-12.813,-11.839,-19.838,-14.445,-17.645,-5.102,-5.64
-12.607,-17.698,-11.454,-17.222,-16.138,-13.528,-2.924,0.119
-13.043,-19.109,-8.344,-8.224,-15.987,-4.629,-9.751,-1.573
-8.03,-15.527,-3.227,-0.702,-11.661,2.38,-14.706,-7.464
-1.736,-10.97,-0.982,-2.061,-7.542,1.443,-10.771,-9.885
-0.844,-11.397,-3.806,-8.016,-9.579,-3.495,-7.976,-8.303
-4.389,-14.941,-7.539,-8.621,-15.454,-4.695,-12.417,-4.965
-7.101,-14.874,-12.026,-3.124,-19.289,-1.766,-15.688,-1.931
-9.822,-12.327,-21.628,-3.097,-22.235,-3.505,-15.587,-5.285
-12.904,-12.199,-29.997,-13.43,-26.417,-13.711,-20.011,-17.424
-9.174,-9.884,-22.661,-20.607,-23.808,-21.023,-24.062,-24.951
1.971,-1.051,-1.3,-14.498,-8.821,-16.594,-14.236,-15.728
8.077,4.433,13.413,-4.881,5.807,-9.191,3.827,-2.307
1.617,-2.646,9.795,-3.885,6.151,-9.365,11.028,-1.926
-10.26,-15.11,-2.063,-8.081,-2.926,-12.553,3.195,-8.66
-17.131,-21.17,-9.279,-8.392,-10.232,-10.601,-8.386,-10.806
-18.7,-20.797,-12.819,-6.351,-14.894,-8.169,-15.504,-12.348
-23.377,-22.705,-20.542,-9.855,-22.112,-13.633,-18.382,-18.741
-29.525,-27.879,-27.755,-17.11,-29.779,-21.84,-19.493,-23.473
-23.982,-27.003,-21.02,-16.028,-29.297,-18.982,-19.362,-19.171
-10.641,-19.637,-9.042,-5.34,-23.877,-5.236,-18.805,-11.782
-11.285,-18.096,-16.417,-1.558,-27.313,0.383,-20.309,-13.542
-27.063,-25.949,-38.837,-13.743,-37.84,-13.069,-23.04,-22.758
-35.053,-32.67,-47.435,-28.778,-39.534,-31.89,-22.262,-26.975
-30.46,-33.405,-37.293,-32.306,-31.666,-38.614,-17.853,-22.954
-30.376,-33.956,-28.356,-24.111,-27.394,-29.659,-15.769,-17.201
-33.363,-33.029,-24.391,-8.985,-26.237,-10.941,-16.607,-12.802
-22.767,-23.438,-13.154,4.292,-18.461,3.422,-14.468,-8.052
-5.622,-11.972,0.577,4.126,-9.603,0.571,-9.354,-5.575
-3.748,-11.866,-0.06,-10.341,-11.605,-16.899,-7.396,-7.882
-16.972,-20.727,-15.364,-30.241,-22.126,-38.735,-13.309,-10.839
-28.689,-27.922,-31.831,-45.989,-32.507,-55.32,-26.104,-15.529
-33.094,-31.466,-40.892,-48.812,-39.297,-56.407,-35.196,-25.529
-33.798,-32.91,-40.718,-36.887,-40.395,-40.978,-31.055,-32.537
-30.55,-30.531,-33.881,-21.311,-35.293,-24.609,-20.426,-29.986
-23.304,-25.466,-27.324,-14.573,-28.519,-21.232,-15.622,-25.314
-17.97,-22.345,-24.615,-15.857,-24.307,-25.15,-15.607,-22.672
-17.325,-20.991,-21.511,-15.688,-21.449,-22.931,-12.162,-15.488
-16.81,-18.188,-15.335,-10.172,-18.052,-13.335,-6.327,-5.332
-15.497,-16.777,-11.562,-5.765,-17.049,-7.854,-5.479,-5.537
-17.184,-20.583,-13.868,-8.137,-19.914,-13.377,-9.479,-17.802
-19.615,-24.613,-16.53,-12.008,-20.968,-21.167,-11.591,-27.025
-17.96,-22.65,-14.529,-11.992,-16.926,-22.211,-10.72,-24.915
-14.86,-17.287,-12.066,-11.961,-12.627,-21.198,-11.25,-18.398
-12.732,-12.52,-12.105,-12.812,-10.25,-21.839,-12.224,-13.509
-6.989,-7.646,-8.496,-10.444,-5.895,-19.835,-8.871,-9.266
1.226,-4.323,0.481,-8.947,-0.323,-17.653,-3.006,-6.317
4.301,-4.301,7.353,-9.899,2.132,-16.81,-0.67,-6.939
3.668,-2.271,9.588,-3.526,3.103,-8.513,-2.435,-8.792
6.083,4.507,11.653,7.877,5.951,3.475,-4.08,-8.025
12.752,10.981,17.752,10.995,11.03,5.723,-2.606,-4.942
21.313,14.986,26.455,7.031,17.662,1.09,1.747,-2.563
24.809,16.396,27.152,2.751,19.802,-3.484,4.138,-2.664
16.549,11.772,14.896,-0.405,11.354,-7.014,-0.505,-4.71
3.186,3.777,2.91,1.094,-0.505,-5.405,-7.805,-7.759
-3.587,0.416,2.278,0.339,-5.086,-6.601,-9.049,-10.285
-3.383,1.079,5.785,-13.421,-3.96,-22.004,-5.23,-10.122
-2.855,-1.312,1.921,-24.87,-4.673,-33.304,-4.433,-9.043
-4.872,-7.794,-8.588,-16.511,-8.89,-21.587,-8.453,-9.529
-7.151,-12.18,-14.848,-1.807,-12.236,-4.028,-11,-7.9
-6.54,-10.568,-12.011,2.707,-11.855,0.251,-8.475,-3.454
-3.221,-7.073,-6.777,0.864,-10.144,-2.701,-4.927,-3.857
-0.575,-6.843,-4.776,-0.626,-9.619,-4.702,-4.27,-9.96
0.085,-7.833,-4.692,-1.713,-9.117,-7.514,-4.702,-12.541
2.721,-5.397,-3.836,-1.681,-6.901,-9.994,-3.273,-8.204
9.628,-0.904,-2.23,0.15,-3.481,-7.976,-0.457,-2.085
14.337,0.049,-1.698,-0.319,-0.759,-6.152,1.737,1.918
12.271,-2.884,0.123,-2.621,1.155,-7.55,2.488,3.941
11.079,-3.328,8.333,1.433,4.355,-2.917,2.729,6.476
15.636,-0.16,18.362,8.508,7.307,6.157,3.636,10.4
15.979,-2.611,15.786,4.145,3.525,2.385,2.017,8.19
6.34,-13.366,-1.615,-11.464,-6.864,-16.198,-5.385,-5.18
-1.281,-19.945,-13.508,-22.262,-12.653,-30.996,-12.868,-16.498
1.2,-17.12,-7.455,-23.456,-9.063,-33.707,-14.997,-16.528
6.039,-14.19,1.9,-25.747,-3.95,-35.258,-13.392,-15.717
9.899,-11.871,4.424,-26.247,0.256,-35.149,-7.114,-15.499
18.391,-3.013,10.619,-10.617,7.994,-19.561,3.522,-6.085
29.378,7.693,24.002,12.451,16.185,3.513,10.445,6.223
32.961,8.999,30.216,20.583,17.275,12.347,9.309,7.646
25.487,-0.635,20.368,11.788,10.587,5.348,4.945,-0.955
14.503,-11.822,5.099,-0.012,3.455,-4.967,3.441,-8.272
10.118,-14.701,-0.072,-3.928,3.452,-9.324,6.29,-7.279
12.789,-10.088,6.667,0.851,9.21,-5.542,9.601,-0.162
13.422,-8.397,11.965,3.673,11.163,-2.354,8.216,6.424
7.121,-15.569,4.488,-5.516,4.101,-11.445,0.884,4.118
-0.619,-25.943,-8.364,-22.009,-5.409,-30.395,-8.856,-10.193
-3.935,-31.173,-13.094,-30.218,-9.457,-40.354,-15.454,-24.738
-3.688,-30.417,-11.325,-24.507,-9.751,-31.965,-17.036,-28.288
-1.536,-27.687,-10.541,-18.18,-10.034,-23.604,-15.785,-26.011
3.618,-24.147,-9.026,-19.354,-8.257,-28.561,-12.254,-23.139
8.92,-20.829,-4.259,-19.085,-4.717,-32.603,-7.34,-15.843
8.464,-21.28,-0.307,-11.968,-4.84,-24.33,-4.502,-5.286
4.912,-23.479,-0.439,-4.942,-7.892,-13.06,-3.295,-0.037
5.921,-21.704,-2.459,-5.742,-6.856,-11.404,-0.382,-3.216
10.486,-18.019,-1.639,-10.191,-0.927,-16.672,3.296,-6.786
11.632,-18.953,3.643,-7.68,4.135,-15.628,4.399,-3.455
5.754,-26.258,6.633,-2.961,3.483,-9.549,1.705,-0.481
-3.23,-36.187,0.184,-9.077,-3.541,-13.413,-3.018,-7.691
-4.597,-40.676,-6.711,-17.165,-8.579,-22.465,-4.404,-15.173
6.275,-34.414,1.335,-7.529,-0.886,-14.752,1.613,-6.251
19.579,-25.492,16.745,10.355,12.898,3.601,9.242,11.011
23.789,-26.959,16.93,8.247,14.872,1.388,8.815,14.718
17.615,-36.842,2.916,-11.099,5.093,-20.628,2.618,5.517
7.157,-42.538,-4.146,-18.335,-0.464,-28.951,0.612,0.03
-1.764,-42.23,-1.088,-9.371,1.166,-17.363,2.187,-0.858
-6.232,-42.935,0.093,-5.321,0.548,-10.678,0.615,-4.74
-3.427,-43.01,1.438,-5.853,-0.886,-11.033,0.154,-6.649
5.552,-38.581,9.531,4.22,3.973,-1.788,6.474,-3.858
9.125,-38.761,13.045,12.022,7.382,5.758,9.979,-7.21
-1.389,-49.881,-0.008,-2.635,-2.22,-8.38,1.837,-17.803
-14.29,-57.512,-16.963,-22.811,-16.086,-28.065,-7.717,-20.046
-11.709,-46.795,-15.362,-19.827,-14.744,-25.584,-4.991,-8.6
4.039,-25.942,3.678,-0.593,1.82,-7.55,7.177,2.721
14.09,-13.713,15.921,5.984,12.031,-1.434,14.712,2.777
10.322,-12.796,10.551,-3.517,5.194,-9.827,11.848,-3.329
4.006,-9.396,3.629,-6.154,-3.282,-10.655,7.76,-4.341
3.869,1.142,7.204,3.613,-0.463,0.402,10.12,2.551
5.665,8.559,13.163,10.401,5.574,8.265,14.927,13.114
7.321,9.789,12.839,13.2,6.212,12.26,18.372,24.287
10.939,11.525,8.451,20.397,4.605,19.312,21.652,31.105
12.562,13.841,3.495,24.22,3.257,20.927,22.342,26.541
9.227,13.474,-2.098,14.455,0.044,8.643,16.762,12.658
7.309,15.362,-4.598,-0.337,-3.003,-7.371,9.122,0.784
10.829,24.45,0.175,-6.553,-2.106,-13.598,5.835,-4.562
14.19,35.909,6.878,-3.646,0.757,-9.666,6.201,-9.498
14.651,44.917,10.212,3.424,4.214,-0.29,9.082,-13.227
15.869,52.764,12.531,13.114,9.468,11.345,15.978,-7.04
17.689,58.994,13.63,20.797,12.452,18.177,22.137,5.044
17.763,62.257,12.905,18.603,10.809,14.162,22.617,10.534
18.846,65.847,16.201,10.035,11.146,6.292,22.066,9.77
22.272,70.752,21.929,7.297,15.063,5.38,23.412,9.241
22.581,71.781,19.414,11.353,14.814,9.427,21.912,8.106
20.655,70.396,13.239,17.9,12.621,14.534,19.592,8.891
25.287,74.886,18.838,27.46,19.302,22.981,24.253,17.195
32.445,81.066,30.696,33.438,29.307,29.346,30.698,24.603
29.681,77.587,31.651,28.701,28.139,26.462,28.033,20.574
20.049,67.454,23.619,19.415,19.023,18.911,20.59,12.335
16.157,61.462,18.032,14.858,14.777,14.9,19.914,11.926
20.558,61.81,18.15,20.168,18.514,19.821,27.581,19.656
25.85,63.258,22.61,33.706,25.448,32.028,36.526,27.304
25.692,60.082,25.851,40.82,28.706,37.196,38.932,27.078
22.082,52.11,22.976,30.493,25.418,25.815,32.909,19.168
21.093,45.348,19.074,13.629,21.457,9.296,25.245,11.902
22.598,42.514,20.23,5.846,21.985,1.959,22.901,12.215
22.733,41.108,24.076,10.553,24.601,6.758,25.733,19.145
21.636,40.621,25.459,23.267,25.774,20.547,29.166,25.817
20.882,41.631,23.124,33.692,24.961,33.476,29.273,26.739
21.745,43.581,23.072,34.771,25.535,36.765,28.578,25.112
25.458,45.508,31.161,32.949,31.032,35.235,31.958,26.943
30.669,45.824,40.851,35.341,37.839,35.988,37.076,31.044
36.766,46.023,44.068,39.314,41.764,37.652,41.353,35.555
42.482,47.28,44.313,39.449,44.064,36.517,45.845,40.509
40.071,42.753,43.307,33.441,42.397,31.064,45.309,39.303
27.153,28.841,36.249,26.406,33.538,25.952,35.319,28.31
16.611,16.476,28.098,26.481,25.493,27.718,24.895,17.099
19.713,16.244,30.614,32.837,28.657,33.507,25.04,15.212
29.381,21.977,41.173,37.018,38.674,35.632,32.6,20.748
31.263,20.596,44.532,31.71,42.139,29.747,35.651,25.117
25.405,12.475,35.811,20.528,36.197,19.432,31.316,25.039
23.842,8.479,26.699,18.389,30.865,17.547,28.232,27.34
29.989,10.547,28.337,30.239,33.422,30.138,32.026,36.197
35.851,12.059,37.045,43.569,39.944,46.23,38.284,41.435
36.358,11.125,41.374,47.366,43.116,51.352,39.54,33.163
34.612,10.083,39.183,41.71,41.893,42.764,34.614,20.746
34.897,10.117,37.667,34.768,40.18,33.156,29.552,18.852
37.266,11.591,39.722,38.962,40.6,39.416,29.432,25.899
38.663,11.707,41.627,51.615,41.505,55.584,31.827,29.748
36.438,5.368,40.196,47.401,39.198,50.834,31.086,25.751
30.796,-5.48,34.938,21.54,34.102,21.187,27.062,22.097
23.622,-13.937,26.89,3.419,29.695,1.105,22.813,22.606
16.951,-18.863,19.747,3.36,26.666,1.647,18.776,19.343
13.366,-21.024,17.491,7.171,24.665,6.174,16.991,13.965
13.8,-18.124,18.717,16.787,24.225,17.437,19.716,17.061
16.34,-11.667,19.779,37.787,24.409,42.24,22.542,23.768
18.117,-8.152,19.748,51.497,22.811,58.672,21.468,21.578
18.039,-10.348,19.533,39.429,19.613,44.048,19.793,14.879
19.203,-13.009,21.464,16.977,19.857,15.835,21.506,18.158
22.987,-11.313,24.707,11.705,24.825,8.417,26.078,30.818
26.098,-7.627,25.349,22.153,28.066,21.724,29.997,37.409
28.041,-5.239,25.094,28.624,26.914,31.374,29.161,31.165
29.168,-5.152,26.798,26.405,24.854,30.357,22.267,20.466
28.634,-6.879,27.463,24.124,24.315,28.082,14.748,15.246
30.047,-6.539,26.226,26.402,26.015,29.74,14.046,17.922
35.767,-1.722,28.088,32.848,29.516,35.708,19.391,24.505
42.005,4.497,35.095,41.123,34.657,44.597,24.982,31.595
45.124,7.637,42.074,44.261,41.239,49.831,29.319,36.657
43.914,5.067,43.408,38.925,44.74,47.173,31.871,33.311
39.054,-1.579,39.512,34.407,41.707,43.634,30.906,24.202
34.83,-6.308,36.64,37.962,38.321,45.264,29.988,25.316
34.997,-6.148,38.851,39.892,40.136,44.327,32.229,35.021
35.624,-5.339,39.589,30.051,40.189,33.42,32.397,32.572
31.255,-6.636,33.705,19.563,33.817,23.596,28.113,20.42
26.049,-5.726,29.622,23.911,29.845,29.165,24.526,17.178
25.707,-0.82,31.623,33.253,31.859,40.194,23.17,18.51
26.401,3.067,30.799,29.807,31.475,37.662,22.323,15.542
24.277,4.115,24.458,21.397,27.081,28.139,23.1,18.609
23.161,5.469,20.527,24.054,25.319,29.447,25.108,30.073
25.823,8.089,22.526,32.213,27.157,37.796,25.121,35.83
29.855,12.074,28.069,34.082,30.754,40.261,25.33,35.554
32.398,18.007,35,33.929,37.366,39.831,32.098,43.741
32.985,23.857,40.323,41.074,45.073,46.797,42.307,60.11
32.81,27.58,40.22,50.496,47.454,57.264,43.104,65.418
28.555,26.48,31.336,47.204,38.888,54.766,28.214,46.891
15.577,17.621,15.743,30.381,21.668,37.064,8.04,16.546
2.022,7.7,4.706,15.938,8.408,22.563,-2.13,-3.322
-1.407,6.003,3.401,9.845,5.758,18.718,-3.762,-10.041
0.496,9.86,3.751,7.2,7.089,16.56,-6.325,-12.812
1.473,14.418,2.721,11.844,9.668,17.758,-4.324,-6.509
4.688,19.64,5.043,23.788,16.294,26.665,8.262,13.911
10.367,23.699,11.269,30.466,24.603,33.593,22.525,39.027
15.535,27.623,20.974,32.195,32.744,36.124,32.003,63.596
19.423,34.5,31.763,39.631,40.605,43.244,38.683,83.382
18.725,38.571,34.396,44.182,42.447,47.988,39.454,75.151
13.499,34.89,27.972,33.656,36.689,37.981,27.942,28.777
11.793,31.244,22.502,21.489,31.697,25.54,8.26,-16.978
13.531,32.626,18.691,21.132,29.454,25.201,-7.098,-27.545
10.161,33.107,13.072,22.346,25.572,27.867,-10.443,-16.54
4.892,31.694,10.858,19.65,22.323,27.72,-5.431,-4.292
6.36,32.897,11.707,20.946,20.603,30.058,-4.659,0.964
9.963,34.757,7.644,20.901,15.955,26.958,-14.54,-8.579
6.968,33.437,-0.137,10.375,9.18,12.723,-24.665,-25.996
1.605,31.691,-1.983,0.966,6.488,3.704,-21.415,-29.268
5.162,35.378,8.023,8.321,13.22,13.178,-4.327,-4.965
15.187,43.196,23.597,24.207,25.974,29.436,13.472,31.275
17.31,46.236,29.286,25.973,30.788,30.711,16.515,43.33
11.08,43.462,20.442,12.174,22.098,15.638,4.877,22.356
9.903,43.922,11.523,5.275,13.54,6.191,-3.366,3.469
16.038,48.813,14.838,15.747,17.084,15.515,3.73,16.39
18.141,48.748,23.308,29.128,26.406,31.093,17.832,50.678
11.004,40.875,22.968,29.913,29.246,34.369,23.62,70.667
3.569,34.365,14.176,20.883,23.7,24.427,15.312,51.287
3.679,34.797,8.145,13.248,16.595,14.591,2.572,10.877
5.362,36.466,5.281,8.238,11.554,9.566,-4.419,-11.94
0.037,34.575,-4.461,0.422,4.427,2.137,-11.749,-10.896
-7.779,32.172,-15.935,-5.473,-3.794,-4.376,-20.846,-3.593
-6.032,33.608,-10.037,1.515,-1.463,3.097,-17.347,2.152
2.825,35.907,7.084,11.702,8.986,14.586,-6.979,2.017
2.109,31.74,5.779,4.216,7.196,7.844,-13.526,-13.011
-8.113,24.793,-12.807,-11.914,-6.969,-7.546,-31.312,-36.003
-8.865,26.515,-16.97,-12.268,-10.175,-7.935,-32.387,-40.139
1.36,33.498,-1.817,1.484,1.567,4.759,-15.637,-15.715
4.685,32.352,8.184,11.532,8.148,14.71,-6.647,10.417
0.382,27.48,6.28,10.66,5.722,13.852,-11.236,14.606
2.918,33.078,5.615,4.546,8.747,6.806,-9.853,8.743
7.233,40.66,4.635,2.253,12.688,5.754,-2.25,8.175
-2.874,30.809,-8.108,2.031,1.516,8.137,-8.464,5.066
-20.578,10.673,-23.868,-7.246,-15.53,-2.505,-26.278,-6.171
-24.463,5.385,-23.908,-19.769,-16.194,-18.289,-33.011,-12.683
-11.978,19.064,-9.943,-14.059,-1.387,-11.233,-21.457,-4.187
0.524,33.165,1.627,10.799,10.743,18.172,-5.099,10.389
5.759,38.703,4.907,30.574,14.38,39.344,5.043,17.875
10.178,41.921,5.516,28.751,16.133,34.991,9.305,19.623
15.613,44.804,7.722,15.576,17.977,20.578,9.615,21.881
16.696,43.925,10.232,10.258,17.053,16.903,6.261,21.642
10.68,39.022,8.071,11.691,11.797,18.536,0.392,15.793
1.967,33.7,0.686,8.924,3.612,15.973,-7.03,11.045
-2.073,32.854,-5.902,9.417,-2.94,22.225,-14.731,11.44
-1.898,34.732,-9.7,15.003,-5.723,32.826,-21.699,8.001
-4.932,30.455,-12.524,1.159,-8.344,13.281,-28.775,-4.822
-12.155,19.626,-15.524,-32.445,-13.561,-30.481,-34.307,-15.998
-17.129,13.682,-23.076,-46.5,-18.927,-45.887,-33.597,-14.875
-15.884,18.161,-31.636,-29.029,-19.751,-21.642,-27.376,-6.714
-7.848,27.756,-25.8,-7.682,-13.733,3.876,-20.913,-0.283
6.273,39.396,-5.081,9.932,-3.06,21.314,-13.286,6.415
18.006,50.211,10.406,33.426,6.186,47.38,-3.5,15.747
14.632,48.945,7.858,42.529,5.607,59.614,-2.956,17.26
-0.363,33.367,-4.884,13.031,-5.47,24.385,-17.387,4.661
-9.709,20.752,-14.409,-32.559,-14.646,-31.849,-29.375,-6.042
-9.185,21.442,-17.722,-53.703,-14.076,-55.834,-24.586,-0.945
-6.205,28.418,-15.562,-44.666,-8.434,-41.988,-11.903,9.157
-1.071,37.356,-6.081,-25.588,-1.054,-19.862,-3.342,11.429
6.236,46.001,2.944,-11.733,5.8,-7.028,-1.608,8.405
10.853,47.972,2.813,-6.554,7.984,-3.043,-5.021,5.083
13.048,45.868,2.47,-4.247,8.539,0.074,-7.738,2.258
12.339,46.429,6.422,-2.699,9.241,2.812,-7.091,-0.398
7.002,48.614,4.8,-7.332,6.089,-3.095,-6.619,-1.74
4.361,51.363,-0.109,-13.268,2.697,-11.691,-5.1,1.23
5.621,52.47,-3.034,-13.415,0.114,-12.441,-2.447,3.917
1.472,46.653,-10.899,-16.107,-9.117,-14.222,-6.894,-3.509
-4.019,39.117,-19.607,-26.265,-19.037,-24.496,-16.23,-17.378
2.208,42.196,-14.773,-31.632,-15.123,-30.644,-14.966,-21.228
15.265,53.757,-0.777,-23.839,-2.297,-22.586,-2.791,-10.19
17.637,57.908,4.381,-12.823,1.426,-10.185,2.818,-1.441
10.919,53.192,1.148,-7.911,-2.973,-4.587,-0.339,-4.939
12.192,53.079,3.693,-6.766,-1.057,-4.73,0.255,-9.368
18.023,54.734,7.863,-10.187,2.601,-9.795,0.62,-12.842
13.283,47.184,3.593,-17.523,-2.5,-17.423,-6.326,-20.076
3.003,36.785,-0.24,-16.348,-7.302,-15.837,-8.068,-18.321
-2.066,30.749,1.719,-3.533,-4.92,-2.598,0.192,-2.654
-2.266,25.662,1.462,3.603,-2.359,4.123,5.347,11.201
2.775,23.352,3.078,-1.387,2.472,-2.951,8.835,24.525
12.702,28.551,15.741,0.686,15.576,-2.335,19.899,44.289
19.541,36.131,28.612,13.498,24.807,11.353,24.524,43.321
18.323,37.459,26.412,15.213,17.908,14.863,11.479,13.679
13.338,32.036,13.446,5.647,4.583,8.493,-2.805,-6.477
10.735,26.989,4.026,7.922,-1.265,15.601,-6.024,-8.576
12.308,27.263,5.805,24.861,0.899,35.246,-2.668,-11.293
15.376,29.846,12.165,34.498,3.775,43.116,2.02,-7.79
15.049,29.427,8.156,30.477,1.284,36.575,2.322,6.254
8.846,24.743,-3.527,25.858,-4.886,30.686,-4.597,10.014
-0.368,16.891,-7.532,6.182,-9.311,4.717,-11.143,-4.744
-8.722,7.293,-9.336,-41.173,-12.768,-52.502,-9.825,-17.56
-14.435,-0.751,-18.886,-72.421,-16.648,-84.743,-4.491,-15.365
-15.47,-4.084,-22.567,-59.499,-15.683,-65.259,-1.25,-9.453
-10.311,-2.455,-9.599,-37.018,-7.443,-40.873,0.989,-8.823
-3.137,2.236,4.792,-27.574,0.262,-33.301,3.133,-8.957
-0.974,7.366,5.408,-19.801,0.477,-23.893,3.629,-6.731
-3.254,10.63,0.381,-14.075,-2.598,-15.789,4.497,-4.472
-4.609,10.163,1.353,-18.59,-3.222,-22.125,5.808,-2.382
-2.429,9.524,6.989,-20.933,0.02,-27.394,6.798,6.305
1.915,14.305,11.868,-6.792,6.191,-12.006,11.485,22.844
-1.031,15.955,6.928,6.328,4.726,5.177,13.927,25.756
-16.277,4.154,-10.994,-6.781,-11.452,-7.557,3.492,2.627
-29.283,-9.639,-24.805,-34.274,-26.695,-39.534,-9.609,-19.169
-26.072,-9.557,-19.973,-45.219,-24.67,-53.815,-8.783,-17.647
-12.789,1.504,-5.898,-33.934,-11.92,-41.531,1.693,-8.458
-4.274,10.06,0.937,-19.282,-4.155,-24.204,7.276,-8.064
-7.37,7.713,-2.452,-16.316,-5.79,-19.884,5.216,-11.449
-16.445,-2.559,-7.939,-24.075,-10.022,-27.813,2.228,-12.529
-22.193,-10.732,-11.122,-32.392,-12.612,-36.353,-0.229,-14.312
-23.687,-12.274,-14.742,-33.355,-16.245,-36.863,-5.061,-18.172
-24.849,-10.651,-18.145,-26.35,-20.175,-28.891,-8.162,-18.579
-24.465,-7.91,-16.37,-15.619,-19.146,-17.585,-3.399,-12.177
-21.733,-5.897,-12.48,-13.592,-16.547,-16.744,2.996,-7.251
-21.552,-10.111,-15.459,-31.468,-21.459,-36.417,0.471,-11.873
-26.35,-20.248,-24.498,-53.396,-32.3,-58.342,-8.183,-18.924
-32.102,-27.576,-30.187,-53.957,-39.304,-57.445,-12.915,-18.618
-33.324,-27.053,-29.226,-39.322,-37.961,-41.464,-11.212,-13.299
-30.318,-23.381,-28.47,-32.513,-32.515,-34.337,-7.204,-9.278
-28.322,-22.412,-33.206,-34.346,-29.541,-37.094,-4.266,-7.833
-27.234,-23.429,-36.788,-30.326,-28.91,-33.898,-3.539,-7.583
-23.039,-23.418,-31.166,-19.316,-25.675,-21.948,-4.771,-6.288
-16.167,-20.413,-20.346,-9.792,-19.239,-10.235,-4.556,-2.849
-8.749,-13.043,-11.631,-5.904,-12.609,-6.086,0.858,-0.376
-3.069,-5.626,-6.166,-11.491,-7.679,-15.142,8.035,-1.458
-1.355,-4.765,-4.375,-23.718,-5.467,-30.987,10.369,-3.172
0.482,-7.405,-6.042,-28.895,-5.062,-36.171,8.717,-2.251
6.916,-5.989,-5.222,-21.686,-2.722,-27.211,8.698,0.53
13.501,-0.498,4.297,-8.63,4.521,-13.3,12.566,4.232
16.702,4.209,18.388,3.197,14.406,-0.3,18.391,8.826
19.238,4.565,24.844,5.401,20.529,3.759,22.759,12.712
20.864,0.499,20.737,-3.621,21,-5.501,24.78,16.891
18.988,-4.752,15.719,-10.027,19.833,-13.47,26.06,23.704
14.817,-9.033,14.801,-3.896,17.764,-5.957,26.194,27.589
11.007,-12.749,14.469,6.591,13.45,7.95,24.417,23.103
8.161,-15.916,13.235,10.041,9.981,11.972,22.577,15.104
6.939,-17.378,13.404,5.6,10.473,4.69,21.847,8.453
10.209,-15.886,15.721,-1.167,12.989,-4.903,21.614,3.787
17.359,-12.18,16.729,-7.124,12.655,-11.472,21.097,1.557
21.993,-8.843,15.31,-8.359,8.021,-11.032,19.485,0.327
22.85,-6.027,18.19,2.721,4.95,2.801,18.155,2.425
25.077,-3.613,25.843,17.484,7.483,19.139,19.068,11.803
26.226,-6.413,23.705,9.313,7.783,9.71,18.35,16.286
19.526,-15.754,6.882,-22.336,-0.222,-24.648,12.393,1.808
9.408,-23.55,-7.059,-42.168,-7.345,-45.292,6.761,-15.946
4.482,-24.974,-7.086,-34.082,-7.26,-35.644,4.964,-16.523
5.658,-22.739,-1.19,-18.131,-6.033,-18.196,2.955,-9.469
10.366,-18.518,3.078,-7.024,-5.059,-6.652,1.678,-7.793
13.022,-15.528,3.612,1.973,-1.922,1.811,3.783,-6.201
8.17,-18.755,1.271,4.318,-0.236,2.171,4.7,-1
0.656,-25.662,1.464,-2.764,-1.337,-7.664,1.877,0.239
-3.569,-31.633,3.31,-10.979,-3.619,-17.252,-1.764,-8.094
-8.743,-39.251,-1.436,-15.404,-9.681,-20.473,-4.754,-17.899
-16.766,-49.432,-12.126,-17.741,-18.272,-20.518,-5.867,-17.126
-20.453,-55.441,-19.559,-18.252,-21.329,-19.786,-2.852,-8.309
-16.212,-53.588,-18.426,-17.266,-16.468,-18.762,2.425,-2.612
-9.046,-48.912,-10.793,-17.386,-9.867,-19.736,4.17,-3.608
-5.129,-46.992,-3.93,-16.342,-6.785,-19.95,1.137,-7.55
-6.144,-47.728,-2.753,-7.829,-7.037,-10.667,-1.547,-9.652
-9.973,-49.032,-5.623,3.184,-8.878,3.894,-1.674,-8.174
-13.102,-48.979,-9.428,4.233,-10.555,6.874,-0.803,-4.055
-11.269,-43.747,-9.28,-2.929,-7.884,-3.515,2.549,3.41
-4.514,-34.079,-0.718,-6.575,0.115,-12.329,8.135,12.899
0.999,-28.442,10.509,-2.44,6.243,-10.124,10.095,18.621
1.001,-31.248,12.431,2.797,3.396,-2.937,5.023,14.709
-5.062,-38.776,0.346,-4.053,-7.826,-6.937,-4.401,-3.266
-15.494,-46.308,-17.25,-23.417,-19.278,-24.899,-11.685,-26.366
-23.087,-49.171,-24.738,-33.093,-20.979,-34.251,-11.651,-32.521
-19.4,-42.447,-15.359,-17.858,-11.366,-18.375,-6.097,-18.072
-5.817,-28.035,0.127,5.906,0.311,5.728,0.659,-1.181
4.378,-18.321,5.699,12.372,3.238,10.857,4.051,4.666
1.107,-21.407,-0.394,2.741,-3.343,-0.093,-1.048,-2.67
-10.021,-28.47,-7.306,-1.241,-9.53,-2.593,-10.36,-15.329
-20.167,-30.98,-12.38,3.196,-11.652,4.609,-14.415,-22.523
-28.689,-33.749,-20.803,-1.211,-16.578,-0.256,-14.289,-24.764
-33.647,-38.168,-28.744,-16.215,-23.715,-18.764,-14.951,-26.254
-30.161,-36.816,-29.564,-26.395,-25.559,-30.471,-14.545,-24.134
-20.016,-28.369,-24.724,-25.902,-21.554,-28.945,-10.567,-17.32
-11.252,-19.654,-19.287,-21.523,-16.075,-24.897,-5.49,-10.899
-12.502,-17.513,-19.602,-19.015,-14.313,-23.677,-5.161,-10.634
-25.197,-22.962,-27.694,-17.799,-18.747,-21.481,-11.047,-15.73
-39.185,-29.627,-34.942,-14.544,-24.184,-15.904,-15.576,-17.09
-43.812,-31.677,-33.354,-9.412,-25.337,-9.819,-14.262,-10.99
-38.983,-29.731,-26.395,-6.38,-23.863,-6.64,-13.251,-6.712
-31.328,-26.407,-22.378,-8.678,-23.089,-7.623,-17.887,-12.78
-25.934,-23.078,-23.821,-14.553,-23.895,-11.88,-24.974,-24.279
-24.963,-20.976,-26.488,-18.934,-25.246,-17.014,-28.283,-30.587
-29.573,-21.753,-29.173,-22.525,-26.494,-23.309,-26.966,-32.036
-38.146,-26.147,-36.552,-29.188,-29.558,-31.188,-26.74,-35.585
-45.065,-30.978,-46.269,-33.656,-34.546,-33.765,-30.699,-38.439
-45.171,-30.535,-46.885,-29.448,-35.739,-26.388,-33.381,-34.416
-40.51,-24.783,-37.007,-25.021,-30.953,-20.128,-30.605,-28.638
-38.174,-20.059,-30.465,-29.897,-28.38,-24.75,-27.689,-30.031
-38.868,-18.886,-33.297,-35.844,-32.313,-30.571,-29.378,-36.815
-36.94,-17.312,-35.967,-34.531,-34.822,-29.322,-30.921,-40.009
-31.868,-12.527,-34.365,-31.324,-30.965,-27.392,-26.515,-35.758
-28.047,-6.636,-33.051,-30.085,-25.859,-27.642,-20.084,-28.642
-26.292,-3.137,-31.387,-30.205,-24.408,-27.678,-20.617,-26.407
-24.474,-2.401,-28.026,-32.637,-26.312,-29.22,-27.703,-30.756
-21.995,-1.313,-26.787,-31.252,-28.721,-27.753,-31.34,-33.132
-20.332,1.77,-28.459,-17.526,-28.933,-13.918,-27.565,-27.626
-21.279,4.359,-29.421,-2.35,-26.186,2.587,-21.943,-21.68
-22.961,5.241,-27.952,-4.648,-21.707,0.885,-18.285,-21.841
-21.619,6.436,-24.101,-18.356,-17.08,-15.356,-15.452,-22.168
-19.127,7.402,-18.392,-23.951,-13.081,-24.547,-12.052,-17.013
-20.579,4.822,-14.168,-21.046,-11.122,-22.225,-8.731,-10.785
-24.668,-0.322,-14.032,-18.429,-12.136,-17.178,-8.301,-9.17
-25.257,-2.138,-14.581,-14.065,-12.778,-10.74,-11.315,-10.544
-21.99,0.606,-12.415,-8.821,-9.775,-5.265,-12.474,-10.069
-20.473,1.472,-10.386,-11.903,-6.061,-9.089,-8.629,-7.699
-22.187,-2.249,-11.919,-18.411,-5.754,-16.542,-5.01,-7.342
-22.411,-4.165,-14.684,-12.249,-7.548,-10.767,-4.255,-8.936
-19.049,-0.634,-14.623,1.656,-8.025,4.086,-0.52,-8.28
-16.455,2.572,-12.647,1.394,-7.261,5.332,6.471,-5.634
-16.594,1.413,-12.096,-13.022,-7.105,-9.111,8.569,-4.502
-14.087,0.409,-12.116,-19.817,-7.048,-17.82,4.829,-3.938
-7.807,3.176,-9.397,-12.43,-5.717,-12.215,1.554,-2.518
-7.142,5.561,-6.648,-4.572,-4.931,-4.892,-0.911,-3.075
-16.492,2.986,-11.628,-4.428,-7.974,-4.52,-6.221,-7.169
-26.563,-1.621,-22.642,-7.368,-13.453,-6.641,-12.137,-10.865
-29.272,-2.969,-27.809,-8.558,-16.421,-6.576,-13.579,-10.035
-27.23,-1.964,-25.083,-8.526,-16.823,-5.794,-12.024,-7.885
-24.452,-1.676,-23.856,-7.536,-18.751,-5.042,-13.034,-9.947
-21.071,-0.543,-25.336,-3.587,-21.375,-1.609,-16.295,-14.634
-18.396,2.278,-22.571,-0.041,-20.652,1.58,-17.355,-18.001
-18.838,2.803,-16.808,-4.278,-17.838,-3.303,-16.898,-20.023
-22.53,-1.323,-16.871,-13.788,-17.688,-13.528,-18.496,-20.892
-27.511,-6.656,-23.705,-17.684,-20.261,-17.489,-20.267,-19.364
-29.302,-6.805,-27.073,-12.121,-20.324,-11.324,-18.137,-16.525
-24.707,0.75,-21.767,-3.363,-15.889,-1.494,-14.259,-16.342
-18.625,9.904,-16.699,0.956,-12.062,3.44,-12.884,-18.81
-17.99,13.182,-18.908,-0.152,-12.446,1.348,-12.391,-18.196
-20.195,11.279,-21.67,-2.177,-13.563,-2.101,-9.999,-13.572
-19.682,9.07,-18.946,-3.813,-12.907,-4.055,-8.758,-11.839
-20.155,7.844,-15.231,-8.494,-13.36,-9.038,-11.805,-15.809
-25.071,6.71,-13.941,-15.992,-14.39,-17.734,-14.253,-19.054
-27.635,6.278,-12.875,-19.48,-11.319,-21.582,-11.486,-18.045
-24.005,7.18,-12.479,-16.078,-6.73,-16.965,-8.623,-17.589
-20.048,9.174,-13.138,-11.261,-6.05,-11.637,-9.107,-17.713
-18.15,13.411,-10.2,-7.535,-5.21,-9.065,-7.689,-13.628
-15.232,20.22,-5.829,-2.362,-1.535,-4.144,-3.397,-9.152
-11.969,26.195,-8.327,4.378,-1.679,4.909,-1.655,-8.724
-9.84,28.954,-12.334,10.766,-5.03,13.339,-2.752,-8.03
-8.32,29.727,-7.999,12.734,-3.611,13.545,-3.358,-6.052
-9.443,29.523,-2.874,7.021,0.392,4.112,-3.636,-6.952
-13.765,28.238,-7.18,-0.866,-0.116,-4.67,-4.37,-10.364
-16.525,26.398,-14.397,-4.209,-3.44,-6.082,-4.648,-13.132
-15.123,25.527,-14.829,-4.847,-4.539,-6.002,-4.679,-13.811
-12.534,27.082,-11.085,-4.486,-3.59,-6.978,-5.259,-12.868
-11.639,30.215,-9.418,0.022,-3.321,-3.045,-6.084,-11.729
-12.547,32.132,-9.203,6.587,-4.523,4.541,-7.055,-10.376
-13.044,32.254,-6.631,7.604,-5.536,6.192,-7.867,-7.311
-11.703,31.344,-3.543,2.441,-5.836,0.639,-7.87,-4.033
-12.705,26.818,-7.499,-2.533,-9.257,-4.403,-8.872,-5.277
-18.649,18.365,-17.752,-4.138,-17.063,-5.55,-12.896,-11.409
-22.643,13.17,-22.446,-2.767,-22.324,-4.621,-17.496,-17.238
-20.435,14.069,-18.092,-2.184,-20.491,-5.969,-19.493,-20.447
-19.113,13.513,-15.187,-9.144,-17.371,-14.657,-19.976,-23.236
-22.236,9.264,-19.262,-17.98,-18.577,-22.72,-19.718,-24.893
-21.263,10.555,-20.904,-11.006,-19.004,-13.631,-15.887,-21.664
-12.152,20.425,-11.758,10.185,-12.325,7.264,-8.642,-13.964
-6.322,27.171,-2.206,20.105,-5.85,14.768,-3.776,-5.383
-13.436,21.018,-8.037,6.598,-11.123,0.133,-5.452,-0.141
-25.311,8.219,-23.826,-14.931,-23.832,-21.227,-11.837,-5.625
-29.929,1.213,-31.659,-26.686,-30.75,-32.905,-17.687,-20.864
-27.637,3.216,-28.048,-23.837,-29.944,-29.36,-18.534,-27.897
-22.956,9.933,-20.192,-9.94,-27.811,-14.033,-14.632,-18.426
-17.433,17.827,-12.952,4.061,-26.297,0.681,-10.569,-9.348
-14.383,23.713,-11.475,4.996,-24.921,0.492,-9.731,-11.219
-15.814,23.938,-16.691,-6.778,-24.764,-13.45,-11.149,-13.388
-17.67,19.121,-20.353,-17.981,-25.32,-25.364,-12.393,-11.507
-14.616,17.068,-15.256,-18.372,-23.051,-24.372,-11.875,-13.158
-6.404,24.659,-3.778,-6.455,-15.641,-11.102,-8.083,-14.875
1.056,36.155,5.278,10.623,-7.355,6.13,-1.623,-5.956
3.541,40.971,7.704,22.248,-3.378,17.256,4.464,11.066
3.508,38.589,6.811,24.987,-2.297,19.102,8.002,23.369
2.837,33.856,3.417,20.046,-3.241,13.084,6.754,20.232
0.86,29.357,-3.618,9.958,-8.621,2.986,-0.214,2.112
-0.442,27.39,-9.377,4.293,-15.238,-0.652,-8.105,-14.382
0.58,28.006,-8.866,8.302,-16.924,5.671,-11.937,-17.295
1.402,27.792,-5.415,11.491,-14.442,8.479,-12.662,-16.187
-1.668,24.565,-6.41,6.449,-14.116,0.688,-13.426,-19.197
-8.587,19.546,-12.071,1.484,-18.055,-6.012,-15.265,-19.181
-12.769,17.084,-12.957,2.797,-19.575,-3.898,-15.879,-11.911
-9.59,19.165,-5.652,3.383,-15.023,-1.822,-14.249,-5.56
-5.312,20.775,-0.551,-2.327,-12.172,-6.974,-13.579,-6.566
-4.491,20.486,-2.045,-5.604,-13.762,-10.051,-12.031,-6.71
-0.856,24.859,-0.344,3.991,-10.517,-0.267,-3.889,3.155
6.996,33.519,7.031,19.833,-0.811,15.361,6.154,15.111
10.013,37.114,8.6,26.493,4.216,22.085,8.057,16.256
5.554,32.872,-0.104,22.502,-0.837,19.437,1.811,6.543
2.388,27.377,-7.076,19.678,-7.338,18.409,-5.028,-4.995
5.39,25.155,-2.291,21.67,-6.172,20.151,-7.777,-9.045
8.507,23.981,7.007,20.972,-0.658,17.282,-6.111,-2.066
5.392,19.207,8.503,14.77,0.274,10.854,-2.516,7.233
-2.21,9.005,2.664,5.93,-4.282,4.431,-1.591,7.23
-5.947,-0.653,0.711,-0.343,-6.362,-0.868,-3.534,2.475
1.136,0.087,8.434,5.714,0.244,3.044,-1.571,6.63
15.003,10.847,19.733,23.364,12.38,18.24,7.244,19.812
23.853,19.085,28.098,33.33,21.222,28.468,14.806,29.432
21.634,16.942,31.514,26.607,21.293,25.107,13.178,27.531
12.859,10.783,26.716,19.94,15.691,22.465,7.675,19.122
5.462,8.298,14.908,24.101,11.109,27.862,7.338,14.341
2.808,7.268,6.373,27.515,9.285,28.494,9.615,15.404
2.725,4.203,7.024,23.188,8.555,20.093,8.194,17.636
1.357,1.297,10.017,18.249,8.37,13.409,4.957,19.309
-2.159,0.61,8.811,16.641,8.468,12.969,4.355,21.593
-3.946,1.1,8.39,18.17,9.441,17.358,7.541,24.773
-0.113,2.465,15.165,26.605,12.971,29.243,14.364,31.303
8.034,6.44,24.682,42.785,18.161,47.931,21.318,42.314
13.35,10.085,26.811,53.192,20.023,58.823,20.934,46.38
8.958,5.092,18.853,40.79,14.727,45.331,11.474,31.259
0.018,-6.358,10.411,15.444,6.8,18.66,2.045,8.455
-1.22,-10.842,10.802,8.312,4.582,11.165,0.286,-2.178
4.265,-6.842,14.477,24.113,7.684,27.344,2.331,-2.283
5.736,-5.555,10.955,33.241,8.864,36.079,2.639,-1.532
1.552,-10.402,1.561,18.193,5.645,19.395,2.047,1.602
-3.497,-17.3,-5.418,-5.701,0.687,-5.527,0.702,6.961
-8.412,-24.921,-7.309,-19.45,-4.174,-18.18,-3.31,6.482
-11.502,-30.798,-6.708,-21.319,-7.055,-18.158,-6.782,0.831
-7.758,-29.453,-3.214,-14.39,-4.259,-10.457,-4.475,1.554
1.954,-21.245,5.37,0.691,3.85,4.534,1.227,10.954
8.088,-14.444,13.444,14.924,9.066,18.953,2.205,16.682
4.531,-14.77,11.704,15.121,5.575,19.475,-2.881,10.95
-0.754,-16.544,3.525,4.766,0.85,8.602,-4.487,3.33
3.505,-11.018,2.562,1.317,5.583,3.667,3.479,7.107
13.767,-0.872,12.376,11.316,17.177,12.876,12.859,20.762
18.763,4.841,21.993,26.38,24.126,30.007,13.545,30.386
16.956,4.068,20.794,35.771,20.969,43.232,7.163,25.594
13.687,0.238,10.386,30.456,12.837,39.047,2.358,12.443
12.048,-4.16,1.91,12.301,8.183,17.743,3.191,6.401
13.051,-7.794,2.886,-0.947,9.723,1.009,5.772,10.22
14.398,-11.724,8.35,-2.604,13.149,-1.085,4.463,12.351
11.472,-18.159,8.457,-7.181,13.017,-4.391,-1.099,6.973
6.83,-22.729,4.386,-13.115,10.307,-9.571,-4.871,2.328
7.75,-18.729,6.01,-2.509,11.527,1.216,-1.63,6.562
11.745,-11.067,12.069,14.175,16.464,17.837,3.892,13.006
9.605,-10.739,10.587,10.699,16.226,13.888,1.879,8.884
2.179,-17.444,1.934,-8.155,9.344,-5.768,-7.417,-4.25
-1.573,-22.413,-0.77,-18.697,5.203,-16.942,-13.56,-12.229
-0.321,-22.766,4.394,-14.941,7.128,-13.103,-11.189,-9.117
1.313,-21.082,7.818,-6.263,9.878,-4.061,-4.261,-1.401
3.545,-18.441,8.501,0.001,12.663,1.794,2.555,5.64
7.032,-16.186,12.487,2.088,17.533,3.123,6.561,11.423
7.554,-17.318,17.145,2.509,20.6,4.374,5.726,12.976
4.259,-20.894,14.644,6.393,17.397,10.443,1.791,7.183
3.093,-21.627,8.253,13.418,11.889,17.619,-0.612,-1.29
7.24,-18.289,8.221,14.222,11.699,16.306,0.583,-4.55
12.251,-15.709,13.109,4.454,16.913,6.368,4.492,-0.837
12.583,-17.716,14.631,-6.293,20.47,-2.221,8.139,5.707
7.522,-23.427,12.738,-8.776,18.012,-3.825,6.883,9.325
1.684,-28.111,10.405,-4.933,12.894,-0.245,1.291,7.777
2.18,-26.558,8.771,1.126,11.901,6.178,0.26,6.604
10.373,-19.972,11.203,8.879,16.878,12.725,8.318,11.315
18.371,-16.062,18.526,15.399,22.605,15.67,16.58,17.357
20.252,-18.706,26.281,17,24.448,16.016,16.014,18.565
18.85,-24.474,29.031,15.464,23.076,17.373,10.349,18.333
16.614,-30.401,21.255,12.443,19.196,16.85,7.351,21.752
12.005,-36.352,5.359,5.502,12.038,9.28,6.335,22.258
7.923,-39.724,-3.222,-2.57,6.415,-0.796,3.536,10.952
10.274,-37.65,3.713,-4.088,9.077,-4.191,1.845,-1.912
14.311,-35.522,11.781,-2.642,14.098,-4.176,1.92,-3.117
8.848,-41.01,6.223,-8.222,9.869,-9.707,-2.816,-3.166
-1.649,-48.687,-3.738,-14.011,1.607,-13.322,-9.39,-10.171
-1.781,-47.167,-2.317,-6.812,2.966,-3.725,-6.887,-10.189
8.255,-38.883,6.013,7.999,11.143,11.136,1.484,-0.03
14.726,-35.09,9.251,17.322,14.858,18.769,4.73,5.161
11.908,-38.529,8.652,17.61,13.475,18.433,4.289,3.493
5.6,-43.513,9.437,12.601,11.421,14.018,6.313,6.128
2.756,-45.103,9.384,7.227,9.973,8.432,8.721,12.812
3.342,-43.63,4.233,2.344,8.601,3.28,8.009,13.707
4.012,-42.13,-3.172,-1.619,5.989,0.529,5.75,7.683
6.598,-40.664,-4.541,-0.555,3.242,2.19,4.548,3.906
11.812,-39.142,-0.867,3.841,1.813,5.242,3.461,6.54
13.382,-41.503,-2.008,3.436,-1.24,4.285,-0.198,8.917
10.656,-47.82,-6.626,-2.322,-6.101,-0.257,-3.711,8.06
13.542,-49.166,-1.373,-3,-4.906,-0.545,0.62,13.614
25.27,-40.537,14.677,7.811,6.053,9.344,12.083,26.945
33.577,-31.907,23.549,19.19,16.217,20.494,17.95,26.46
29.464,-33.829,15.731,16.005,15.043,17.916,13.161,4.332
20.318,-41.399,3.41,2.107,7.628,4.458,8.863,-12.642
14.645,-44.908,-0.436,-5.412,4.325,-2.824,10.988,-11.2
12.344,-42.286,5.367,1.514,7.477,3.979,13.32,-7.57
12.773,-36.008,15.312,15.683,14.044,17.733,14.715,-4.633
13.588,-31.64,19.018,22.51,17.825,24.88,16.242,5.458
8.713,-34.951,9.749,14.089,12.411,17.008,11.253,11.686
-0.636,-43.199,-3.546,-1.35,1.263,0.642,-0.701,3.544
-4.399,-46.934,-7.154,-7.917,-4.673,-7.014,-8.027,-7.075
2.13,-41.854,-0.441,1.229,-1.778,3.436,-4.54,-5.613
11.527,-34.024,8.142,17.069,4.246,21.388,3.232,5.087
14.961,-31.683,13.7,24.269,8.846,28.283,7.097,11.824
12.144,-35.874,15.137,16.485,10.925,18.761,5.85,8.848
6.784,-42.976,10.17,1.619,8.355,3.2,3.198,3.837
1.871,-49.164,0.818,-6.257,1.863,-5.039,1.842,5.271
0.449,-50.703,-4.318,-2.325,-2.541,-2.27,0.821,8.86
2.933,-47.608,-2.642,3.722,-1.83,2.368,-0.606,5.101
6.197,-44.481,0.135,2.635,2.192,0.646,1.251,-3.455
6.652,-45.029,1.402,-1.473,7.572,-2.779,7.671,-6.317
3.66,-47.83,4.075,0.676,12.689,0.074,12.868,-1.456
1.477,-47.618,10.706,9.029,17.338,7.697,13.913,4.735
3.037,-42.713,18.421,14.816,21.88,11.994,13.739,7.574
4.288,-38.053,20.85,14.439,24.106,10.574,13.178,7.331
1.458,-37.842,16.59,12.787,21.716,8.768,10.842,5.985
-2.025,-40.087,10.77,10.734,16.178,7.12,8.022,5.326
-1.338,-40.109,9.096,5.805,12.333,2.556,8.014,6.928
1.734,-37.471,12.08,3.17,13.04,0.268,10.821,9.523
1.802,-36.912,12.723,7.466,14.108,5.015,12.248,9.748
-1.327,-40.602,6.715,11.941,10.909,9.593,9.803,6.802
-3.829,-44.867,1.741,7.965,6.906,4.834,5.456,1.949
-5.037,-46.462,4.076,-0.74,6.418,-5.244,2.827,-2.514
-6.432,-45.962,6.932,-3.645,5.551,-8.678,3.19,-3.29
-9.068,-46.076,2.545,-2.907,-1.027,-6.741,3.136,-1.728
-14.343,-48.986,-6.691,-8.47,-10.627,-10.616,-1.245,-3.908
-21.234,-53.038,-14.038,-17.474,-16.577,-19.357,-8.091,-10.947
-25.264,-54.361,-16.458,-21.067,-17.156,-24.017,-11.954,-16.597
-23.407,-51.259,-14.796,-17.708,-14.82,-20.407,-10.154,-14.659
-17.135,-44.492,-10.411,-9.217,-10.511,-9.789,-4.502,-6.257
-11.579,-38.037,-6.104,-2.591,-6.136,-3.111,0.02,-0.092
-12.003,-38.105,-7.493,-7.201,-7.031,-10.634,-0.825,-2.986
-16.528,-43.524,-13.346,-17.433,-11.648,-22.762,-4.582,-10.634
-17.494,-45.019,-13.915,-19.613,-10.692,-24.64,-4.762,-13.176
-14.28,-40.098,-8.897,-13.867,-4.575,-17.963,-1.544,-9.977
-13.162,-35.078,-7.35,-7.779,-2.636,-11.301,-1.375,-8.613
-15.615,-33.113,-9.956,-2.822,-6.019,-6.745,-5.997,-11.024
-18.718,-33.8,-11.858,-0.377,-9.424,-4.659,-11.486,-13.619
-22.023,-38.237,-13.799,-5.452,-11.824,-9.201,-15.58,-15.545
-26.223,-45.212,-17.512,-16.169,-14.75,-20.308,-17.948,-17.213
-28.988,-49.474,-19.109,-21.82,-16.529,-27.643,-17.946,-17.28
-27.328,-48.054,-15.643,-17.846,-14.392,-24.485,-15.989,-15.321
-22.161,-42.967,-11.233,-11.344,-9.871,-17.906,-13.486,-13.609
-17.734,-37.815,-10.559,-8.163,-7.566,-14.917,-12.527,-15.061
-16.967,-34.656,-12.286,-5.879,-9.024,-12.179,-14.715,-19.237
-17.265,-32.473,-11.934,-2.041,-10.855,-6.081,-17.545,-22.188
-14.153,-29.505,-9.773,-1.155,-9.996,-2.016,-16.1,-21.081
-9.605,-27.142,-10.999,-6.563,-8.358,-6.054,-10.548,-16.676
-7.162,-26.226,-13.646,-9.99,-7.557,-11.428,-5.98,-12
-3.293,-22.666,-8.097,-2.952,-3.355,-7.475,-2.957,-7.737
0.976,-16.996,3.054,5.281,4.155,-0.84,0.386,-3.111
-3.506,-17.495,4.494,1.04,5.37,-5.302,0.359,-2.289
-13.465,-22.575,-5.483,-8.688,-1.641,-14.93,-3.062,-6.05
-16.241,-20.882,-13.371,-8.453,-6.621,-14.211,-2.544,-5.831
-11.423,-11.491,-13.018,-0.207,-4.121,-4.689,2.276,-0.264
-6.417,-2.626,-8.912,5.035,1.066,2.073,4.468,2.524
-4.803,1.015,-7.541,5.725,1.646,3.532,2.267,0.76
-7.87,-1.109,-12.258,5.542,-4.187,3.523,-1.46,-3.2
-14.483,-6.797,-18.097,4.562,-10.202,3.521,-5.1,-9.11
-19.868,-12.219,-17.441,0.765,-10.285,1.304,-6.942,-13.213
-20.001,-15.061,-11.589,-6.007,-5.801,-5.717,-4.663,-10.99
-16.707,-15.499,-7.923,-11.893,-1.981,-14.026,0.414,-4.162
-15.373,-15.841,-8.638,-12.417,-1.312,-16.66,3.311,2.781
-16.804,-17.322,-9.377,-8.695,-1.938,-13.51,3.504,7.292
-17.758,-17.895,-8.242,-5.79,-2.058,-10.076,5.027,7.011
-16.508,-15.928,-7.836,-4.616,-2.379,-7.784,6.745,0.276
-11.014,-11.333,-6.485,-0.724,-1.423,-2.945,5.834,-6.878
-1.764,-4.81,-0.819,5.407,3.459,3.578,5.517,-4.685
4.15,0.129,4.116,6.722,8.499,4.573,7.388,4.053
3.971,0.294,3.221,2.62,8.224,-0.711,7.397,7.112
4.609,-1.946,2.068,0.636,5.9,-3.116,5.26,3.702
9.922,-2.24,7.224,4.566,7.818,2.779,5.189,2.88
14.745,-1.076,15.222,10.476,11.645,11.416,6.659,4.46
13.699,-2.26,16.841,12.544,10.014,14.188,5.501,1.721
6.918,-7.982,6.871,6.931,0.093,7.471,0.54,-4.74
-0.868,-16.41,-7.823,-3.715,-13.019,-3.333,-5.875,-10.363
-2.176,-20.075,-10.94,-7.569,-17.841,-6.101,-8.732,-12.559
4.168,-14.777,0.22,-1.221,-10.455,0.653,-5.487,-11.228
9.026,-8.307,7.173,0.769,-3.568,2.966,-0.765,-8.787
8.89,-6.109,1.435,-4.941,-5.51,-1.729,1.711,-3.987
11.425,-1.987,-3.095,-2.443,-7.1,0.816,4.345,4.682
17.38,5.37,0.85,6.196,-3.067,7.91,7.717,8.99
17.517,7.13,3.756,1.617,-1.353,1.791,8.48,3.451
11.058,0.926,1.299,-12.304,-4.911,-12.022,5.991,-3.576
7.754,-4.831,0.641,-16.548,-6.704,-14.717,3.282,-4.715
10.145,-4.785,3.928,-12.466,-3.995,-9.375,3.071,-2.194
11.399,-1.854,4.256,-11.156,-2.054,-7.843,5.664,0.446
11.131,1.822,0.34,-10.411,-3.048,-6.83,8.726,2.067
13.838,6.482,-1.986,-7.114,-5.041,-2.408,7.592,0.525
14.552,8.139,-3.43,-8.403,-9.754,-3.182,0.091,-6.057
8.272,4.385,-7.171,-15.502,-16.023,-11.675,-7.384,-11.989
3.481,1.88,-8.097,-16.64,-15.717,-13.473,-6.434,-8.631
6.371,5.211,-2.884,-7.095,-8.24,-2.153,0.946,-0.1
10.178,8.72,3.124,0.229,-2.396,5.363,5.587,1.653
10.302,7.562,6.261,-3.649,-1.288,-1.479,4.822,-2.136
9.336,4.772,7.28,-9.731,-1.568,-9.297,4.428,-0.056
8.452,4.509,6.567,-8.773,-1.776,-7.496,7.853,8.858
6.591,5.434,3.552,-3.948,-3.202,-1.98,10.063,13.839
3.474,3.204,-3.487,-3.077,-8.054,-0.91,5.694,7.531
1.705,-0.1,-12.015,-7.891,-14.524,-5.203,-0.919,-5.179
4.614,2.792,-13.728,-12.351,-16.17,-9.962,-2.473,-12.462
10.377,11.377,-7.867,-12.557,-11.97,-11.704,-0.181,-9.594
14.804,18.563,-2.212,-9.839,-7.533,-10.142,1.203,-2.303
17.673,22.502,1.316,-3.591,-4.816,-3.435,2.842,4.512
20.8,25.752,5.976,5.036,-1.248,6.778,7.921,9.223
22.759,27.343,9.497,7.827,2.032,10.467,12.674,7.361
19.831,23.864,7.345,1.332,0.973,2.78,10.891,-1.775
12.608,16.399,2.299,-6.478,-2.64,-7.477,5.694,-8.659
6.42,10.322,0.61,-7.752,-2.386,-10.178,5.197,-5.788
5.496,9.854,4.477,0.165,4.486,-1.677,10.595,3.231
10.373,15.343,13.089,16.067,15.212,15.157,17.318,11.257
18.479,22.931,22.959,30.997,24.378,29.542,22.106,15.425
25.503,27.417,27.982,33.877,27.309,31.744,24.237,17.318
27.645,26.469,25.499,24.639,23.251,23.694,23.059,18.207
25.17,22.158,19.714,14.189,16.225,15.017,19.571,17.791
22.132,18.417,15.55,11.348,11.466,12.493,17.315,17.469
19.706,15.907,12.507,15.059,9.51,15.365,16.391,17.322
14.67,11.982,7.915,19.171,6.191,19.07,13.085,13.865
7.103,6.953,3.832,18.934,0.733,19.731,7.58,7.598
3.66,5.646,5.072,14.884,-1.861,16.684,4.514,5.209
7.971,10.111,9.333,10.148,-0.167,11.733,5.843,8.658
14.085,16.247,9.298,3.722,0.927,4.81,8.269,10.456
16.803,20.857,5.26,-3.77,-1.071,-2.733,7.033,5.118
18.956,25.561,3.821,-5.722,-3.441,-5.4,1.546,-2.849
24.164,32.633,7.724,-0.495,-2.237,-1.835,-1.308,-5.762
31.37,40.456,13.865,5.499,3.22,3.975,3.965,-1.852
35.771,43.356,16.336,8.269,7.108,9.616,10.36,2.88
35.281,40.256,13.535,9.96,5.724,13.438,10.422,2.497
35.274,38.106,12.435,11.757,5.843,12.702,10.6,1.555
38.558,38.96,17.268,12.098,11.377,9.162,16.551,8.403
39.138,36.939,21.271,12.848,14.012,9.715,20.392,18.237
33.969,31.613,19.294,15.675,8.899,14.783,15.93,19.033
29.471,29.589,17.883,16.314,4.681,16.329,9.937,12.375
32.398,34.378,23.888,15.07,9.545,14.384,10.57,9.723
40.02,42.156,31.223,18.468,18.108,17.043,15.695,12.518
41.851,44.445,29.016,23.127,18.999,21.762,16.532,11.86
33.323,36.542,19.133,18.741,10.858,18.742,9.696,4.274
22.908,24.432,12.903,6.517,3.462,8.164,2.383,-2.603
18.457,16.486,12.305,-2.272,2.087,-0.721,1.071,-2.349
16.462,12.533,10.34,-3.333,1.215,-3.147,1.664,-0.03
13.009,9.561,6.742,-2.895,-2.355,-3.463,-0.549,-1.196
11.968,9.37,6.53,-3.236,-3.691,-3.594,-1.053,-0.397
16.371,13.569,9.568,2.156,0.158,2.474,5.187,7.468
23.243,19.762,14.08,14.683,6.223,15.703,14.225,16.653
27.275,23.894,18.932,23.045,9.986,24.561,17.432,18.732
23.93,21.948,17.211,16.595,6.762,18.518,11.033,11.416
15.289,15.301,5.518,2.627,-3.434,4.725,1.573,0.972
10.856,12.246,-4.117,-1.721,-11.354,-0.076,-0.625,-2.347
14.734,16.309,-1.266,5.818,-9.55,6.857,4.321,3.681
19.518,20.306,6.273,10.961,-3.655,12.341,6.446,10.483
17.35,17.367,6.804,4.242,-3.73,6.643,1.142,8.487
10.765,11.292,1.558,-7.239,-9.867,-4.541,-5.581,-2.731
8.215,10.473,-0.345,-10.266,-13.301,-7.732,-6.54,-11.646
9.875,14.03,3.427,-3.197,-10.529,0.038,-2.633,-9.271
8.168,14.152,5.449,2.905,-8.157,6.665,-0.523,-3.145
3.456,10.606,2.415,1.265,-9.999,3.576,-2.434,-2.53
3.833,9.867,2.621,-1.501,-9.965,-0.933,-4.382,-3.095
10.507,13.924,11.341,2.333,-3.779,3.368,-3.876,0.052
16.29,19.286,19.24,9,2.341,11.179,-1.516,2.803
16.194,22.36,16.308,10.824,1.445,12.611,2.564,3.276
11.865,21.768,6.921,7.917,-4.6,9.196,6.407,4.839
7.139,18.514,1.115,5.177,-10.068,7.473,6.905,8
5.034,16.251,1.861,5.209,-11.124,8.934,6.91,11.575
6.414,18.103,6.035,7.405,-7.467,11.53,9.935,14.221
8.69,23.306,9.696,10.959,-2.861,14.363,11.467,13.187
10.026,29.772,10.853,15.813,-0.097,18.07,8.671,11.219
10.936,34.396,9.048,17.536,0.941,19.435,5.941,13.212
10.244,33.182,4.505,9.606,-1.172,12.403,3.035,13.247
7.679,28.166,-0.328,-3.425,-6.704,0.211,-4.073,5.105
7.227,26.154,-0.971,-8.318,-10.004,-4.878,-10.526,-1.472
11.097,28.56,4.846,-1.634,-6.197,1.146,-8.124,3.548
15.804,31.081,14.247,6.757,1.19,8.625,0.659,12.31
17.526,30.743,21.138,8.434,4.674,9.164,5.301,13.208
15.669,27.455,19.822,4.109,1.396,4.734,0.977,7.125
11.085,22.207,10.188,-2.984,-4.788,-1.392,-5.989,0.582
6.696,17.851,1.143,-9.24,-7.428,-7.98,-7.554,-2.833
6.787,18.147,1.475,-8.524,-3.875,-9.44,-4.69,-1.907
10.249,22.413,7.139,-0.718,1.166,-2.987,-3.678,2.286
11.277,25.643,8.396,5.623,1.869,4.525,-5.225,5.983
9.414,25.923,6.514,6.825,-0.024,7.998,-4.897,6.228
9.153,25.883,9.215,6.822,0.788,9.047,-1.486,6.095
10.554,27.179,15.502,7.863,5.093,9.444,2.874,11.742
9.683,28.387,18.199,9.329,9.472,9.797,6.202,19.375
7.077,28.167,16.262,9.28,11.035,8.825,6.519,17.253
7.905,28.206,16.271,6.938,12.026,5.386,5.103,7.859
12.805,30.39,22.432,6.524,16.633,3.986,5.786,5.934
16.346,32.396,28.759,9.898,21.991,7.365,7.183,11.215
14.37,29.656,25.166,9.509,20.157,7.595,5.48,11.829
8.518,21.973,14.303,2.19,11.788,0.421,2.002,8.219
5.318,16.012,11.641,-1.421,8.157,-3.374,0.279,7.932
7.799,17.288,20.751,5.714,13.738,3.867,1.767,11.373
9.246,22.214,26.495,16.172,19.077,14.288,4.733,14.382
2.116,23.237,18.585,16.859,15.74,14.05,3.976,11.479
-9.422,19.308,5.737,2.438,7.332,-1.981,-1.899,3.184
-13.91,17.046,1.735,-13.104,2.894,-18.655,-5.736,0.401
-9.295,20.405,6.182,-13.116,4.431,-18.298,-3.149,6.613
-3.377,25.571,10.176,-3.948,6.942,-7.996,1.005,11.94
-0.062,28.955,12.234,0.175,8.046,-3.598,2.785,11.661
1.104,30.61,13.599,-0.657,8.049,-4.458,3.069,9.295
-1.576,29.445,10.7,-1.505,4.76,-4.063,0.931,5.471
-8.475,24.636,2.337,-3.281,-3.078,-4.604,-5.902,-2.164
-14.259,20.55,-5.522,-6.48,-10.713,-8.594,-13.912,-11.109
-12.994,23.63,-5.538,-5.718,-11.209,-9.101,-14.567,-10.764
-6.276,33.923,2.185,2.838,-4.08,-0.023,-6.109,4.434
-3.132,42.435,8.053,10.466,1.945,8.676,0.607,18.78
-8.493,41.585,4.183,5.27,-1.105,3.362,-2.946,13.365
-15.257,35.73,-5.012,-7.616,-9.302,-9.78,-10.049,-3.872
-15.303,32.774,-10.781,-14.215,-14.221,-15.92,-12.559,-12.534
-10.669,33.091,-11.688,-13.025,-15.177,-14.545,-12.546,-10.076
-5.826,34.876,-9.717,-10.002,-14.401,-11.483,-12.046,-5.82
-0.769,38.265,-5.311,-6.526,-11.184,-7.107,-9.434,-3.259
3.209,39.913,-1.454,-3.929,-7.385,-3.636,-7.147,-1.825
2.803,35.75,-1.924,-4.128,-6.992,-4.277,-9.256,-2.616
-0.741,29.13,-4.164,-4.185,-8.272,-5.26,-13.845,-5.698
-3.069,26.116,-3.637,-1.984,-6.975,-2.839,-15.369,-8.841
-2.904,26.939,-1.617,0.18,-4.345,0.333,-11.978,-8.823
-2.86,27.857,-1.039,0.799,-3.9,1.209,-7.711,-3.107
-6.72,25.761,-2.508,-1.675,-6.723,-0.985,-7.577,3.302
-13.567,21.09,-5.402,-10.06,-11.412,-7.802,-10.517,0.598
-17.202,17.833,-8.489,-21.652,-14.391,-18.706,-11.604,-9.368
-15.989,18.189,-13.105,-28.284,-14.556,-27.11,-10.085,-13.961
-12.948,20.665,-19.136,-26.734,-14.667,-27.243,-9.217,-9.755
-7.839,23.847,-19.761,-20.429,-14.934,-20.702,-10.25,-5.561
-1.017,27.24,-12.987,-12.821,-12.869,-12.159,-9.961,-4.695
2.886,29.28,-8.046,-7.653,-9.41,-6.584,-6.412,-2.386
0.718,27.497,-10.938,-9.433,-8.991,-8.858,-5.517,-1.214
-6.477,20.956,-17.131,-18.515,-13.259,-18.969,-12.112,-7.885
-15.97,12.107,-22.436,-30.034,-18.778,-31.083,-19.134,-17.404
-24.098,5.987,-26.879,-35.706,-21.703,-36.822,-19.24,-19.129
-27.219,5.64,-28.468,-30.243,-21.392,-31.39,-16.257,-12.94
-24.638,9.587,-24.253,-19.181,-18.479,-19.979,-14.09,-6.992
-16.847,16.737,-13.466,-10.11,-11.044,-9.947,-9.239,-3.436
-5.772,25.919,-0.271,-1.744,0.498,-0.866,-2.167,1.829
0.41,29.768,4.566,6.198,6.68,7.074,-1.087,5.265
-3.863,22.813,-2.246,5.775,1.41,6.471,-7.544,-0.771
-9.563,12.797,-6.08,-3.849,-5.062,-3.507,-12.308,-11.211
-6.248,9.608,3.76,-12.257,-1.451,-12.987,-9.95,-14.97
0.86,10.09,14.481,-16.686,6.803,-18.428,-4.013,-10.312
1.881,7.334,11.635,-20.799,8.808,-21.876,1.019,-2.46
-1.908,3.756,2.203,-20.717,5.202,-19.852,2.245,1.131
-3.95,4.545,-1.741,-15.372,2.93,-13.683,-0.572,-2.939
-3.321,8.6,-1.564,-13.822,2.771,-13.267,-3.651,-8.928
-2.714,11.69,-2.349,-18.92,1.093,-19.637,-5.065,-11.282
-1.248,13.437,-2.567,-20.101,-1.238,-20.316,-5.614,-9.063
3.023,16.097,0.175,-9.811,-0.466,-7.641,-4.242,-2.749
5.623,18.176,2.6,2.635,1.38,7.402,-1.864,3.326
0.466,16.581,-1.971,2.422,-2.488,7.871,-3.15,2.948
-8.835,14.084,-13.224,-9.321,-11.806,-6.035,-7.854,-4.045
-13.265,16.056,-20.61,-18.131,-16.819,-18.792,-10.301,-10.589
-11.948,20.812,-18.76,-19.039,-13.535,-22.628,-9.544,-11.028
-9.928,23.245,-14.426,-19.186,-8.858,-22.326,-8.529,-6.989
-7.628,24.92,-12.298,-19.55,-6.349,-19.933,-6.949,-3.173
-3.447,29.313,-9.534,-15.242,-2.88,-14.024,-3.661,-1.167
0.688,34.375,-5.193,-9.433,1.18,-8.915,-0.106,0.952
3.664,38.356,-2.737,-7.669,1.783,-8.104,1.191,3.436
7.257,43.58,-2.942,-5.497,-0.52,-5.557,-0.426,3.963
12.946,51.816,-0.836,3.971,0.36,5.557,-1.231,3.164
20.216,61.222,7.338,16.838,7.348,20.483,2.04,4.356
24.258,66.322,15.926,21.328,13.968,25.305,5.339,5.874
19.929,63.115,15.977,11.624,12.844,13.077,3.604,1.871
9.799,54.362,9.108,-3.885,6.749,-5.087,-1.1,-6.407
-0.263,45.141,2.81,-12.378,1.63,-13.465,-5.043,-11.307
-7.234,39.067,-1.397,-12.558,-1.47,-11.887,-7.24,-10.347
-8.006,40.105,-2.38,-10.003,-0.683,-8.097,-6.694,-6.557
-1.49,48.693,1.905,-3.791,4.627,-1.151,-3.915,-2.434
6.21,57.271,5.564,5.427,7.896,8.04,-2.752,0.124
6.564,56.823,1.379,6.482,3.985,7.595,-6.17,-0.799
-0.342,49.521,-6.987,-2.77,-2.699,-2.747,-11.08,-4.184
-5.236,47.286,-10.536,-7.91,-5.141,-6.828,-12.796,-7.356
-4.391,52.557,-9.715,-8.052,-4.585,-5.673,-13.969,-10.403
-4.249,55.532,-11.955,-16.377,-6.571,-14.638,-17.515,-12.275
-8.125,53.609,-16.718,-25.707,-9.485,-25.158,-18.78,-9.467
-11.85,53.163,-17.661,-20.373,-8.648,-19.502,-15.969,-4.788
-11.433,54.848,-13.088,-8.559,-5.1,-7.17,-13.829,-5.92
-6.332,54.613,-4.733,-5.794,-1.262,-5.215,-13.616,-13.243
0.516,53.024,4.024,-9.922,3.377,-9.941,-12.074,-18.606
3.96,52.943,7.251,-12.115,7.95,-11.251,-9.227,-17.831
2.485,54.185,2.927,-10.541,9.183,-8.151,-8.482,-15.883
0.137,55.654,-1.888,-4.088,7.384,-0.012,-9.487,-15.573
-1.155,56.835,-2.114,6.502,5.638,12.4,-9.102,-14.251
-5.276,55.441,-4.964,8.515,2.091,14.827,-8.582,-12.817
-12.414,51.468,-14.088,-5.797,-4.868,-1.921,-10.516,-12.968
-15.617,49.817,-18.155,-20.276,-9.465,-19.97,-13.004,-12.773
-14.235,50.338,-13.499,-21.217,-9.857,-22.291,-14.49,-12.996
-16.381,47.156,-13.589,-19.997,-12.175,-19.462,-16.226,-15.126
-22.788,41.707,-22.405,-25.953,-16.365,-23.1,-16.992,-15.234
-24.653,40.639,-26.28,-27.615,-15.714,-23.501,-13.62,-10.533
-19.213,43.726,-18.571,-17.604,-9.582,-13.165,-6.417,-3.721
-14.302,45.647,-9.468,-7.965,-3.605,-4.459,0.429,4.52
-15.896,45.234,-8.242,-7.419,-1.389,-6.156,3.177,16.491
-17.851,48.152,-9.688,-5.227,-0.817,-5.52,1.93,24.369
-12.277,56.651,-5.594,4.295,0.678,4.732,-2.097,10.631
-5.517,60.811,-2.285,5.325,-1.06,8.014,-9.27,-20.728
-6.442,55.126,-8.6,-7.958,-7.972,-3.831,-16.196,-39.194
-9.498,51.11,-16.041,-16.148,-10.881,-13.201,-15.406,-31.453
-6.023,57.395,-12.898,-7.328,-3.418,-6.751,-5.006,-11.255
1.869,66.556,-2.858,6.49,7.196,6.315,6.425,7.489
5.94,68.365,3.276,8.444,10.26,8.826,6.657,11.159
3.314,62.322,1.627,-3.395,4.916,-3.24,-5.048,-7.385
-0.164,56.088,-3.578,-13.976,-0.369,-14.69,-14.686,-28.187
1.597,56.25,-6.054,-9.564,0.195,-9.975,-11.746,-25.893
8.511,62.213,-1.984,5.669,5.506,6.615,-0.82,-4.274
13.949,65.442,4.102,14.492,10.047,15.544,5.375,10.569
10.555,57.673,1.596,5.189,6.42,4.767,-0.98,1.278
2.151,44.649,-8.907,-13.004,-4.034,-13.819,-13.101,-20.52
-1.005,38.713,-14.42,-21.157,-10.625,-20.25,-18.421,-31.55
0.862,39.724,-10.748,-16.283,-9.346,-14.058,-15.307,-27.18
1.791,40.683,-6.047,-8.863,-4.659,-7.502,-9.006,-14.849
4.048,41.498,-2.65,-3.133,2.075,-2.888,-0.286,2.54
11.391,43.057,5.251,3.234,11.124,4.165,9.561,17.193
19.562,41.522,15.707,9.137,17.788,11.181,13.736,17.092
24.208,36.587,19.344,10.675,19.124,12.203,10.538,7.611
26.441,33.153,14.867,7.433,19.329,7.465,8.283,4.669
28.375,33.667,10.912,5.383,22.173,4.706,13.023,10.117
32.397,37.292,14.723,10.836,26.871,10.915,20.515,17.471
37.571,41.194,21.839,19.898,29.803,21.663,21.966,20.776
36.347,40.434,20.54,20.905,26.773,23.38,14.841,11.438
27.877,35.431,12.325,10.931,20.876,11.844,7.796,-4.778
23.152,33.695,10.43,2.423,20.391,1.363,9.043,-7.174
25.358,36.137,14.504,5.324,23.832,3.861,14.424,4.577
24.836,34.404,14.253,13.542,23.255,12.676,16.42,11.198
19.337,27.15,11.465,18.158,19.999,18.5,15.779,9.381
18.385,23.616,14.255,18.464,21.046,20.282,16.925,10.976
24.634,26.879,20.957,16.78,25.735,18.291,19.458,17.05
27.527,27.389,23.207,12.952,26.779,12.507,18.653,17.384
20.058,18.714,18.894,6.068,21.419,5.401,12.764,9.601
10.167,8.23,14.228,1.304,15.112,2.366,7.092,3.47
7.45,3.933,11.572,4.714,12.367,5.851,7.121,5.474
8.71,1.981,6.632,10.601,10.738,9.675,10.368,9.433
6.532,-3.43,1.281,9.798,8.573,7.675,11.778,8.039
1.288,-10.011,2.52,5.03,9.148,3.863,12.708,5.558
-2.543,-13.494,8.171,7.631,13.227,8.886,16.609,9.283
-3.526,-14.863,9.834,18.935,16.031,22.712,19.932,14.95
-4.01,-18.719,6.525,20.911,13.527,24.845,16.569,13.428
-5.909,-26.011,3.005,3.698,8.909,4.585,9.568,6.908
-7.533,-32.478,0.516,-13.673,8.579,-16.037,6.305,3.96
-7.186,-36.54,-1.614,-14.712,11.379,-17.258,5.087,4.379
-7.587,-41.111,-2.61,-7.871,10.642,-7.559,0.383,2.16
-11.263,-46.431,-2.721,-5.953,5.908,-2.506,-5.411,-3.393
-12.906,-47.793,-1.227,-8.788,3.989,-4.555,-5.839,-6.839
-6.608,-42.669,3.881,-8.675,8.584,-5.751,-0.429,-4.518
1.455,-36.909,9.395,-4.546,13.971,-2.931,4.093,-0.456
1.908,-37.298,10.361,-2.593,13.805,-1.365,3.31,0.658
-1.908,-39.982,9.735,-1.167,11.878,0.768,1.91,1.216
-1.792,-37.421,11.365,6.033,13.588,10.094,4.56,3.845
0.752,-32.946,10.829,12.584,14.651,18.693,7.508,5.411
0.995,-34.518,6.389,7.803,10.813,13.327,6.701,2.797
0.51,-40.691,2.997,-4.193,5.797,-0.925,4.485,-1.781
2.483,-43.992,1.779,-9.776,3.72,-6.748,4.264,-3.427
5.989,-41.895,1.745,-4.623,4.646,0.183,5.709,-1.151
6.681,-39.193,2.647,1.376,5.119,6.465,6.011,1.011
3.302,-39.843,2.166,0.86,2.731,4.148,4.864,2.528
0.704,-40.264,1.191,-0.361,1.57,1.734,6.186,9.255
0.596,-37.92,3.267,2.129,4.675,4.694,9.865,18.152
-1.642,-38.298,5.474,2.473,7.312,5.734,9.008,14.283
-6.813,-44.037,2.165,-3.931,5.448,-0.867,2.636,-1.658
-9.544,-48.364,-3.539,-11.636,2.178,-9.032,-0.699,-8.905
-5.223,-44.337,-1.99,-8.443,3.654,-5.367,3.692,0.024
4.512,-34.114,7.068,9.309,10.574,13.795,10.976,10.617
11.651,-27.553,11.785,25.805,15.418,31.339,14.672,10.86
12.079,-30.009,8.789,25.519,13.984,30.392,13.455,4.125
10.618,-36.037,7.549,14.703,11.247,17.582,11.058,0.47
10.279,-39.191,9.789,7.633,10.941,9.449,11.613,4.112
7.911,-39.529,8.768,7.128,11.824,9.62,15.012,11.036
2.53,-39.466,5.63,8.029,13.173,10.83,18.104,17.499
-0.328,-38.654,7.19,7.979,15.946,9.685,20.304,23.494
3.698,-36.127,12.739,8.231,19.713,8.849,22.416,25.613
9.125,-34.782,15.129,9.245,21.058,9.464,21.439,19.869
9.161,-37.188,13.377,10.379,18.32,10.624,15.877,11.4
7.335,-40.713,12.458,9.581,14.101,10.28,10.326,6.747
8.673,-42.602,10.831,4.246,9.736,5.334,7.246,3.334
10.27,-43.445,4.371,-2.679,5.081,-1.505,4.253,-3.156
10.198,-42.51,-0.152,-2.067,3.673,-0.065,1.766,-9.189
11.896,-37.93,5.617,9.588,8.35,12.809,2.984,-9.236
14.293,-33.828,15.534,19.939,13.935,22.186,7.22,-4.072
12.37,-35.738,18.935,15.765,14.983,15.097,11.05,4.006
7.372,-39.126,15.744,4.867,14.637,2.732,13.153,10.981
3.766,-36.932,10.531,1.716,15.121,-0.286,11.971,7.678
2.382,-31.988,4.419,3.256,12.188,1.051,5.584,-4.028
2.835,-29.516,-0.851,0.374,6.42,-1.491,-0.966,-7.806
4.266,-28.61,-1.245,-4.177,4.442,-4.688,-0.146,-0.931
4.5,-27.228,3.498,-4.082,7.394,-4.192,5.581,3.747
2.837,-26.136,8.548,-0.208,9.946,-0.784,8.391,5.783
-0.266,-27.492,8.149,3.222,7.45,3.416,6.077,9.355
-4.553,-31.914,0.142,3.642,0.781,5.206,2.069,5.209
-7.496,-35.294,-8.128,1.497,-2.873,2.661,1.246,-6.255
-5.701,-32.464,-6.07,0.133,1.581,-0.181,5.362,-8.018
-1.127,-25.101,2.778,2.615,8.675,2.314,11.085,1.382
-0.113,-20.786,5,7.421,9.237,8.133,12.895,4.598
-5.871,-24.299,-2.465,7.983,1.626,8.08,7.229,-4.918
-16.054,-33.146,-12.538,0.311,-8.785,-1.295,-2.924,-16.028
-25.18,-40.677,-19.48,-9.87,-15.512,-11.727,-8.548,-18.644
-27.872,-41.786,-19.994,-12.303,-14.61,-13.688,-3.624,-12.252
-22.804,-35.541,-13.159,-2.744,-6.355,-4.828,9.247,2.267
-13.424,-24.028,-1.762,13.258,5.755,10.532,22.364,21.846
-5.29,-12.1,9.009,26.237,15.7,24.213,27.538,33.101
-3.194,-6.479,13.533,30.475,18.432,29.303,23.15,28.06
-7.242,-10.077,12.284,25.404,16.764,24.69,18.14,19.355
-13.583,-19.788,10.011,15.611,15.036,15.749,17.593,16.498
-19.209,-29.962,5.668,10.029,10.487,11.422,14.629,12.142
-21.079,-34.675,-0.074,13.814,3.854,16.178,8.152,5.852
-17.545,-32.92,-1.31,21.117,1.355,23.58,6.166,4.986
-13.231,-31.392,-0.883,20.973,0.649,22.478,7.393,3.95
-13.444,-35.275,-5.096,10.17,-3.893,9.944,4.466,-3.344
-15.753,-40.654,-9.524,-1.246,-8.043,-2.815,0.098,-7.925
-15.401,-42.506,-9.263,-2.486,-7.786,-3.656,-0.754,-5.853
-15.271,-45.057,-10.488,-0.781,-10.067,-0.715,-2.622,-7.46
-18.604,-52.454,-16.227,-9.105,-17.955,-9.008,-7.415,-13.911
-19.767,-57.713,-17.473,-19.578,-22.146,-20.213,-8.789,-13.693
-16.621,-55.991,-12.125,-18.359,-19.534,-18.698,-7.232,-7.063
-16.633,-53.329,-10.7,-11.505,-18.756,-10.925,-9.287,-5.587
-20.849,-52.8,-15.257,-9.51,-22.084,-9.134,-12.874,-9.298
-22.141,-51.362,-17.665,-9.779,-23.825,-10.108,-12.946,-9.898
-21.13,-50.829,-18.119,-8.2,-23.733,-7.845,-12.47,-8.427
-23.44,-54.367,-21.726,-5.892,-24.184,-4.502,-13.373,-8.701
-26.957,-58.702,-25.569,-3.443,-23.672,-2.687,-11.481,-6.527
-27.766,-60.805,-25.7,-0.663,-22.421,-0.72,-7.902,-0.293
-27.862,-62.315,-24.277,1.092,-22.523,1.724,-8.85,1.96
-27.843,-63.6,-22.492,-0.732,-22.326,-0.256,-13.039,-3.304
-25.028,-63.012,-19.23,-5.443,-20.563,-6.83,-13.636,-7.918
-22.045,-62.413,-17.088,-7.696,-20.688,-9.191,-11.394,-8.002
-23.449,-65.091,-18.622,-6.283,-23.841,-6.022,-12.362,-8.983
-26.551,-69.429,-22.716,-7.264,-26.388,-7.375,-15.614,-10.255
-27.606,-72.145,-28.569,-13.315,-27.635,-15.781,-16.973,-7.676
-27.159,-72.198,-32.106,-17.233,-28.454,-20.744,-17.296,-6.496
-24.777,-68.684,-27.028,-11.242,-26.649,-14.236,-17.438,-10.624
-20.98,-63.664,-17.403,2.566,-22.415,0.723,-15.775,-13.86
-20.038,-62.69,-13.79,12.774,-19.241,12.174,-13.004,-13.991
-23.496,-67.13,-17.866,6.117,-18.764,4.905,-11.168,-14.81
-26.916,-72.091,-21.798,-15.18,-20.191,-18.847,-10.757,-14.159
-26.505,-73.62,-21.473,-30.575,-22.137,-35.34,-12.7,-10.098
-24.805,-73.35,-23.243,-30.628,-24.354,-34.424,-17.532,-8.211
-24.344,-72.783,-28.931,-25.367,-25.854,-28.471,-21.233,-10.999
-22.235,-69.965,-28.298,-20.596,-23.911,-23.876,-19.6,-15.543
-17.523,-65.548,-19.714,-14.226,-19.318,-17.52,-14.87,-18.657
-14.244,-62.875,-14.901,-8.542,-16.508,-11.75,-11.464,-16.038
-13.616,-62.505,-16.8,-8.416,-17.3,-11.791,-10.922,-10.365
-13.041,-63.109,-17.631,-12.758,-19.743,-15.684,-12.535,-11.607
-12.847,-64.187,-16.318,-14.066,-21.114,-15.347,-13.141,-17.821
-14.804,-65.703,-17.266,-8.314,-20.171,-8.387,-10.857,-18.549
-17.411,-67.661,-19.637,-2.879,-18.796,-3.819,-9.91,-16.484
-19.087,-70.464,-21.156,-7.935,-20.006,-10.888,-13.524,-19.721
-20.101,-74.32,-22.028,-22.251,-23.1,-26.907,-18.065,-24.292
-19.254,-76.683,-21.501,-31.416,-24.423,-36.684,-19.399,-21.672
-14.802,-73.521,-19.293,-23.197,-22.255,-27.303,-16.045,-10.823
-9.188,-66.467,-16.879,-5.53,-17.646,-7.873,-8.83,1.18
-7.707,-62.597,-15.031,3.477,-13.46,1.08,-3.533,4.494
-12.859,-65.598,-15.627,-1.339,-13.823,-5.363,-7.022,-4.217
-21.668,-71.151,-20.702,-12.067,-19.038,-16.446,-16.843,-16.408
-25.348,-69.855,-24.759,-16.991,-21.675,-19.83,-20.865,-20.162
-17.935,-59.388,-20.022,-10.25,-16.718,-12.171,-14.062,-15.036
-5.929,-49.895,-10.621,0.325,-10.548,-1.99,-6.251,-10.275
1.027,-48.067,-6.906,6.043,-9.148,3.961,-4.784,-8.077
0.954,-50.053,-9.113,8.431,-8.983,7.364,-5.458,-3.63
-4.481,-54.097,-10.121,8.38,-7.071,7.176,-5.163,0.936
-12.203,-60.96,-8.47,4.971,-5.699,2.402,-5.531,0.84
-16.028,-64.234,-6.209,5.036,-4.777,1.934,-5.039,0.14
-14.378,-59.211,-4.072,11.05,-3.826,8.424,-2.677,3.508
-15.205,-54.722,-6.737,11.924,-7.637,9.139,-3.062,5.422
-21.646,-58.423,-15.691,2.685,-15.692,-0.523,-7.015,-0.172
-24.367,-62.667,-20.385,-7.151,-18.035,-9.818,-8.237,-7.151
-19.346,-60.023,-15.248,-9.487,-12.597,-11.517,-5.476,-6.907
-15.263,-55.918,-10.022,-4.951,-8.433,-7.272,-4.31,-2.835
-16.642,-55.754,-10.43,2.799,-8.001,0.281,-5.571,-0.707
-18.147,-56.043,-9.403,12.085,-5.347,11.291,-5.304,3.063
-15.964,-53.064,-3.103,22.663,0.41,25.361,-3.261,10.451
-13.334,-49.581,2.048,27.482,3.52,31.936,-2.558,13.395
-15.643,-50.657,0.435,15.266,0.083,16.88,-4.423,5.142
-20.82,-54.735,-4.285,-6.473,-6.55,-9.533,-6.64,-9.377
-19.546,-54.274,-5.366,-15.341,-9.494,-20.025,-7.07,-19.054
-9.569,-47.354,-3.192,-7.822,-7.12,-10.628,-5.446,-18.164
-0.484,-40.31,-3.478,0.86,-4.146,0.768,-1.572,-10.714
-0.942,-38.717,-8.026,2.848,-4.868,4.412,2.142,-4.525
-7.069,-40.434,-11.462,3.309,-6.82,4.519,2.553,-0.645
-9.746,-40.01,-9.535,5.934,-5.049,5.473,1.225,4.136
-9.748,-39.39,-7.762,3.521,-2.895,2.6,-1.385,5.847
-12.395,-43.143,-11.84,-5.378,-5.674,-4.877,-6.315,2.191
-13.932,-45.729,-14.323,-5.274,-7.58,-3.447,-7.625,2.68
-8.576,-40.249,-5.93,9.518,-1.616,12.118,-1.055,10.879
-1.665,-33.35,5.334,20.495,5.33,23.924,4.864,14.795
-3.001,-35.559,4.922,14.921,2.854,17.923,1.989,7.952
-10.71,-43.962,-4.178,4.694,-5.047,5.752,-3.717,-1.028
-12.347,-46.478,-6.705,4.303,-5.461,4.489,-2.806,-5.445
-3.172,-39.357,2.136,12.938,4.116,15.194,3.556,-5.021
4.842,-32.986,10.153,22.009,10.9,28.084,6.829,0.495
-0.459,-37.702,4.25,21.083,4.286,28.531,3.136,3.495
-11.854,-48.389,-8.219,5.905,-7.119,9.739,-1.617,-4.35
-14.044,-52.266,-9.039,-8.214,-8.402,-8.274,-1.032,-11.942
-8.105,-47.919,-0.233,-4.648,-1.999,-3.337,2.314,-5.151
-7.159,-45.378,1.105,6.768,-0.718,11.915,2.856,7.245
-15.232,-50.766,-7.597,6.461,-6.892,12.494,-0.482,7.981
-24.473,-59.695,-15.222,-5.175,-12.955,-0.667,-5.171,-1.977
-25.629,-62.994,-13.354,-10.013,-10.611,-6.475,-3.455,-0.03
-16.296,-56.422,-1.169,1.97,3.007,5.227,10.888,28.63
-5.888,-47.268,9.074,14.131,14.429,17.195,21.476,48.717
-5.455,-44.676,2.464,6.432,6.674,9.76,6.544,15.12
-10.731,-45.176,-12.59,-8.63,-9.428,-4.876,-17.116,-36.472
-11.853,-42.148,-17.62,-4.86,-13.135,-0.548,-21.438,-43.304
-10.825,-39.713,-16.206,10.725,-10.123,15.813,-15.819,-24.561
-11.932,-42.048,-19.885,6.659,-12.226,10.887,-14.918,-23.119
-11.389,-43.207,-21.581,-15.116,-10.998,-13.347,-8.102,-22.34
-7.52,-38.462,-10.862,-17.255,0.91,-15.524,7.58,-1.244
-6.88,-34.164,0.697,2.524,9.653,7.588,13.464,13.168
-14.827,-38.549,-5.783,3.939,0.63,11.081,0.086,-4.014
-25.434,-47.397,-21.986,-19.405,-16.141,-13.818,-16.446,-27.904
-26.211,-47.211,-21.621,-28.733,-19.266,-24.762,-17.338,-21.656
-18.194,-36.655,-8.344,-12.34,-10.045,-6.962,-9.47,3.776
-17.709,-30.705,-11.707,-2.56,-9.687,4.845,-13.12,6.726
-27.524,-34.311,-30.406,-14.242,-21.41,-7.913,-26.615,-17.086
-32.918,-35.269,-37.396,-26.059,-27.701,-23.355,-31.107,-33.348
-30.134,-28.939,-31.27,-26.28,-23.64,-25.968,-23.42,-28.1
-27.627,-23.843,-28.808,-24.75,-20.309,-23.09,-17.916,-17.717
-26.725,-23.573,-32.542,-25.866,-23.013,-20.609,-22.796,-17.179
-24.833,-24.804,-35.758,-27.049,-27.509,-19.867,-30.723,-27.137
-25.709,-28.124,-36.589,-29.29,-30.155,-23.295,-32.381,-36.138
-30.622,-33.385,-36.381,-30.432,-30.891,-25.589,-28.551,-32.17
-30.71,-32.114,-32.878,-23.854,-28.322,-17.055,-22.637,-16.549
-20.401,-19.576,-22.927,-10.367,-20.428,-1.145,-13.683,-0.723
-8.906,-6.126,-12.037,0.017,-11.768,7.891,-4.916,6.567
-6.871,-2.714,-8.432,1.962,-9.322,6.498,-4.359,4.664
-12.046,-5.308,-12.675,-1.581,-13.389,1.277,-12.415,-3.333
-18.586,-7.158,-23.811,-10.328,-21.299,-7.805,-21.648,-14.671
-23.899,-9.01,-36.111,-22.734,-28.55,-19.951,-25.344,-23.1
-22.225,-7.73,-34.511,-28.733,-26.857,-24.861,-20.432,-20.943
-10.073,4.208,-17.073,-21.853,-14.354,-17.109,-9.78,-8.809
5.708,24.14,-1.013,-7.424,0.315,-3.03,-1.316,5.428
16.763,40.619,5.655,7.036,10.179,10.33,1.25,13.791
20.758,47.758,8.926,17.064,14.847,19.515,1.533,10.877
15.935,46.262,6.918,15.299,12.445,17.744,0.04,-1.947
3.595,39.664,-3.672,1.492,3.477,4.228,-6.156,-13.768
-4.608,36.707,-9.551,-7.451,-0.481,-5.502,-11,-13.605
0.473,43.317,1.06,-3.058,8.343,-3.116,-5.731,-2.557
11.383,53.091,15.928,0.492,19.376,-1.028,3.76,7.612
16.239,57.505,16.593,-4.532,19.844,-5.552,4.693,7.904
14.289,57.484,5.452,-7.552,12.485,-6.733,-2.458,1.436
10.906,57.348,-1.269,-3.764,7.4,-1.58,-6.616,-1.836
9.548,58.755,3.72,0.328,8.888,2.305,-2.265,3.919
12.937,64.632,14.091,4.887,15.249,5.798,6.531,15.607
20.587,76.155,21.568,15.615,22.631,16.122,12.995,24.734
25.973,85.82,24.466,28.449,27.346,29.744,14.206,24.966
24.714,86.222,24.472,34.265,28.456,36.663,12.761,18.353
19.246,80.155,21.149,30.288,26.618,32.232,11.251,12.839
12.124,73.104,14.19,17.114,21.371,16.554,7.833,11.336
5.024,66.931,7.874,1.818,14.166,-0.616,1.457,10.097
1.909,64.168,6.239,-1.114,9.201,-2.401,-4.45,8.413
4.006,66.735,6.224,9.634,7.306,11.356,-6.336,9.545
6.691,70.45,4.434,15.385,5.836,19.036,-3.836,12.101
6.821,70.037,5.146,5.469,4.943,8.546,0.573,12.071
8.726,68.307,12.584,-3.565,7.388,-2.161,4.278,11.981
15.58,69.808,21.029,2.761,12.516,3.445,7.736,15.148
20.628,70.313,21.055,9.967,15.668,10.792,12.038,17.394
18.684,65.939,13.317,5.843,15.231,6.484,15.088,16.457
