EEG 1,EEG 2,EEG 3,EEG 4,EEG 5,EEG 6,EEG 7,EEG 8
112.117,116.849,112.181,108.477,101.798,109.173,103.667,107.427
118.344,123.11,117.117,112.575,106.768,114.484,108.371,112.564
122.71,127.44,120.589,116.201,109.991,119.166,112.259,115.829
121.35,125.855,118.191,114.521,107.026,117.952,110.697,113.767
121.972,125.591,116.417,113.317,104.534,116.69,108.259,111.709
126.606,129.082,118.253,115.378,105.752,118.497,108.026,111.836
127.951,130.096,118.558,116.66,105.786,119.326,107.634,111.056
122.87,125.429,114.421,114.919,101.722,117.212,104.932,108.062
116.556,119.486,109.544,112.591,97.022,115.067,101.318,105.147
113.709,117.178,107.834,111.954,95.351,114.589,99.485,103.714
113.456,117.913,108.143,112.073,95.601,113.882,99.066,101.963
112.334,117.598,106.455,110.581,93.992,111.14,96.673,98.219
108.812,114.456,102.201,106.98,89.696,107.232,91.958,94.24
103.968,109.83,98.56,102.455,85.327,103.311,88.014,91.757
101.298,106.538,98.123,98.878,83.819,100.12,86.745,89.952
107.238,110.359,103.868,100.895,89.124,101.914,90.657,91.259
121.039,122.182,114.507,109.468,100.141,110.279,98.783,97.714
128.481,129.861,118.718,114.024,104.735,115.27,100.793,100.917
123.803,126.616,112.179,108.407,97.954,110.474,93.105,94.778
121.245,124.656,108.011,104.026,93.257,106.5,87.986,89.057
128.877,132.468,113.809,109.512,98.733,111.906,92.328,92.578
136.212,140.621,120.19,116.269,104.839,118.955,98.182,98.999
133.619,139.349,118.397,114.363,102.754,118.284,98.064,99.093
125.303,132.76,111.541,106.977,95.924,112.428,93.768,93.784
120.431,129.999,106.912,102.571,91.574,108.709,90.689,89.422
118.343,129.558,104.383,100.231,89.11,106.091,89.189,87.115
115.434,127.187,101.836,96.857,86.241,102.232,87.61,85.546
118.284,130.119,105.598,99.894,89.566,104.763,90.457,88.062
127.959,139.821,117.548,111.494,101.382,115.677,100.932,96.077
130.124,141.308,125.477,118.058,109.632,122.027,112.622,104.114
118.445,128.382,121.526,111.953,106.078,116.624,118.529,106.653
103.984,113.162,112.277,101.044,96.83,106.439,117.378,102.026
95.553,105.192,103.69,92.561,88.063,97.926,106.772,92.219
90.62,102.325,93.024,85.849,77.614,91.01,84.563,82.611
85.174,99.944,80.151,79.175,65.264,84.499,61.184,76.078
81.946,98.565,74.609,75.301,59.819,80.563,53.931,71.614
85.827,101.725,82.369,78.565,66.982,83.193,64.186,71.586
95.518,109.798,95.945,88.039,79.884,91.999,78.635,79.249
107.185,120.905,108.207,99.966,92.062,102.91,91.61,91.749
120.512,134.302,120.875,113.484,105.18,114.362,104.865,103.929
132.779,146.434,131.884,126.07,116.602,125.24,113.246,112.402
136.901,150.492,133.754,131.512,118.479,131.131,111.613,115.462
133.568,146.871,129.497,130.41,114.068,131.523,108.145,115.667
132.226,144.027,130.951,131.494,115.66,133.191,113.819,118.277
134.579,144.256,138.611,136.605,123.661,138.298,124.021,123.151
133.218,141.723,141.38,137.87,126.581,139.782,125.589,124.284
128.035,136.253,137.076,133.459,122.401,135.179,118.731,120.5
127.214,134.959,135.563,131.749,121.379,132.471,116.839,118.779
132.355,139.14,140.983,136.54,127.366,136.229,125.541,122.746
136.28,142.023,146.031,141.083,132.504,140.333,134.785,126.495
133.413,138.855,143.436,138.61,129.645,138.089,132.401,123.532
125.501,131.933,134.955,130.715,121.099,130.744,120.165,115.738
121.4,129.067,131.32,126.092,117.738,126.159,114.348,111.453
127.323,134.758,139.575,130.2,126.365,129.627,124.212,115.008
133.728,139.979,147.796,134.663,134.826,133.943,133.358,119.239
127.288,133.433,139.446,127.676,126.344,128.03,121.541,114.385
115.312,122.193,123.343,115.05,109.887,116.425,100.487,103.846
114.821,121.472,121.332,112.061,107.886,113.067,96.448,99.551
123.331,128.988,131.033,117.358,117.87,117.478,105.893,102.181
126.289,131.603,133.411,117.646,120.275,117.644,106.624,101.019
122.013,127.728,125.605,110.791,112.513,111.039,96.426,92.324
117.51,123.696,117.792,104.023,105.158,104.206,87.609,83.16
114.06,120.42,113.019,99.801,100.866,99.796,83.856,78.602
111.019,116.887,109.582,96.972,97.591,96.962,82.48,77.157
111.617,115.984,109.516,96.386,97.805,96.591,83.248,77.36
115.669,118.136,112.889,97.548,102.113,98.035,86.147,78.932
116.254,117.694,114.248,96.71,104.712,97.273,88.499,79.213
110.963,112.174,110.947,92.706,102.089,93.218,87.706,75.973
105.304,105.908,105.837,88.249,96.987,89.033,84.323,70.54
101.053,100.879,100.522,84.373,91.617,85.778,80.803,65.2
94.255,94.323,94.028,79.919,85.271,81.818,78.564,61.459
85.828,86.965,87.824,75.798,79.205,77.866,78.426,60.5
81.674,83.695,85.118,74.011,76.599,76.211,80.456,61.634
80.96,83.86,83.669,72.467,75.398,74.983,80.487,60.943
76.76,80.997,78.126,67.343,70.137,70.122,74.536,55.799
69.603,74.788,70.824,60.955,62.932,63.69,67.156,49.989
66.816,71.494,68.715,59.009,60.777,61.788,64.733,48.845
68.539,71.704,70.927,60.999,62.791,64.367,65.082,51.322
66.443,68.696,69.966,60.702,61.497,64.907,62.994,51.667
56.611,59.513,62.828,54.886,54.286,59.691,58.908,47.315
45.902,50.192,54.512,47.41,46.304,52.425,56.454,42.062
42.082,46.704,50.271,43.263,42.246,48.117,55.376,39.504
43.491,46.929,48.879,41.779,40.542,46.36,52.24,37.512
45.213,47.277,47.84,40.384,39.074,44.815,48.197,33.958
47.122,48.701,47.892,39.424,38.863,43.866,46.511,31.074
48.809,50.627,47.866,38.658,38.531,43.493,44.81,30.256
47.017,48.939,45.256,36.096,35.406,41.617,41.238,29.79
41.482,43.002,40.922,31.636,30.457,37.404,38.64,28.17
34.909,36.481,35.541,26.391,24.566,32.011,36.467,24.698
30.13,32.522,29.901,22.197,18.667,28.111,33.367,20.692
31.212,33.108,29.689,23.284,18.367,29.524,34.628,20.645
38.414,37.206,36.541,29.738,25.173,35.301,41.573,24.784
42.76,38.15,40.415,32.633,29.064,37.06,44.659,25.601
36.836,31.272,34.089,25.967,22.725,29.826,38.525,19.261
26.626,22.147,24.558,16.678,13.043,20.301,29.78,11.722
22.766,19.338,21.171,14.431,9.524,17.898,25.908,9.48
25.507,22.486,23.191,18.212,11.5,22.05,27.722,12.067
26.894,24.533,23.867,19.742,12.047,24.436,30.688,14.919
25.368,24.011,21.756,17.466,9.753,22.953,31.023,15.876
28.26,27.062,23.574,18.902,11.587,24.824,32.559,17.521
35.498,33.424,30.749,25.231,18.96,31.255,38.174,20.952
34.799,32.15,31.546,25.516,19.941,31.685,38.511,20.746
23.127,20.623,20.035,15.616,8.772,22.378,27.419,13.924
15.09,12.401,9.185,7.453,-1.575,14.895,16.289,7.376
19.285,15.718,10.362,9.261,-0.361,16.575,15.915,7.106
24.901,20.959,16.047,13.08,4.846,19.345,20.171,8.783
22.375,19.522,15.693,10.9,4.27,16.201,19.198,6.786
18.095,17.016,12.082,7.012,0.892,12.213,14.161,3.33
16.638,16.761,9.485,5.215,-1.416,10.922,9.331,1.119
11.888,12.583,4.652,1.516,-6.099,7.818,3.982,-2.096
6.123,7.059,0.286,-2.424,-10.526,4.161,1.017,-4.899
10.595,10.925,5.402,1.507,-5.589,7.628,6.625,-1.557
22.135,20.811,16.432,10.53,5.502,15.645,16.18,5.948
25.984,22.945,20.146,12.775,9.535,17.239,18.092,8.952
20.687,16.965,15.438,7.184,5.052,11.717,12.05,5.907
17.29,14.51,12.785,3.98,2.577,8.869,8.634,3.682
20.436,19.861,16.713,7.837,6.831,12.889,12.682,6.019
25.666,26.848,22.66,13.631,13.015,18.465,17.991,9.343
27.917,29.187,25.692,15.794,16.094,20.085,18.214,9.989
25.616,25.981,24.38,13.461,14.982,17.235,14.072,8.407
20.045,19.691,19.59,8.238,10.449,11.965,9.191,5.949
13.716,13.08,14.2,2.867,4.947,7.013,6.925,3.716
8.831,7.787,11.576,0.061,2.209,4.628,9.304,2.592
6.368,4.404,12.357,-0.011,3.413,4.514,14.11,1.922
6.108,3.184,13.877,0.743,5.434,4.746,15.975,1.115
6.598,3.208,13.107,0.31,4.721,4.193,12.427,0.624
6.354,2.906,10.082,-1.85,1.464,3.157,3.494,0.493
4.646,1.901,5.602,-4.59,-3.581,2.017,-15.82,0.374
0.513,-0.306,-0.504,-7.198,-10.631,0.182,-45.849,0.131
-5.236,-4.317,-5.333,-9.793,-15.943,-2.453,-69.252,-0.305
-8.053,-7.375,-5.031,-11.082,-15.126,-4.09,-72.442,-0.793
-5.244,-5.817,-1.023,-9.584,-10.569,-3.194,-64.829,-0.934
-1.241,-1.875,1.301,-7.793,-8.52,-1.741,-60.161,-1.209
-2.081,-1.771,-1.559,-10.036,-11.82,-3.403,-60.312,-2.986
-6.772,-6.324,-7.09,-15.392,-17.136,-7.871,-61.859,-5.734
-9.539,-10.136,-9.979,-19.093,-19.492,-11.606,-63.4,-7.866
-10.898,-12.435,-11.953,-22.274,-21.159,-15.735,-67.427,-12.298
-15.56,-17.102,-18.241,-29.143,-27.131,-23.464,-74.503,-21.347
-18.573,-19.935,-23.068,-34.038,-31.53,-29.037,-75.72,-26.438
-12.804,-14.619,-18.467,-29.509,-26.898,-25.598,-65.891,-20.258
-5.415,-7.655,-11.679,-22.423,-20.417,-19.529,-56.913,-12.407
-4.774,-6.893,-11.185,-21.821,-19.884,-19.011,-57.981,-13.387
-5.412,-7.833,-11.113,-23.641,-19.391,-20.489,-59.63,-17.53
-3.482,-6.759,-7.33,-23.06,-15.369,-20.175,-54.665,-17.943
-5.729,-8.978,-7.301,-24.336,-15.418,-22.302,-52.235,-19.387
-13.293,-15.647,-13.627,-29.263,-21.761,-28.072,-58.809,-24.943
-18.393,-20.336,-18.561,-32.409,-26.327,-31.872,-65.792,-28.653
-19.453,-21.387,-18.7,-32.03,-25.78,-31.96,-64.675,-27.903
-21.551,-23.463,-19.359,-32.88,-25.902,-32.753,-60.161,-27.745
-24.224,-26.849,-23.158,-36.459,-29.542,-35.612,-60.505,-30.952
-22.486,-26.247,-25.2,-38.272,-31.406,-36.807,-63.853,-34.064
-17.396,-20.767,-22.536,-36.211,-28.279,-34.958,-63.431,-33.966
-14.946,-15.851,-19.554,-33.503,-24.842,-32.814,-59.389,-32.206
-15.148,-13.365,-19.015,-31.341,-23.999,-30.661,-55.581,-30.463
-12.322,-9.373,-17.38,-27.044,-22.016,-25.67,-51.863,-27.346
-6.495,-3.789,-13.725,-21.586,-17.978,-19.354,-47.817,-23.353
-4.496,-2.298,-13.066,-20.284,-17.007,-17.598,-46.246,-22.391
-8.517,-6.323,-16.882,-23.945,-20.513,-21.226,-47.505,-25.269
-11.92,-9.365,-19.062,-26.56,-22.483,-23.715,-47.554,-27.625
-9.293,-6.602,-15.459,-24.199,-18.922,-20.922,-44.792,-26.553
-4.219,-1.866,-10.279,-20.34,-13.826,-16.814,-42.171,-24.371
-3.369,-1.723,-9.09,-20.143,-12.552,-16.997,-41.334,-24.142
-7.995,-7.374,-12.137,-24.552,-15.387,-22.076,-41.591,-26.393
-13.828,-14.277,-16.189,-30.508,-19.141,-28.321,-42.979,-30.18
-16.613,-17.768,-17.868,-33.893,-20.625,-31.525,-44.537,-33.247
-16.18,-17.914,-15.908,-33.294,-18.85,-30.683,-43.952,-33.525
-15.252,-18.008,-12.373,-31.197,-15.613,-28.484,-41.403,-31.924
-15.743,-19.9,-10.649,-30.577,-13.755,-27.804,-39.249,-30.849
-16.599,-21.806,-11.201,-31.013,-13.923,-28.261,-37.635,-30.409
-14.645,-20.016,-9.946,-29,-12.637,-26.534,-33.203,-27.826
-8.84,-13.749,-3.738,-22.914,-6.577,-20.782,-24.129,-21.399
-3.039,-7.178,3.859,-15.977,1.445,-13.862,-14.325,-13.859
-1.693,-4.784,7.346,-12.204,5.943,-10.155,-8.563,-9.213
-5.015,-7.411,5.745,-12.752,5.211,-11.242,-7.824,-9.014
-11.856,-14.343,-0.853,-18.299,-0.958,-17.115,-13.094,-14.14
-22.652,-25.172,-13.543,-29.562,-13.391,-27.78,-25.994,-25.156
-34.38,-36.243,-27.952,-42.187,-27.51,-39.393,-41.496,-37.767
-38.949,-40.074,-33.894,-47.33,-33.183,-43.951,-48.146,-43.29
-34.346,-35.208,-28.709,-42.999,-27.783,-39.623,-42.07,-39.104
-29.69,-30.526,-22.389,-38.051,-21.142,-34.92,-32.971,-33.082
-31.558,-32.322,-22.429,-38.955,-20.817,-35.923,-29.605,-31.88
-35.369,-36.392,-24.903,-41.878,-23.282,-38.64,-29.736,-33.167
-35.447,-37.977,-25.593,-42.384,-24.262,-38.737,-29.089,-33.405
-32.86,-38.299,-26.604,-42.266,-25.207,-38.272,-28.337,-33.559
-30.788,-38.798,-29.254,-43.896,-27.336,-39.955,-28.616,-35.033
-30.114,-38.534,-31.555,-46.367,-29.278,-42.916,-28.877,-36.745
-30.46,-37.884,-33.345,-48.349,-31.025,-45.237,-28.741,-37.312
-31.439,-38.528,-36.287,-49.961,-34.006,-46.578,-29.375,-37.373
-32.829,-40.575,-39.792,-51.714,-37.767,-48,-31.174,-38.443
-35.073,-42.986,-42.149,-53.438,-40.442,-50.108,-32.826,-40.301
-38.777,-45.368,-43.79,-54.774,-41.828,-52.126,-33.318,-41.631
-42.867,-47.513,-45.969,-55.746,-43.319,-53.083,-33.372,-42.206
-45.32,-48.775,-48.527,-56.376,-45.573,-53.149,-34.333,-42.745
-46.667,-49.472,-51.078,-57.047,-48.228,-53.628,-36.721,-44.104
-48.896,-50.621,-53.49,-57.899,-50.507,-54.795,-39.283,-46.188
-50.987,-51.79,-54.565,-57.645,-51.225,-54.938,-39.54,-47.257
-50.461,-51.89,-53.453,-55.62,-50.048,-53.288,-36.727,-46.12
-48.135,-51.266,-51.612,-53.489,-48.354,-51.331,-33.105,-43.995
-47.262,-51.297,-51.157,-53.215,-47.941,-50.625,-31.693,-43.226
-48.1,-51.811,-51.754,-54.509,-48.656,-50.963,-32.578,-44.386
-47.517,-50.961,-51.319,-55.335,-48.491,-50.897,-32.702,-45.37
-44.992,-48.6,-49.811,-54.618,-47.134,-49.926,-31.105,-44.955
-42.628,-45.335,-48.016,-52.261,-45.312,-48.203,-29.548,-44.178
-40.142,-40.049,-44.507,-47.927,-41.676,-44.908,-27.357,-42.739
-37.233,-34.02,-39.375,-42.58,-36.333,-40.159,-23.171,-39.372
-36.998,-32.4,-36.556,-39.078,-33.358,-36.655,-19.62,-35.895
-40.476,-36.807,-37.632,-39.12,-34.538,-36.497,-19.561,-35.573
-42.639,-41.764,-38.182,-40.606,-35.443,-37.915,-20.849,-37.78
-39.227,-42.049,-34.261,-40.013,-31.815,-37.769,-19.648,-38.753
-33.585,-39.549,-28.558,-37.411,-26.16,-36.255,-16.553,-37.508
-31.831,-39.376,-26.242,-36.059,-23.886,-35.96,-15.161,-36.69
-34.454,-42.289,-27.924,-37.146,-25.718,-37.292,-16.292,-37.669
-37.11,-44.852,-30.411,-38.872,-28.201,-38.511,-17.92,-39.157
-36.885,-44.518,-31.487,-39.924,-29.008,-39.029,-18.421,-40.002
-34.578,-41.86,-31.345,-40.65,-28.618,-39.482,-17.337,-39.998
-32.27,-39.109,-30.972,-41.621,-28.385,-39.973,-15.515,-39.316
-31.066,-37.414,-30.789,-42.761,-28.676,-40.492,-14.801,-39.074
-32.575,-37.552,-31.78,-44.439,-29.962,-42.109,-16.594,-40.949
-38.089,-41.118,-34.872,-47.243,-32.843,-45.343,-20.009,-44.606
-43.782,-46.536,-37.425,-49.617,-34.939,-48.068,-21.589,-46.826
-44.656,-49.664,-36.235,-49.634,-33.421,-48.415,-19.391,-45.454
-42.499,-50.383,-33.028,-48.479,-30.026,-47.719,-15.823,-42.454
-41.906,-51.364,-31.179,-48.374,-28.056,-47.663,-13.982,-40.859
-43.751,-53.166,-31.643,-50.029,-28.517,-48.554,-14.846,-41.55
-46.64,-54.98,-34.722,-53.467,-31.556,-51.079,-18.524,-44.376
-48.4,-55.331,-39.699,-57.413,-36.164,-54.864,-23.52,-48.482
-47,-52.559,-43.262,-59.317,-39.211,-57.336,-26.34,-51.283
-44.736,-49.164,-44.294,-59.407,-40.029,-58.029,-26.424,-51.602
-46.247,-50.194,-46.188,-60.148,-41.987,-58.878,-27.122,-51.7
-49.629,-53.685,-49.158,-60.097,-44.923,-58.547,-28.344,-52.068
-48.6,-52.376,-48.709,-56.103,-44.166,-54.556,-26.466,-50.03
-43.071,-45.837,-44.382,-50.239,-39.43,-49.397,-22.36,-45.978
-37.794,-40.169,-40.413,-46.587,-35.283,-46.541,-20.316,-43.482
-34.789,-38.455,-38.865,-45.521,-33.817,-45.48,-21.331,-43.637
-33.536,-39.051,-38.337,-45.619,-33.341,-45.14,-23.159,-44.715
-33.47,-39.758,-37.026,-45.897,-32.026,-45.554,-23.693,-45.033
-33.674,-39.728,-34.498,-44.778,-29.62,-45.177,-22.166,-43.682
-32.984,-38.439,-31.468,-41.152,-26.811,-42.306,-19.147,-40.757
-30.727,-34.996,-28.539,-36.314,-24.053,-38.102,-16.086,-37.45
-27.264,-30.16,-25.817,-32.512,-21.42,-34.705,-13.885,-34.732
-25.057,-27.953,-25.079,-31.613,-20.848,-33.632,-13.21,-33.61
-26.653,-30.897,-28.868,-34.603,-25.056,-36.04,-15.285,-35.653
-29.933,-34.826,-34.834,-39.046,-31.617,-39.975,-18.918,-39.537
-30.798,-35.26,-37.872,-41.041,-35.143,-41.653,-20.856,-41.492
-30.64,-35.323,-38.671,-41.355,-36.146,-41.965,-21.379,-41.606
-33.289,-39.01,-41.161,-43.143,-38.657,-44.418,-23.097,-42.885
-36.926,-43.503,-44.072,-45.414,-41.551,-47.978,-25.345,-45.117
-37.692,-45.537,-43.951,-45.615,-41.406,-49.509,-25.885,-46.202
-37.09,-46.931,-42.191,-44.926,-39.758,-49.675,-25.38,-46.642
-38.386,-49.182,-42.084,-45.738,-39.983,-50.637,-25.931,-48.062
-40.854,-50.515,-43.593,-47.854,-41.676,-52.222,-27.817,-50.245
-42.688,-50.418,-45.125,-50.015,-42.816,-53.705,-29.859,-52.168
-44.223,-50.506,-46.001,-51.591,-42.912,-55.002,-30.872,-53.246
-45.844,-50.955,-46.307,-52.174,-42.665,-55.516,-30.606,-53.241
-47.484,-51.235,-47.377,-52.074,-43.725,-55.173,-30.533,-52.729
-49.745,-52.175,-50.283,-52.004,-46.81,-54.645,-31.871,-52.473
-52.326,-53.675,-53.56,-51.76,-49.795,-53.786,-33.572,-52.435
-53.609,-53.876,-55.446,-51.194,-50.933,-52.692,-34.429,-52.463
-53.075,-52.537,-55.988,-50.838,-51.105,-52.367,-34.558,-52.416
-52.063,-51.874,-55.833,-50.929,-51.36,-53.057,-34.42,-52.226
-51.905,-53.359,-55.628,-51.394,-51.703,-54.051,-34.472,-52.449
-52.236,-55.798,-55.895,-51.782,-51.959,-54.426,-34.83,-53.051
-52.005,-57.351,-56.86,-51.918,-52.531,-54.186,-35.523,-53.311
-51.229,-58.02,-58.338,-52.677,-53.85,-54.884,-36.601,-53.433
-49.923,-58.167,-59.043,-53.686,-54.75,-56.591,-36.804,-53.469
-48.35,-57.82,-58.518,-53.599,-54.394,-57.276,-35.48,-52.892
-49.584,-59.228,-59.555,-54.12,-55.331,-57.816,-35.545,-53.082
-55.069,-63.358,-63.497,-56.92,-58.934,-60.434,-38.579,-55.044
-60.432,-66.253,-66.64,-58.895,-61.562,-62.782,-40.745,-56.09
-63.275,-66.437,-67.323,-57.752,-61.729,-61.962,-40.04,-54.792
-66.484,-67.636,-68.618,-55.386,-62.858,-59.091,-39.439,-53.373
-70.441,-70.756,-71.084,-53.049,-65.64,-55.923,-40.06,-52.592
-72.867,-73.195,-72.41,-51.089,-67.332,-53.721,-40.441,-51.711
-74.293,-74.428,-72.267,-50.513,-66.976,-53.398,-40.069,-51.145
-75.368,-74.995,-70.758,-50.169,-64.699,-53.085,-38.201,-50.337
-73.787,-73.516,-66.763,-47.535,-60.093,-50.091,-34.16,-47.771
-68.747,-69.173,-61.016,-43.311,-54.384,-45.371,-29.719,-44.214
-63.213,-64.052,-56.358,-40.463,-50.168,-42.113,-27.041,-41.718
-59.789,-60.706,-54.258,-39.515,-48.369,-41.065,-25.994,-40.521
-58.304,-59.491,-53.811,-38.787,-47.802,-40.534,-25.556,-39.725
-57.493,-58.782,-53.429,-37.768,-47.069,-39.778,-25.231,-39.112
-56.782,-57.489,-52.607,-37.377,-46.132,-39.575,-24.843,-38.875
-55.653,-56.158,-52.038,-37.957,-45.873,-40.145,-24.611,-39.021
-52.783,-54.595,-51.85,-38.477,-46.073,-40.39,-24.683,-39.298
-48.401,-51.968,-51.346,-38.036,-45.637,-39.787,-25.016,-39.589
-45.109,-49.319,-50.511,-37.195,-44.645,-39.476,-25.94,-40.106
-44.29,-47.987,-50.006,-36.57,-44.08,-39.873,-27.102,-40.312
-44.813,-47.29,-49.834,-35.204,-43.917,-39.095,-27.029,-38.988
-46.779,-47.62,-50.346,-33.359,-44.371,-36.969,-26.264,-37.168
-52.583,-52.104,-53.878,-35.054,-47.933,-37.777,-28.291,-38.448
-61.014,-59.88,-60.342,-41.326,-54.602,-42.989,-33.388,-43.089
-66.892,-65.021,-65.026,-46.27,-59.495,-47.237,-36.927,-46.47
-69.316,-66.493,-66.191,-46.874,-60.775,-47.819,-37.666,-46.751
-71.497,-68.736,-66.959,-47.241,-61.626,-48.541,-39.138,-46.954
-73.704,-72.359,-68.24,-49.723,-63.079,-51.498,-41.841,-48.496
-74.042,-73.911,-68.368,-51.861,-63.497,-54.209,-42.959,-49.493
-72.797,-72.614,-67.603,-52.173,-63.049,-54.722,-41.95,-48.803
-71.701,-71.125,-67.396,-52.187,-63.037,-54.137,-40.575,-47.802
-71.511,-71.062,-67.969,-53.072,-63.496,-54.335,-40.099,-48.135
-71.769,-70.82,-68.543,-53.837,-63.713,-55.39,-40.683,-49.374
-71.554,-68.383,-68.207,-53.44,-63.139,-55.983,-41.456,-49.968
-70.76,-65.065,-67.11,-52.838,-62.037,-55.879,-41.65,-49.841
-69.95,-63.345,-65.971,-52.596,-61.04,-55.424,-41.492,-49.731
-68.768,-62.498,-64.016,-50.567,-59.416,-53.219,-40.599,-48.749
-67.443,-61.525,-61.124,-46.208,-56.82,-49.03,-38.701,-46.607
-67.51,-62.272,-59.504,-43.157,-55.044,-46.159,-37.484,-45.576
-67.578,-64.191,-58.76,-42.903,-53.824,-45.975,-37.115,-45.934
-63.611,-62.35,-55.201,-41.641,-50.013,-45.097,-34.862,-44.589
-55.513,-54.783,-48.666,-36.794,-43.603,-41.107,-30.099,-40.663
-46.577,-44.57,-42.06,-30,-37.119,-34.962,-23.902,-35.33
-37.735,-34.105,-35.231,-22.674,-30.148,-27.563,-15.183,-27.065
-30.446,-26.034,-28.442,-16.357,-23.183,-20.929,-5.436,-16.561
-31.469,-27.169,-28.191,-16.625,-22.97,-21.079,-2.942,-12.699
-46.837,-42.868,-41.794,-29.496,-36.747,-33.544,-15.762,-24.028
-71.726,-67.999,-66.566,-52.484,-61.687,-55.395,-41.509,-47.144
-90.662,-87.666,-87.555,-72.338,-82.827,-73.95,-65.303,-68.196
-92.697,-91.34,-91.952,-77.494,-87.425,-78.466,-72.977,-75.941
-83.121,-83.542,-83.437,-70.831,-79.141,-71.698,-66.128,-71.543
-73.032,-73.985,-73.223,-62.11,-68.989,-62.669,-55.646,-62.717
-65.126,-65.307,-64.822,-54.746,-60.563,-54.856,-46.893,-54.065
-58.045,-57.941,-57.473,-48.659,-53.445,-49.113,-40.995,-48.274
-54.671,-55.539,-53.696,-46.237,-49.988,-47.899,-40.141,-47.917
-56.127,-57.487,-53.815,-47.124,-50.133,-49.722,-42.681,-50.537
-55.93,-56.461,-52.469,-45.811,-48.68,-48.472,-42.145,-49.745
-49.663,-49.54,-47.503,-40.269,-43.705,-42.649,-36.796,-44.454
-42.139,-42.064,-43.239,-34.984,-39.369,-37.531,-32.339,-40.274
-38.948,-38.431,-42.454,-33.312,-38.367,-36.637,-32.881,-40.835
-39.107,-37.299,-43.021,-33.281,-38.748,-37.306,-35.697,-43.25
-38.723,-35.449,-41.73,-31.023,-37.312,-35.199,-35.745,-42.676
-36.504,-31.897,-37.528,-25.643,-32.931,-29.706,-31.75,-38.356
-34.342,-28.664,-32.625,-20.441,-27.97,-24.333,-27.292,-33.914
-34.221,-28.489,-30.685,-19.262,-26.227,-22.979,-26.577,-32.927
-34.583,-30.399,-31.663,-21.479,-27.451,-25.263,-29.022,-34.83
-31.128,-29.324,-30.53,-22.232,-26.377,-26.315,-29.46,-35.237
-23.015,-23.208,-24.695,-19.218,-20.518,-23.478,-25.495,-31.766
-15.12,-16.45,-18.554,-15.61,-14.577,-19.866,-21.281,-27.464
-12.357,-13.505,-17.032,-14.359,-13.61,-18.65,-20.964,-25.834
-14.302,-13.572,-19.18,-14.231,-16.407,-18.579,-22.623,-25.915
-15.62,-12.768,-19.928,-12.414,-17.437,-16.866,-21.661,-24.526
-11.822,-8.841,-15.963,-8.2,-13.343,-12.936,-17.144,-20.777
-5.549,-3.897,-10.539,-4.479,-7.813,-9.352,-13.493,-17.806
-4.044,-2.79,-10.858,-5.692,-8.233,-10.297,-16.197,-20.246
-9.112,-7.416,-18.33,-12.4,-15.681,-16.708,-24.767,-28.064
-14.917,-13.711,-26.048,-19.479,-23.166,-23.718,-32.464,-35.236
-16.371,-16.187,-28.04,-21.417,-25.175,-25.708,-34.191,-36.774
-14.049,-13.728,-25.035,-17.304,-22.515,-21.833,-30.687,-33.239
-11.308,-9.754,-20.746,-10.877,-18.356,-15.888,-25.805,-28.28
-9.904,-7.391,-17.361,-6.655,-14.722,-12.045,-22.454,-24.606
-8.415,-5.744,-14.803,-5.281,-11.948,-10.677,-20.58,-22.139
-5.74,-2.959,-13.1,-4.724,-10.369,-9.848,-19.411,-20.364
-3.852,-0.273,-13.38,-4.512,-11.044,-9.103,-19.371,-20.102
-3.364,1.235,-14.517,-4.331,-12.563,-8.261,-19.411,-20.331
-1.527,3.329,-13.317,-2.452,-11.556,-6.108,-17.076,-18.143
1.442,6.077,-10.538,0.614,-8.779,-3.181,-13.315,-14.237
0.753,5.885,-10.885,1.45,-8.843,-2.308,-12.367,-12.857
-5.062,1.073,-15.483,-1.273,-12.925,-4.708,-15.528,-15.102
-9.86,-3.538,-19.151,-3.739,-16.164,-7.025,-18.442,-16.819
-7.561,-1.743,-16.92,-1.574,-13.822,-5.181,-16.682,-14.525
-1.13,4.573,-10.793,3.253,-7.872,-1.09,-11.9,-10.246
2.558,8.246,-6.334,5.641,-3.672,0.542,-8.677,-7.656
3.104,7.796,-4.662,5.655,-2.129,0.23,-7.745,-6.764
4.816,7.506,-2.493,7.022,0.151,1.757,-6.48,-5.402
9.953,10.68,2.677,11.362,5.772,6.361,-2.839,-2.025
16.868,16.517,9.65,17.058,13.376,11.955,2.693,3.12
20.894,20.264,14.099,20.259,18.137,14.699,6.66,6.892
19.46,19.07,13.776,18.988,17.729,13.084,6.57,6.822
16.576,17.16,11.593,16.634,15.656,10.839,4.909,5.285
16.863,19.174,10.2,16.412,14.772,11.05,4.387,4.892
18.458,22.748,8.433,15.995,13.29,10.866,3.085,3.665
18.477,24.566,6.535,13.842,11.125,8.457,0.149,0.864
19.216,26.527,7.482,13.521,11.758,7.855,-0.641,0.499
22.039,29.564,10.357,16.124,14.599,10.662,1.781,3.471
23.213,30.039,10.738,17.708,14.862,12.571,3.262,5.386
21.087,26.907,8.81,17.119,12.524,11.717,2.214,4.804
19.387,24.223,9.25,17.413,12.56,11.286,1.942,4.779
20.566,24.429,13.105,19.377,16.189,13.08,4.175,6.46
22.649,25.958,16.381,20.513,19.296,15.027,6.409,8.019
23.124,26.845,16.319,19.51,19.072,14.841,6.243,8.574
21.763,26.659,14.52,18.21,17.182,13.794,4.723,9.229
20.709,26.758,14.287,19.366,16.842,15.477,4.806,11.393
22.123,28.855,16.777,22.982,19.081,20.068,7.775,15.193
25.099,32.378,20.078,26.499,22.131,23.936,12.035,19.303
27.373,35.353,21.844,28.615,23.739,25.545,15.376,22.543
28.95,37.361,21.731,29.888,23.313,26.412,17.209,24.781
31.129,39.288,21.107,30.765,22.356,27.354,18.423,26.365
33.853,41.278,21.655,31.72,23.1,28.189,20.261,27.946
36.217,42.806,24.065,33.526,26.048,29.406,23.241,30.093
38.003,43.771,26.951,35.684,28.982,31.181,25.902,32.063
40.069,45.055,28.614,36.845,29.999,32.666,26.189,32.587
43.768,48.064,30.154,37.658,30.882,33.935,25.253,32.582
48.5,51.993,33.092,39.699,33.831,35.826,26.066,34.037
51.902,54.164,36.427,42.441,37.703,37.993,28.734,36.631
54.099,55.055,39.95,45.242,41.636,40.263,31.576,38.942
56.783,57.207,44.699,48.639,46.434,43.269,34.263,41.036
58.596,59.259,48.509,50.862,50.179,45.326,36.458,42.812
57.534,58.514,48.125,49.136,49.804,43.719,36.537,42.885
55.847,57.21,45.426,45.701,47.154,40.615,34.552,41.639
56.958,58.926,45.139,45.626,46.831,41.161,33.679,41.803
59.95,62.407,47.366,49.021,49.013,45.386,35.769,44.161
61.523,64.504,48.084,51.653,49.958,48.587,38.269,46.342
61.258,65.18,46.473,51.786,48.754,48.921,38.904,47.229
61.236,66.061,45.943,51.309,48.308,48.943,39.4,48.477
62.002,67.096,47.674,51.769,49.729,50.763,41.336,50.691
61.935,66.845,48.861,52.825,50.687,53.591,43.266,52.385
59.471,64.305,47.329,53.186,49.231,55.049,43.551,52.616
55.28,60.63,44.589,52.414,46.662,54.326,42.805,52.295
52.592,58.979,44.261,51.975,46.352,53.463,43.076,53.011
52.861,59.856,47.118,52.538,48.975,53.375,44.954,54.403
53.911,60.28,50.474,53.152,52.021,53.069,47.404,55.187
55.051,60.033,53.607,54.544,55.026,53.828,50.415,56.631
57.039,60.963,57.042,57.153,58.446,56.331,53.576,59.645
57.469,61.053,58.155,57.782,59.474,56.904,54.113,61.224
54.416,57.872,55.513,54.742,56.787,53.977,51.241,59.674
51.07,54.173,52.954,51.788,54.338,51.652,48.579,58.293
51.151,53.923,53.759,52.783,55.085,53.208,49.036,59.904
54.234,56.834,56.377,57.024,57.101,57.426,51.682,63.33
57.749,59.928,58.296,61.347,58.201,61.481,54.38,66.245
60.347,61.839,59.753,63.9,59.277,63.818,56.24,67.791
62.671,63.687,62.52,65.207,62.084,65.063,57.954,69.051
64.869,65.585,66.097,65.879,65.528,66.019,59.752,70.695
64.819,65.047,67.62,65.029,66.422,65.503,59.841,70.923
61.337,61.066,66.753,62.678,64.714,63.114,57.805,68.892
56.095,55.754,65.702,60.451,63.182,60.825,56.523,66.986
51.103,50.96,64.822,58.776,62.342,59.327,57.448,66.814
47.684,47.236,63.799,56.884,61.502,57.33,58.262,66.985
47.519,46.065,64.756,55.452,62.389,55.512,57.558,66.32
50.817,48.753,68.392,55.867,65.619,56.201,57.122,65.604
53.344,51.968,69.797,56.455,66.666,57.864,57.686,65.356
50.91,50.579,65.852,54.139,62.762,56.16,57.538,65.233
45.877,45.762,61.751,50.451,58.729,51.949,56.59,65.363
42.716,42.893,61.873,49.401,58.604,50.024,56.751,65.903
41.284,43.013,62.989,50.535,59.545,50.309,57.944,66.495
40.191,43.728,62.356,51.241,59.056,50.012,58.199,66.769
40.934,45.458,62.546,52.382,59.414,50.721,57.431,66.607
44.351,49.829,65.155,55.714,62.17,54.54,57.716,66.505
48.123,54.797,68.013,60.406,65.434,59.336,60.058,67.711
50.349,57.274,69.807,65.165,67.852,63.151,62.936,70.622
51.797,57.973,71.54,69.554,69.971,66.783,64.256,73.252
53.612,59.255,73.146,72.748,71.534,70,63.812,73.591
54.936,60.447,72.275,73.643,70.647,70.711,62.905,72.554
53.963,59.197,67.52,71.9,66.219,68.468,62.26,71.95
51.57,56.606,62.026,68.766,60.996,65.502,62.463,72.19
51.246,56.448,61.397,67.053,60.118,64.58,65.216,73.962
53.571,58.811,66.658,68.423,64.776,66.673,71.044,78.101
55.053,59.968,72.749,71.104,70.528,70.151,77.473,83.337
54.13,58.742,75.427,72.375,73.283,72.812,81.714,87.344
52.135,56.651,74.151,70.749,72.01,73.096,81.442,87.918
47.87,52.571,67.928,64.461,65.503,68.372,73.128,82.293
40.258,45.363,57.374,54.31,54.605,58.582,57.81,71.427
35.261,40.583,49.459,47.838,46.429,51.678,45.967,63.364
38.965,44.319,49.688,50.985,46.523,54.612,45.776,64.095
47.479,52.906,54.943,59.151,51.777,62.573,52.919,70.344
54.055,59.134,61.109,65.734,58.06,68.215,60.529,77.313
58.813,62.937,68.078,71.002,65.135,72.427,67.573,84.03
63.455,66.768,74.725,75.82,71.589,77.219,72.704,88.629
65.46,68.301,78.063,77.453,74.65,79.538,72.847,88.613
64.031,66.325,78.448,76.366,75.158,78.503,69.803,86.152
64.58,66.702,80.42,78.147,77.355,79.302,69.253,86.057
71.594,74.467,86.684,85.041,83.471,85.383,73.378,89.313
81.334,84.806,94.207,91.593,90.694,92.559,78.387,91.945
86.479,88.594,98.078,91.732,94.343,94.295,79.612,90.862
85.184,84.054,96.28,86.416,92.57,89.705,78.301,89.491
81.49,77.446,90.689,81.451,87.62,83.978,79.29,92.171
78.733,73.446,85.394,79.47,83.148,81.253,81.944,95.227
76.774,71.057,82.638,78.015,80.342,79.865,81.364,93.172
76.25,70.037,82.238,76.224,78.942,78.207,77.943,88.887
79.644,72.627,84.214,76.707,79.868,78.969,76.979,88.244
84.961,76.564,87.003,78.915,82.203,82.099,79.636,90.505
85.87,76.632,86.947,78.999,82.234,82.971,81.464,91.016
81.094,73.52,83.156,76.714,78.728,80.409,79.274,88.644
76.311,72.15,78.904,75.218,74.682,77.735,74.819,85.76
76.322,74.399,78.343,76.227,74.039,77.377,72.11,84.41
80.451,78.506,82.548,79.194,77.846,79.486,72.717,84.926
84.098,81.358,86.901,81.645,81.809,81.864,74.324,86.178
84.03,81.471,86.244,81.142,80.989,81.67,74.837,87.004
82.623,81.548,82.838,79.229,77.466,80.01,75.212,87.403
83.597,84.597,82.446,79.434,76.877,80.467,76.378,87.651
86.024,89.2,85.283,81.807,79.539,83.224,77.156,87.471
87.561,92.427,87.904,83.75,81.946,85.329,77.192,87.482
89.024,93.973,89.625,84.386,83.253,85.432,78.417,89.565
90.604,94.192,90.892,84.214,83.959,84.467,80.709,92.466
89.096,91.674,90.266,82.422,82.739,82.412,80.617,91.726
84.543,86.759,88.252,79.104,80.111,79.273,77.902,87.723
82.272,83.14,87.977,77.194,79.349,77.626,76.81,85.731
82.786,81.351,88.643,77.179,79.908,77.879,78.242,86.761
80.706,77.895,86.57,76.171,78.047,77.091,78.823,87.353
76.297,73.464,82.557,74.714,74.318,76.013,78.246,86.659
74.227,71.547,79.589,74.974,71.533,76.696,78.348,85.733
73.892,70.901,77.616,74.955,69.45,76.394,77.834,83.836
72.421,68.756,75.997,72.867,67.453,73.466,75.76,81
70.253,65.678,75.294,70.585,66.31,70.926,73.968,78.831
68.214,62.722,75.216,69.118,65.695,70.006,72.599,77.001
66.164,60.24,75.256,67.443,65.142,69.003,70.158,74.284
64.916,59.456,75.93,65.557,65.661,67.628,67.387,71.746
64.636,60.25,76.231,63.831,66.609,66.094,66.006,70.701
64.196,60.747,73.956,61.85,65.365,63.717,65.643,70.018
64.209,61.454,70.674,60.345,62.649,61.812,64.799,68.175
65.634,63.695,69.469,60.017,61.339,61.819,62.999,65.524
65.684,64.586,68.077,58.457,59.911,60.591,60.367,63.123
62.161,61.505,63.694,54.08,55.964,55.812,57.118,61.277
58.849,57.867,60.143,50.243,52.755,51.901,53.79,59.25
58.508,56.258,59.975,49.082,52.66,51.399,50.4,55.903
57.076,53.062,58.122,47.313,51.106,49.413,46.768,51.758
51.501,46.502,51.3,43.176,44.774,43.942,43.385,48.586
45.02,40.959,44.13,39.822,37.907,40.226,40.537,46.394
41.089,39.439,41.665,39.274,35.606,41.039,38.459,44.107
38.928,39.35,42.414,39.487,36.583,42.545,39.181,42.188
36.261,37.102,41.291,37.898,35.732,40.942,45.315,40.775
32.553,32.193,36.396,34.115,31.04,36.889,54.744,37.523
29.196,26.804,30.575,29.815,25.398,33.081,61.275,31.807
27.371,23.443,27.273,27.337,22.451,31.016,63.398,27.611
26.134,22.568,26.988,27.309,22.623,30.446,64.944,27.745
24.427,23.175,28.616,28.666,24.394,31.118,67.16,29.966
23.811,25.179,31.989,31.149,27.527,33.748,68.384,31.819
25.943,28.57,36.156,34.833,31.656,37.902,69.188,33.661
28.881,31.639,37.724,37.959,33.779,41.032,71.18,35.501
28.771,32.029,34.757,37.972,31.456,40.941,71.976,35.079
24.865,29.109,30.167,34.692,26.92,38.104,67.527,30.981
19.948,24.071,26.858,30.146,23.32,34.22,59.84,25.785
15.578,18.107,22.86,25.157,19.418,29.287,55.154,22.541
12.077,13.376,17.521,20.241,14.477,24.006,54.956,20.562
10.805,12.419,14.873,17.212,11.885,21.297,55.204,18.383
10.672,13.278,14.462,15.2,11.273,20.658,52.452,16.243
8.165,11.267,10.528,11.048,7.453,18.085,46.989,13.875
2.833,5.741,2.723,5.185,0.128,12.957,41.58,10.61
-2.762,-0.367,-3.525,0.696,-5.454,7.77,38.542,7.666
-5.91,-4.168,-5.064,-0.856,-6.088,4.394,38.47,7.396
-4.7,-3.647,-2.317,0.914,-2.431,4.49,40.431,10.088
-0.827,-0.004,2.541,4.455,2.748,7.477,41.331,12.294
0.548,2.106,5.202,5.775,5.197,9.113,38.646,10.591
-1.729,1.104,3.379,3.965,3.431,7.83,34.881,7.034
-3.278,0.289,0.598,2.304,1.238,6.627,33.732,6.112
-2.507,1.016,-0.161,1.658,1.076,6.269,34.02,7.511
-1.377,1.714,0.42,0.622,1.922,5.128,32.945,7.857
0.505,2.605,3.138,0.319,4.657,4.228,31.042,6.807
3.473,4.289,7.685,1.94,9.23,5.254,30.069,6.218
4.039,4.511,8.473,2.636,10.402,6.16,29.232,5.893
0.167,1.382,2.674,-0.952,5.239,3.322,26.18,4.138
-4.38,-2.774,-4.286,-6.829,-1.398,-2.604,20.863,0.892
-5.994,-5.01,-7.463,-10.538,-4.59,-7.387,15.784,-2.42
-6.69,-6.447,-8.861,-11.991,-5.922,-9.601,12.292,-4.832
-8.806,-8.366,-11.199,-13.2,-8.153,-10.436,9.474,-6.629
-9.912,-8.067,-12.469,-13.131,-9.496,-9.366,6.332,-8.839
-8.726,-4.997,-11.407,-11.135,-8.478,-6.778,2.618,-11.927
-10.321,-5.086,-12.969,-11.103,-9.699,-7.729,-1.145,-15.036
-18.419,-12.232,-21.302,-16.448,-17.279,-15.792,-3.658,-16.557
-27.764,-21.636,-31.231,-23.962,-26.478,-25.635,-4.881,-16.276
-31.492,-26.848,-35.567,-28.042,-30.537,-29.52,-6.439,-16.009
-30.791,-27.536,-35.662,-28.265,-30.705,-27.821,-8.725,-16.594
-30.215,-26.712,-35.602,-27.676,-30.77,-25.592,-11.162,-17.407
-30.084,-26.116,-34.761,-27.965,-30.186,-24.876,-14.669,-19.177
-29.98,-27.034,-33.577,-30.165,-29.448,-26.27,-19.894,-22.952
-31.758,-30.328,-35.807,-34.58,-31.891,-30.434,-24.678,-27.103
-34.658,-34.207,-40.728,-38.747,-36.601,-34.908,-26.841,-29.177
-35.877,-36.465,-43.403,-40.609,-39.078,-36.593,-28.517,-30.339
-36.589,-38.236,-43.632,-42.328,-39.431,-37.559,-33.325,-33.892
-39.147,-41.257,-45.062,-46.086,-41.132,-41.257,-39.869,-39.415
-41.423,-43.903,-47.295,-49.164,-43.423,-45.193,-43.435,-42.748
-41.636,-44.655,-48.118,-48.68,-43.784,-45.51,-42.751,-41.435
-42.816,-45.464,-49.237,-46.825,-44.078,-43.785,-40.744,-37.672
-46.77,-47.7,-52.44,-46.456,-46.644,-42.682,-40.476,-35.943
-51.966,-51.156,-56.401,-47.85,-50.317,-42.946,-43.061,-38.296
-58.125,-56.877,-60.454,-50.846,-53.993,-45.27,-47.143,-42.396
-63.903,-63.262,-63.742,-53.486,-56.633,-47.732,-49.294,-44.213
-65.059,-65.267,-62.666,-52.605,-55.323,-46.793,-48.591,-42.836
-61.682,-62.932,-57.406,-49.638,-50.615,-43.634,-49.017,-41.788
-59.344,-61.55,-55.004,-49.291,-48.546,-43.064,-53.305,-44.076
-60.635,-62.654,-59.009,-52.231,-51.857,-46.653,-58.524,-48.104
-62.913,-63.245,-64.105,-55.092,-55.918,-51.135,-60.998,-50.88
-64.176,-62.018,-65.751,-56.262,-57.022,-53.228,-61.279,-52.314
-65.029,-60.552,-65.336,-56.71,-56.661,-53.152,-61.692,-53.184
-64.678,-59.159,-63.418,-55.978,-55.158,-52.04,-61.81,-51.982
-61.35,-56.359,-58.437,-52.542,-50.507,-49.575,-59.592,-47.796
-57.27,-52.88,-52.737,-48.155,-44.715,-46.398,-55.713,-43.725
-56.658,-51.427,-51.584,-46.628,-43.146,-44.799,-52.399,-42.695
-59.524,-52.84,-55.505,-48.368,-46.71,-45.602,-49.735,-42.533
-62.493,-55.788,-59.117,-50.243,-50.281,-47.014,-47.392,-40.507
-65.056,-59.753,-60.504,-51.253,-51.708,-47.974,-47.846,-39.471
-71.294,-66.686,-66.02,-55.442,-56.986,-51.606,-55.318,-44.346
-82.231,-76.825,-78.701,-65.069,-69.41,-60.381,-69.929,-54.476
-90.993,-84.972,-89.87,-74.069,-80.696,-68.963,-84.31,-63.801
-92.729,-87.389,-92.549,-76.671,-83.412,-71.362,-91.595,-68.702
-91.562,-86.96,-91.759,-75.922,-82.06,-70.401,-92.605,-70.37
-90.818,-85.915,-91.817,-75.279,-81.541,-69.865,-89.912,-68.899
-87.002,-82.163,-87.968,-72.454,-77.946,-67.367,-84.003,-63.208
-79.636,-76.829,-79.6,-67.942,-70.345,-62.956,-78.559,-57.402
-77.117,-76.832,-77.462,-68.208,-68.365,-62.904,-78.399,-57.662
-83.667,-84.079,-86.211,-74.842,-76.505,-69,-81.902,-62.899
-90.205,-90.281,-93.885,-80.598,-83.93,-74.332,-84.306,-67.341
-89.748,-90.276,-91.824,-80.877,-82.337,-74.173,-85.091,-69.38
-87.533,-88.791,-86.992,-78.946,-77.693,-71.641,-85.968,-70.265
-88.311,-89.31,-86.014,-77.94,-76.246,-70.533,-86.521,-69.653
-91.402,-91.302,-87.714,-78.488,-77.429,-71.915,-86.949,-68.686
-97.057,-96.011,-90.955,-81.747,-80.298,-76.142,-89.899,-70.825
-102.659,-101.47,-92.983,-85.472,-82.007,-80.287,-94.011,-74.573
-101.972,-101.45,-89.418,-84.469,-78.48,-79.595,-93.452,-74.464
-95.907,-96.882,-83.385,-80,-72.887,-75.647,-88.837,-71.512
-90.756,-94.416,-81.102,-77.652,-70.829,-73.701,-86.717,-70.478
-87.424,-94.264,-81.661,-76.936,-70.914,-73.3,-86.958,-70.017
-83.955,-92.39,-80.872,-74.037,-69.401,-71.027,-84.5,-67.328
-81.936,-89.576,-78.912,-70.485,-67.049,-68.431,-80.211,-64.645
-84.593,-90.33,-80.843,-71.542,-68.526,-70.357,-79.113,-64.873
-90.443,-93.967,-87.543,-77.328,-74.665,-76.444,-82.414,-68.139
-92.219,-93.239,-90.593,-81.177,-77.967,-79.965,-86.101,-71.827
-87.682,-86.929,-86.17,-80.033,-74.447,-78.548,-86.827,-72.767
-82.986,-82.014,-80.736,-78.024,-69.477,-77.171,-86.461,-71.893
-80.802,-80.337,-76.532,-77.191,-65.395,-77.895,-87.252,-71.919
-79.563,-79.509,-71.96,-76.519,-61.234,-78.628,-88.087,-72.853
-81.759,-82.22,-72.495,-77.809,-62.015,-80.041,-88.388,-74.179
-88.975,-90.116,-80.782,-82.145,-69.843,-83.182,-89.221,-75.775
-95.697,-97.384,-87.746,-86.027,-76.238,-85.453,-90.335,-76.25
-96.501,-98.65,-86.624,-86.176,-75.105,-84.602,-90.276,-74.847
-93.18,-95.736,-82.022,-83.771,-70.851,-82.101,-89.374,-73.698
-91.334,-93.917,-80.899,-82.494,-69.917,-81.213,-89.097,-74.298
-92.165,-94.604,-83.352,-83.184,-72.177,-82.573,-88.882,-74.405
-91.048,-93.724,-83.984,-82.551,-72.488,-82.713,-88.263,-73.008
-85.424,-88.255,-80.142,-78.676,-68.724,-79.251,-88.574,-72.194
-78.471,-80.573,-74.247,-73.945,-63.468,-74.61,-89.664,-72.148
-74.966,-75.779,-70.606,-72.137,-60.214,-72.932,-90.459,-72.034
-77.052,-76.893,-73.705,-74.646,-62.37,-75.425,-90.878,-72.696
-81.299,-80.929,-81.082,-78.352,-68.283,-78.644,-91.142,-74.451
-83.389,-83.284,-83.834,-79.427,-70.988,-79.208,-91.838,-76.395
-85.176,-84.901,-81.545,-78.403,-69.663,-78.522,-91.952,-76.506
-88.387,-87.254,-80.094,-77.037,-68.427,-78.097,-89.932,-74.058
-90.384,-88.664,-80.002,-76.028,-67.776,-77.712,-88.3,-72.646
-91.227,-90.218,-80.732,-77.279,-67.971,-79.635,-89.294,-73.603
-92.667,-93.807,-82.97,-80.53,-69.885,-83.725,-89.801,-73.051
-92.855,-96.6,-84.377,-81.754,-71.231,-84.587,-87.359,-70.427
-89.723,-95.485,-82.203,-79.562,-69.319,-81.041,-84.908,-69.289
-85.602,-92.591,-78.724,-77.73,-66.079,-79.107,-85.852,-70.754
-84.849,-92.084,-79.505,-79.552,-66.543,-82.491,-88.964,-73.461
-87.839,-94.181,-85,-83.061,-71.344,-87.037,-90.766,-76.04
-91.101,-96.357,-89.821,-84.739,-75.89,-87.998,-90.922,-77.297
-92.132,-97.657,-90.428,-84.959,-76.784,-86.9,-91.889,-77.285
-90.525,-97.927,-87.719,-85.423,-74.328,-86.604,-93.973,-77.538
-87.93,-97.036,-84.749,-85.717,-71.452,-86.624,-95.692,-79.049
-86.674,-95.997,-83.553,-85.194,-70.437,-85.958,-96.985,-80.905
-86.272,-95.238,-83.827,-84.208,-70.631,-84.886,-97.404,-81.226
-85.647,-94.717,-86.036,-83.887,-72.26,-84.732,-95.88,-80.132
-86.53,-95.99,-90.353,-85.68,-76.344,-86.917,-94.349,-80.287
-89.714,-99.41,-93.715,-89.16,-80.386,-90.556,-95.727,-82.728
-93.162,-102.627,-94.866,-92.11,-82.148,-93.409,-99.199,-85.526
-95.679,-104.723,-95.802,-93.721,-83.033,-95.201,-102.646,-88.032
-96.567,-106.01,-95.176,-94.291,-82.732,-96.505,-105.769,-90.897
-94.262,-104.817,-90.302,-92.916,-78.818,-96.152,-107.372,-92.533
-90.661,-101.165,-85.936,-90.144,-74.575,-94.069,-105.625,-91.918
-90.04,-98.58,-88.268,-89.184,-75.686,-93.225,-102.098,-90.943
-91.331,-97.885,-91.991,-90.089,-78.442,-94.112,-99.673,-90.071
-90.888,-96.852,-88.923,-89.268,-75.89,-93.414,-98.425,-87.992
-90.404,-96.003,-83.362,-86.963,-71.517,-91.428,-97.934,-86.015
-92.16,-96.827,-82.683,-86.567,-71.536,-91.769,-99.125,-86.494
-92.187,-96.863,-83.084,-87.048,-72.15,-93.252,-100.976,-88.283
-88.006,-94.214,-80.087,-85.837,-68.998,-92.802,-100.69,-88.767
-85.467,-92.729,-79.532,-85.208,-67.77,-92.209,-98.179,-88.192
-88.034,-95.002,-84.599,-86.55,-72.226,-92.508,-95.55,-87.524
-90.057,-96.956,-88.132,-86.443,-75.817,-90.952,-93.581,-85.629
-87.783,-95.112,-85.216,-83.398,-73.403,-87.242,-92.555,-82.513
-84.096,-91.085,-78.864,-79.37,-67.637,-83.15,-92.452,-80.157
-81.722,-87.66,-74.957,-76.026,-63.921,-79.664,-91.571,-79.501
-81.405,-86.616,-77.126,-74.88,-65.523,-78.589,-89.799,-80.393
-82.394,-88.164,-82.061,-75.931,-69.664,-80.039,-88.672,-80.938
-83.111,-90.712,-84.964,-77.107,-72.049,-81.391,-87.463,-79.158
-84.721,-93.685,-87.756,-79.395,-74.683,-83.656,-87.102,-78.589
-88.772,-97.701,-92.087,-85.066,-79.542,-89.421,-91.14,-83.279
-91.725,-100.59,-92.378,-89.503,-80.977,-93.644,-97.25,-88.688
-90.185,-99.579,-86.283,-87.099,-75.795,-90.514,-98.749,-88.783
-88.233,-97.435,-81.827,-82.605,-71.41,-85.39,-95.568,-86.174
-89.875,-98.085,-83.744,-82.713,-72.846,-84.964,-93.547,-85.83
-92.075,-99.871,-86.607,-84.612,-75.311,-86.086,-93.948,-86.435
-93.278,-100.646,-87.75,-84.513,-76.51,-85.641,-93.358,-85.421
-95.859,-101.455,-89.553,-85.019,-78.996,-86.493,-92.506,-85.172
-98.527,-102.228,-90.613,-87.337,-81.047,-88.795,-94.105,-87.178
-98.59,-102.18,-88.941,-88.145,-79.875,-89.079,-94.979,-87.038
-97.345,-102.371,-87.313,-86.518,-78.021,-87.576,-91.873,-82.811
-96.585,-103.056,-87.935,-85.278,-78.348,-86.909,-89.415,-80.551
-95.401,-102.508,-88.489,-85.367,-79.197,-86.667,-91.798,-83.899
-92.473,-99.594,-86.694,-84.529,-78.043,-84.95,-94.052,-87.13
-87.98,-94.834,-83.652,-81.423,-75.239,-81.828,-90.665,-84.791
-83.089,-89.974,-80.913,-78.012,-72.516,-79.169,-85.593,-80.056
-78.894,-86.903,-78.039,-77.185,-70.462,-78.981,-86.102,-79.168
-76.242,-85.848,-75.53,-78.984,-69.473,-81.278,-91.573,-82.76
-75.849,-85.353,-76.774,-80.587,-71.406,-83.439,-94.324,-86.06
-76.499,-83.9,-82.276,-80.225,-76.243,-83.654,-90.919,-85.857
-74.455,-80.515,-85.171,-78.661,-78.528,-82.582,-86.962,-84.037
-69.033,-75.406,-81.109,-76.652,-74.617,-80.616,-86.738,-83.343
-65.775,-71.421,-77.325,-75.016,-70.772,-78.77,-86.842,-83.318
-68.42,-72.014,-80.472,-75.72,-73.531,-79.992,-85.297,-82.577
-72.5,-75.712,-84.463,-77.956,-77.952,-83.312,-85.151,-81.242
-71.354,-76.12,-80.61,-76.548,-75.288,-82.33,-85.722,-78.82
-64.965,-70.737,-70.701,-69.621,-65.985,-75.34,-82.749,-74.221
-60.099,-65.415,-63.678,-63.285,-58.579,-69.492,-78.193,-70.339
-61.898,-65.801,-65.326,-62.981,-59.53,-69.86,-77.488,-71.251
-67.389,-69.318,-72.57,-65.52,-66.233,-72.27,-78.928,-73.89
-69.494,-69.956,-76.09,-65.134,-69.652,-70.923,-77.484,-72.09
-66.626,-67.123,-72.382,-62.062,-66.345,-66.448,-73.693,-66.595
-63.924,-65.115,-68.171,-60.261,-62.63,-62.913,-71.049,-63.071
-64.074,-65.457,-66.924,-60.531,-61.916,-61.2,-70.819,-63.858
-63.6,-65.123,-63.38,-60.552,-59.292,-59.579,-72.561,-66.457
-61.743,-63.601,-58.424,-60.293,-55.012,-58.722,-75.187,-68.189
-63.391,-64.401,-62.049,-61.277,-57.68,-59.727,-75.284,-67.997
-67.303,-66.226,-72.685,-61.031,-66.186,-59.149,-69.996,-65.07
-66.402,-64.505,-76.097,-57.624,-68.852,-55.114,-64.095,-61.401
-61.67,-60.942,-69.765,-54.926,-63.977,-52.042,-63.886,-60.6
-57.844,-57.947,-62.684,-53.898,-58.506,-50.882,-64.868,-60.128
-53.362,-53.159,-56.599,-50.022,-52.879,-46.976,-58.927,-54.34
-47.623,-47.687,-49.287,-43.793,-45.577,-40.731,-48.257,-44.947
-45.069,-46.491,-44.455,-40.787,-40.784,-37.527,-41.057,-38.903
-47.346,-49.944,-45.635,-42.661,-41.805,-39.294,-41.245,-39.916
-52.805,-55.807,-52.097,-48.347,-48.053,-45.435,-49.225,-48.613
-61.079,-63.938,-62.592,-57.859,-58.58,-55.639,-63.615,-63.783
-69.727,-71.624,-72.943,-67.525,-69.106,-65.571,-77.392,-78.645
-74.074,-74.31,-77.364,-71.544,-73.562,-69.57,-82.253,-85.094
-73.204,-72.239,-76.223,-70.005,-72.257,-68.342,-78.167,-83.064
-68.827,-67.519,-72.5,-66.167,-68.5,-65.006,-70.792,-77.843
-63.303,-61.897,-66.945,-61.926,-63.318,-61.079,-64.147,-72.342
-60.199,-59.279,-62.068,-59.631,-58.967,-59.523,-60.453,-67.998
-59.254,-60.174,-59.863,-59.668,-57.085,-60.815,-60.498,-67.07
-56.597,-59.775,-57.84,-58.548,-55.079,-60.105,-61.461,-68.681
-53.326,-57.347,-54.568,-55.078,-51.564,-55.93,-59.334,-68.33
-53.281,-56.657,-51.811,-52.533,-48.861,-52.886,-55.027,-65.225
-53.823,-56.636,-49.497,-51.791,-47.354,-52.404,-52.65,-62.666
-50.183,-52.951,-46.552,-49.416,-45.121,-50.47,-51.792,-60.639
-44.875,-47.136,-44.558,-44.998,-42.961,-46.067,-49.305,-57.316
-42.928,-44.588,-44.492,-42.632,-42.736,-43.393,-45.984,-54.226
-42.824,-45.466,-44.126,-42.972,-43.068,-43.785,-43.775,-52.562
-40.24,-45.473,-41.646,-42.057,-41.607,-43.35,-41.926,-50.757
-35.464,-43.047,-37.481,-38.502,-38.125,-40.198,-40.153,-48.362
-32.088,-40.474,-33.148,-35.093,-34.172,-37.037,-39.53,-46.752
-32.595,-40.569,-31.27,-34.394,-32.583,-36.406,-39.547,-46.358
-35.836,-43.163,-33.16,-35.617,-34.683,-37.227,-38.525,-45.789
-37.295,-44.218,-35.234,-35.298,-36.864,-35.976,-36.103,-43.299
-34.167,-40.799,-33.341,-31.846,-35.087,-31.509,-32.988,-39.103
-29.64,-35.758,-29.577,-28.284,-31.603,-27.877,-29.782,-35.622
-28.705,-33.994,-28.37,-27.734,-30.819,-28.719,-27.159,-34.414
-30.825,-35.108,-28.904,-28.58,-31.635,-31.032,-25.677,-34.143
-31.939,-34.998,-28.507,-28.015,-31.207,-30.308,-25.324,-32.991
-32.181,-33.819,-28.909,-27.129,-31.436,-28.034,-26.011,-31.869
-33.349,-33.78,-31.214,-27.58,-33.749,-27.353,-27.604,-32.878
-32.619,-32.171,-31.674,-27.3,-34.553,-26.914,-28.812,-35.029
-27.921,-26.531,-28.821,-24.405,-32.078,-24.833,-27.924,-34.859
-22.615,-20.483,-25.192,-20.475,-28.575,-22.029,-24.921,-31.167
-19.754,-17.979,-21.385,-17.452,-24.971,-19.157,-21.374,-26.532
-17.83,-17.475,-16.669,-15.138,-20.917,-15.575,-19.053,-24.246
-14.366,-15.51,-12.623,-12.932,-17.649,-11.981,-18.358,-24.477
-11.375,-13.62,-12.614,-12.938,-17.835,-12.316,-17.936,-24.589
-11.861,-15.041,-16.25,-16.728,-21.248,-18.224,-17.372,-23.666
-13.579,-17.49,-18.137,-20.407,-23.257,-23.629,-17.899,-23.744
-14.436,-18.355,-17.844,-20.698,-23.221,-23.958,-19.154,-25.369
-15.796,-18.665,-19.74,-19.437,-24.951,-22.29,-19.004,-25.882
-16.579,-17.734,-21.364,-17.669,-26.576,-20.649,-16.898,-23.797
-15.363,-15.337,-18.107,-15.359,-24.114,-18.453,-14.606,-21.328
-14.65,-14.688,-13,-14.662,-20.013,-17.723,-13.96,-20.94
-15.524,-16.007,-10.655,-16.037,-17.938,-19.353,-14.579,-21.699
-15.269,-15.909,-10.508,-16.848,-17.14,-20.371,-14.603,-21.203
-12.344,-13.602,-10.203,-16.193,-16.135,-19.241,-13.959,-19.985
-8.201,-10.557,-9.359,-15.586,-15.444,-17.721,-13.849,-20.043
-4.839,-7.07,-8.134,-14.919,-14.968,-16.562,-13.238,-19.798
-3.297,-3.416,-6.294,-12.505,-13.727,-14.295,-10.398,-16.188
-3.243,-1.309,-4.531,-8.861,-12.292,-10.528,-6.833,-10.865
-3.214,-1.521,-3.524,-6.53,-11.541,-6.942,-5.616,-8.882
-2.757,-2.762,-3.244,-6.696,-11.474,-5.275,-7.147,-11.702
-2.581,-3.743,-3.568,-7.967,-11.841,-5.948,-8.257,-14.52
-1.813,-3.656,-2.986,-7.749,-11.101,-7.329,-5.407,-11.791
0.877,-1.568,0.471,-4.67,-7.608,-6.197,0.801,-4.629
5.008,2.956,6.283,0.299,-2.188,-0.974,6.306,1.273
10.216,9.511,12.048,5.343,3.119,5.949,8.967,4.007
15.888,16.12,15.022,8.984,6.039,10.586,9.959,5.786
19.149,19.388,13.676,9.862,4.719,11.019,10.018,6.874
19.042,18.986,10.572,8.535,1.221,9.318,8.493,5.421
18.236,18.511,8.93,7.876,-0.887,9.11,7.047,2.552
16.649,17.927,6.904,7.532,-2.969,8.688,7.693,1.704
11.948,13.444,2.644,3.649,-7.314,3.151,7.157,2.194
6.424,6.671,-0.777,-2.829,-11.334,-4.996,2.051,-0.236
4.427,3.536,-1.408,-6.241,-12.505,-8.307,-3.695,-5.037
6.945,6.122,-0.452,-3.908,-11.198,-4.565,-3.577,-5.827
13.522,12.71,3.59,3.01,-6.249,3.417,3.85,1.039
23.175,21.475,13.179,12.467,3.635,12.571,14.643,12.003
32.406,30.125,24.192,21.284,14.16,20.475,23.233,20.835
37.957,35.673,29.308,25.813,19.023,24.934,26.636,24.859
40.576,37.52,28.826,25.991,18.924,25.725,26.495,25.711
42.924,38.789,29.378,26.072,19.828,26.274,26.54,25.891
46.833,43.034,33.836,29.723,24.2,30.597,28.694,27.13
52.489,49.89,39.686,36.123,29.88,38.02,32.031,29.944
56.683,54.728,43.327,41.005,33.534,43.225,34.544,32.705
55.103,53.871,42.849,41.311,32.942,42.492,35.13,33.459
47.861,48.89,39.364,38.448,29.007,38.262,34.02,32.627
39.704,44.759,35.952,36.362,25.197,36.368,32.755,31.987
36.07,45.124,35.705,37.453,24.905,39.216,33.118,32.617
39.622,50.015,40.832,41.278,29.871,43.742,34.427,34.521
46.666,55.86,48.869,45.189,37.23,45.921,34.253,36.052
47.522,55.728,48.796,44.057,36.791,42.777,31.801,34.108
39.151,47.099,34.895,35.295,23.55,33.554,27.993,28.308
33.235,40.249,22.331,26.726,11.65,24.963,25.506,24.054
39.389,46.255,26.885,29.213,15.794,27.041,27.995,26.244
50.887,60.047,40.521,40.734,28.448,38.73,34.333,32.432
56.553,67.31,46.946,48.748,34.229,47.184,38.862,38.046
55.88,64.867,45.692,48.644,32.722,46.655,39.824,42.359
56.289,62.996,46.565,48.367,33.287,46.144,40.22,45.491
59.955,66.222,51.727,51.884,38.087,50.26,41.33,47.017
62.441,68.103,56.175,53.893,42.591,51.881,42.45,48.017
62.626,66.877,57.443,53.846,44.651,50.475,45.544,50.135
62.563,66.762,55.138,56.126,43.55,52.837,52.455,53.396
61.663,66.827,50.116,58.394,39.208,56.824,58.497,55.676
58.458,63.686,45.716,56.188,34.593,56.01,58.49,55.405
54.976,60.257,45.094,53.245,33.429,53.546,55.936,54.556
55.5,61.902,49.543,55.23,37.354,55.872,55.568,55.139
59.379,66.613,55.988,59.115,43.411,59.869,54.864,55.082
61.051,68.168,58.137,58.763,45.568,58.709,51.758,52.811
59.993,67.198,55.143,55.598,42.758,54.509,49.573,50.7
61.411,69.562,52.376,55.033,40.018,54.042,50.029,50.257
66.532,75.755,53.221,57.235,40.9,57.002,51.211,50.838
71.91,81.028,57.168,58.86,44.838,58.651,52.423,52.662
75.352,82.615,61.41,58.984,48.908,57.995,54.485,55.589
75.611,80.212,61.7,58.063,49.385,56.058,56.806,58.129
73.094,76.122,58.993,57.181,47.411,54.496,57.871,59.106
72.573,75.853,60.398,59.232,49.429,56.59,57.746,58.792
76.934,80.535,67.78,64.763,56.967,61.96,58.383,59.508
81.286,83.705,74.318,69.646,63.67,65.512,61.361,63.038
79.789,80.305,73.776,70.056,63.66,64.523,65.663,67.39
74.395,73.224,68.336,66.952,58.707,61.402,68.205,69.597
72.69,70.143,67.272,65.401,57.433,61.001,67.782,69.675
77.722,74.345,73.792,68.347,63.342,65.58,67.111,69.474
83.189,79.337,78.077,71.722,67.651,70.648,68.45,69.977
81.882,77.697,73.39,70.605,63.718,70.468,69.967,70.492
75.752,72.241,67.184,67.036,58.009,66.744,69.562,70.277
72.661,71.086,67.608,66.51,58.375,66.234,68.618,70.193
75.623,75.85,73.163,70.425,63.831,71.42,69.21,71.217
79.601,81.01,78.336,74.871,68.915,77.203,70.842,72.894
78.401,81.674,79.729,75.504,70.097,77.68,71.639,74.117
73.574,78.984,78.488,73.251,68.817,74.378,71.511,74.744
73.191,78.404,79.072,73.283,69.45,73.741,72.711,76.278
79.709,82.45,83.002,77.497,73.138,77.779,76.68,79.596
86.672,87.732,87.315,82.396,77.177,83.154,81.75,82.875
89.083,90.336,89.367,84.71,79.44,86.743,85.613,84.835
87.452,88.606,88.16,83.068,78.737,85.387,87.375,86.858
81.633,80.593,82.345,75.525,73.066,76.009,84.189,86.753
69.894,66.656,70.714,62.597,61.304,61.474,72.891,78.563
55.602,53.417,56.294,50,47.106,49.195,57.428,64.077
47.74,48.289,47.393,43.605,38.438,43.666,46.432,53.306
51.843,52.942,50.005,45.543,40.615,45.951,45.04,52.12
63.367,63.351,60.121,53.861,50.235,54.232,52.028,57.626
72.294,72.266,68.412,61.78,58.715,61.448,60.316,63.554
74.584,75.001,71.849,63.399,62.444,61.743,63.039,66.38
74.014,73.506,72.158,60.863,62.858,58.433,61.771,66.794
72.96,71.475,68.585,59.079,59.899,57.063,62.074,66.364
70.818,70.083,63.417,58.309,55.431,56.995,63.375,65.383
69.193,70.153,62.857,57.56,54.597,56.529,62.794,64.523
69.765,71.81,66.669,57.632,57.786,57.089,61.884,64.694
70.792,72.746,68.835,58.117,60.112,58.655,61.799,64.844
71.174,72.521,68.135,58.488,59.918,59.77,60.906,63.869
72.234,73.732,68.782,60.295,60.527,61.239,59.799,63.533
73.236,76.08,71.899,63.928,63.319,64.105,61.379,66.053
73.038,77.326,74.947,68.154,66.37,68.077,65.925,70.769
72.962,77.239,76.709,71.584,68.351,71.75,69.49,74.512
71.966,74.697,76.022,71.399,67.811,71.937,68.037,73.897
68.479,69.495,72.25,67.364,64.172,68.546,62.955,69.237
66.493,66.548,68.767,64.773,60.861,66.594,60.145,66
70.006,69.65,69.874,66.966,61.931,68.462,62.298,68.397
76.927,76.355,75.407,71.48,66.984,72.077,66.423,73.85
82.264,82.068,79.45,75.138,70.747,75.749,70.133,77.699
82.634,83.454,77.152,76.407,69.039,77.874,73.026,78.738
79.415,80.589,72.536,75.186,65.05,77.26,73.537,78.066
77.858,78.227,71.989,73.609,64.267,75.908,72.159,77.31
79.786,79.655,74.491,73.284,66.053,75.553,71.786,77.257
81.776,82.152,75.679,72.753,66.639,74.268,71.869,76.637
82.453,82.971,75.231,70.98,65.91,71.04,70.306,74.736
84.193,83.501,75.353,69.626,66.104,68.623,68.455,73.088
87.76,85.32,76.968,70.206,67.882,69.271,68.057,72.571
90.885,87.208,79.674,71.873,70.566,71.421,68.074,72.321
91.75,87.508,82.432,72.847,73.235,72.467,67.731,72.153
91.334,87.271,84.265,73.303,75.177,73.012,68.677,73.257
91.624,88.509,85.266,75.027,76.499,75.333,72.071,76.104
92.693,90.233,85.663,77.637,77.22,78.408,75.632,78.687
92.482,89.286,84.397,77.939,76.226,78.635,75.613,77.985
89.784,85.401,81.149,75.013,73.39,75.775,71.691,74.218
86.994,82.688,78.62,72.82,71.363,74.029,68.166,71.695
87.316,84.242,79.501,74.649,72.446,75.808,68.436,73.141
89.597,87.689,82.507,78.43,75.219,78.723,70.661,75.993
89.51,88.335,83.989,80.189,76.432,79.852,71.587,76.683
86.14,85.079,82.654,78.659,75.14,78.677,70.808,75.167
82.619,80.338,79.651,74.534,72.28,75.264,68.806,72.86
79.549,75.329,74.98,68.309,67.528,69.404,65.223,69.524
75.233,70.587,69.568,61.839,61.908,62.956,61.254,65.409
72.43,69.49,68.614,59.626,60.827,60.491,60.331,63.824
75.926,74.58,75.539,64.038,67.474,64.507,64.014,67.226
83.715,82.173,85.298,70.793,76.561,70.941,68.942,72.479
88.884,86.541,90.323,73.913,81.058,73.688,70.846,74.629
89.52,87.175,89.948,73.2,80.814,72.665,69.962,73.457
89.253,87.229,88.18,72.318,79.26,72.102,69.053,72.067
89.697,87.972,87.279,72.906,78.05,73.368,68.833,71.946
88.99,88.483,87.5,74.487,77.888,75.158,68.592,72.47
86.526,88.319,87.72,76.509,78.296,77.136,68.385,72.557
84.647,88.563,86.585,78.472,77.675,79.411,68.174,71.936
84.958,90.075,84.943,79.981,76.063,81.129,67.389,71.751
85.305,90.989,83.469,80.291,74.048,80.764,65.918,72.506
82.759,88.572,80.708,78.555,70.904,77.806,63.688,72.315
78.111,83.544,76.69,75.484,66.869,74.17,61.013,69.908
75.056,79.623,73.716,72.74,63.823,71.854,59.123,66.949
75.959,79.184,73.114,70.849,63.06,70.321,58.049,64.909
80.029,81.312,75.069,69.667,64.865,68.802,57.159,63.561
84.557,83.758,79.378,69.748,68.787,68.659,57.729,63.453
86.238,84.622,83.545,70.834,72.395,70.184,60.081,64.975
83.856,83.075,84.248,71.248,72.912,71.053,61.386,66.135
81.071,81.183,82.397,71.12,71.462,70.913,60.647,65.77
82.348,82.449,82.202,72.603,71.76,72.273,60.791,66.099
86.779,86.479,84.808,75.754,74.394,75.587,63.121,68.718
89.836,88.795,86.868,77.549,76.065,77.864,64.829,71.397
89.607,87.445,86.118,75.962,74.978,76.904,63.925,71.52
88.209,85.247,84.661,72.936,73.505,74.338,62.108,69.556
87.479,84.04,84.938,71.347,73.912,72.929,61.267,67.369
86.909,82.564,86.439,71.463,75.457,73.078,61.426,66.275
86.452,81.075,88.18,72.595,77.317,73.909,63.127,67.367
88.223,82.986,91.28,75.689,80.791,75.935,67.511,71.055
93.536,89.878,96.583,81.254,86.414,80.032,72.919,75.75
99.002,96.978,100.758,85.577,90.559,83.728,75.061,78.112
100.579,98.824,99.94,84.875,89.633,83.488,72.82,76.64
100.671,97.609,96.926,82.458,86.648,81.344,70.433,74.402
103.102,98.122,97.133,83.408,86.731,81.954,71.235,74.846
105.862,99.735,100.086,86.274,89.415,84.931,74.169,77.367
106.302,99.979,101.853,87.289,91.211,86.743,77.271,79.605
105.37,98.559,100.602,85.633,90.195,85.717,78.609,79.891
104.139,95.82,97.385,82.385,86.934,82.815,76.984,78.004
103.252,93.158,95.762,80.144,84.994,81.081,74.986,76.298
103.194,92.31,97.317,80.937,86.284,82.46,75.462,76.882
101.943,91.748,97.851,82.946,86.842,84.808,77.108,78.572
97.423,88.88,94.223,83.028,83.636,84.812,77.761,79.179
92.017,85.391,90.108,81.246,80.202,82.604,77.002,78.022
89.068,84.52,89.605,80.293,80.3,81.119,75.505,76.354
87.266,84.718,91.111,80.996,82.117,81.31,74.718,76.191
83.454,81.994,90.683,80.72,81.744,80.882,74.712,77
78.638,77.524,88.307,78.199,79.359,78.906,74.446,76.72
76.686,76.347,87.769,76.549,78.973,77.718,75.329,76.367
77.286,78.071,89.01,77.188,80.532,77.808,78.282,77.295
76.064,77.167,87.14,76.567,78.934,76.442,79.712,77.241
72.844,73.443,82.092,73.409,73.993,73.667,77.116,74.955
72.58,73.107,79.724,71.781,71.666,73.118,73.359,73.031
76.736,78.125,81.328,73.808,73.526,75.67,71.378,73.226
79.343,81.619,80.803,75.356,73.663,77.412,69.786,73.102
75.393,77.635,75.333,72.521,68.951,75.616,66.356,69.388
69.344,70.641,71.153,68.191,65.154,72.563,62.78,64.05
67.73,68.158,72.612,66.694,66.811,70.385,62.3,62.619
68.651,69.262,74.679,66.763,69.338,68.107,64.543,65.38
67.451,69.101,72.831,65.616,68.054,65.751,66.855,67.257
65.831,68.562,70.646,64.634,66.247,65.1,68.513,66.933
67.86,71.423,72.691,66.813,68.565,67.324,70.539,67.896
72.092,76.377,76.785,71.427,72.906,71.473,72.296,70.215
73.593,78.381,77.737,74.161,74.109,73.755,71.069,69.651
72.185,76.678,75.925,73.256,72.658,71.861,67.15,66.238
72.465,75.856,76.418,72.146,73.669,69.171,65.337,65.182
76.133,78.989,80.503,73.969,78.378,69.754,67.673,67.429
80.668,84.239,84.522,77.266,83.014,72.444,70.082,68.477
83.415,87.257,85.475,78.535,84.499,73.252,69.243,67.099
83.254,85.502,83.043,76.869,82.507,71.011,66.787,65.971
81.062,81.276,78.974,74.638,78.737,68.351,64.924,65.121
79.177,79.088,76.305,74.014,76.321,67.809,63.848,63.058
79.679,80.582,77.188,75.261,77.695,69.506,64.308,61.698
82.745,83.682,81.708,77.928,82.756,72.472,67.952,64.154
85.55,85.05,87.652,80.791,88.705,75.304,74.093,69.699
84.776,83.032,90.841,81.854,91.515,76.328,79.263,74.539
80.889,79.363,88.931,80.966,89.696,75.844,82.044,77.247
76.521,76.422,83.481,79.567,84.938,75.563,83.895,79.205
70.925,72.49,75.471,76.141,77.429,73.729,82.54,78.576
60.797,63.925,63.211,67.095,65.092,66.075,72.705,70.799
47.902,52.743,48.088,54.107,49.623,53.871,56.368,57.378
40.511,46.641,37.764,45.488,38.867,45.432,44.261,47.352
42.961,49.151,38.128,46.54,38.919,46.336,43.813,46.883
49.818,55.306,45.314,52.547,46.26,52.542,50.539,52.005
54.84,59.847,51.661,56.169,52.965,56.988,55.991,55.58
57.329,62.511,55.022,56.395,56.347,57.867,58.851,56.505
57.324,63.415,56.658,55.525,57.881,57.034,61.088,56.776
54.096,61.458,56.567,54.033,57.919,55.585,61.081,55.741
50.127,58.304,55.606,52.185,57.034,54.011,58.492,53.134
49.213,57.498,56.004,51.663,57.353,53.564,57.351,51.755
51.192,59.141,57.722,53.001,59.226,54.835,59.174,52.986
52.485,59.698,58.573,53.812,60.41,55.762,60.598,54.184
50.597,57.289,57.501,51.72,59.355,53.636,59.333,52.598
47.055,54.248,55.708,48.133,57.246,49.495,56.749,49.042
45.325,53.399,54.613,46.16,56.065,46.989,54.522,46.123
45.973,54.113,54.169,46.225,55.985,47.024,52.842,44.835
47.014,54.323,54.288,46.968,56.393,47.864,51.842,44.592
47.656,53.833,55.47,47.732,57.232,48.65,51.377,44.508
48.398,53.843,56.867,48.731,57.893,50.077,51.275,44.595
49.797,55.558,56.712,50.954,57.532,53.246,53.209,46.498
52.445,59.148,55.728,54.618,57.052,57.577,57.133,50.222
55.017,62.204,55.154,56.784,56.782,59.603,58.108,51.554
53.224,60.625,51.693,53.683,53.277,56.248,53.076,47.248
46.045,54.005,43.734,46.773,45.58,49.749,46.252,40.594
39.958,47.923,38.029,42.247,40.157,46.117,43.019,37.361
39.809,46.901,39.093,42.377,40.959,46.999,42.833,37.832
41.39,48.6,41.081,42.776,42.637,47.442,41.867,37.596
39.769,48.56,38.64,40.135,40.347,44.041,39.5,34.951
37.675,46.968,35.455,37.026,37.455,39.827,38.29,32.601
39.955,47.462,36.865,37.081,39.048,38.545,39.6,32.935
44.612,50.076,40.981,38.706,43.286,38.66,41.726,34.582
45.002,49.646,41.219,37.126,43.52,36.249,41.798,34.219
39.689,44.062,35.813,32.283,38.096,31.65,39.67,31.565
34.126,38.544,30.029,29.252,32.504,29.191,38.308,30.072
32.754,38.163,28.213,30.349,30.904,30.841,38.915,31.509
34.731,41.74,28.857,32.648,31.624,34.012,39.564,33.69
36.583,44.507,28.19,32.689,31.175,34.844,39.242,34.267
35.872,43.178,25.294,29.675,28.627,31.67,38.57,32.883
33.153,39.134,22.699,25.669,26.078,26.803,37.377,30.142
30.247,35.944,22.102,23.221,25.281,23.757,35.08,27.032
27.234,33.708,21.879,22.325,25.019,22.616,32.447,24.51
24.055,30.925,20.393,21.877,23.591,21.891,30.957,23.112
22.433,29.088,18.503,21.818,21.517,21.846,30.747,22.732
22.901,29.221,17.345,21.396,19.889,21.996,30.429,22.154
22.895,28.812,16.359,19.063,18.373,20.012,28.882,19.936
19.789,25.81,14.245,14.804,16.002,15.187,26.228,16.292
13.855,21.04,10.306,10.155,12.323,9.786,23.118,12.826
7.786,16.305,5.396,6.926,7.93,6.667,20.317,10.615
4.375,13.095,1.911,6.04,4.703,6.637,18.85,9.646
3.784,11.402,0.949,6.169,3.763,7.688,18.519,9.007
3.216,9.467,0.918,5.144,3.811,7.418,17.532,7.666
1.371,7.031,0.554,3.312,3.492,6.292,15.865,6.152
0.656,6.229,0.168,2.561,3.038,6.34,15.348,5.615
2.044,7.185,-0.28,2.578,2.625,7.056,15.441,5.209
2.363,6.671,-1.177,1.441,1.824,5.972,13.925,3.274
0.228,3.425,-1.482,-0.512,1.396,3.342,11.67,0.89
-0.942,0.603,0.422,-1.031,3.015,2.195,11.659,0.745
0.584,0.54,3.47,-0.158,5.903,3.108,13.276,2.246
1.526,1.897,4.688,0.198,7.201,3.905,13.147,2.369
-0.663,2.852,3.313,-0.317,6.028,3.707,10.988,0.628
-4.27,2.453,0.75,-1.447,3.603,2.647,8.873,-1.306
-7.139,-0.128,-2.324,-3.69,0.618,0.322,7.034,-2.892
-9.539,-4.38,-6.003,-6.604,-2.866,-2.871,4.823,-4.554
-11.43,-7.525,-8.957,-8.68,-5.63,-5.315,3.111,-5.936
-11.563,-7.431,-9.647,-9.426,-6.313,-6.156,2.762,-6.468
-10.524,-5.565,-9.508,-9.616,-6.111,-6.149,2.974,-6.608
-9.311,-3.947,-10.039,-9.125,-6.345,-5.508,3.086,-6.674
-6.886,-1.842,-9.128,-7.006,-5.25,-3.386,3.836,-5.901
-3.767,0.585,-5.564,-4.263,-1.793,-0.609,5.711,-4.023
-3.4,-0.32,-3.449,-3.984,0.357,-0.101,7.217,-2.809
-6.77,-5.895,-6.88,-7.657,-2.565,-3.421,6.097,-4.618
-10.298,-11.124,-13.05,-12.596,-8.182,-8.211,2.647,-8.933
-11.818,-11.947,-16.633,-15.511,-11.822,-11.316,-0.812,-12.83
-13,-10.926,-17.492,-16.659,-13.172,-12.736,-3.081,-15.068
-14,-10.807,-17.941,-17.112,-13.772,-13.31,-3.859,-16.286
-13.172,-10.26,-17.832,-16.179,-13.335,-12.343,-3.169,-16.567
-11.797,-8.54,-16.851,-14.035,-12.065,-10.103,-2.191,-15.806
-13.108,-7.785,-16.725,-12.52,-11.85,-8.575,-2.396,-14.992
-17.563,-9.594,-18.562,-12.489,-13.488,-8.61,-3.886,-15.288
-22.184,-12.773,-21.047,-13.21,-15.703,-9.212,-5.295,-16.497
-25.263,-15.815,-22.738,-14.249,-17.442,-9.973,-5.46,-17.512
-28.45,-19.34,-24.069,-16.238,-19.058,-11.984,-5.223,-18.281
-31.699,-23.584,-25.921,-19.312,-21.007,-15.377,-6.388,-19.675
-32.384,-26.407,-27.922,-22.036,-22.959,-18.263,-8.538,-21.28
-31.543,-26.734,-29.354,-23.405,-24.596,-19.582,-9.712,-22.217
-32.302,-26.153,-30.2,-24.351,-25.979,-20.474,-10.245,-23.276
-33.473,-26.053,-30.616,-25.912,-26.848,-22.193,-11.784,-25.347
-32.787,-26.605,-30.747,-27.794,-27.072,-24.647,-13.727,-27.709
-31.861,-27.735,-31.128,-29.47,-27.519,-27.076,-14.638,-29.373
-32.791,-29.325,-32.394,-31.003,-28.993,-29.083,-14.947,-30.194
-34.284,-30.6,-34.418,-32.129,-30.913,-30.162,-15.632,-30.483
-34.035,-30.295,-36.188,-32.246,-32.237,-29.648,-16.501,-30.589
-32.259,-28.459,-36.944,-31.843,-32.836,-28.429,-17.157,-30.893
-30.528,-26.26,-36.825,-31.606,-32.924,-28.06,-17.701,-31.546
-29.202,-24.279,-36.166,-30.948,-32.403,-28.312,-18.019,-32.149
-28.336,-23.323,-35.291,-29.805,-31.725,-28.494,-18.077,-32.503
-28.515,-24.054,-34.535,-29.185,-31.478,-28.739,-17.984,-32.78
-29.571,-25.382,-34.03,-29.255,-31.313,-28.917,-17.464,-32.646
-30.778,-26.481,-34.475,-30.128,-31.536,-29.464,-17.61,-32.572
-31.535,-27.643,-36.826,-32.587,-33.692,-31.679,-20.289,-34.289
-32.172,-28.784,-40.982,-36.652,-38.219,-35.753,-24.555,-38.076
-34.603,-30.704,-46.027,-41.543,-43.743,-40.654,-28.232,-42.467
-39.323,-34.415,-50.06,-45.346,-47.889,-44.389,-30.629,-45.687
-43.397,-37.595,-50.618,-45.04,-48.373,-44.001,-30.973,-45.909
-44.901,-37.475,-48.358,-40.789,-46.02,-39.618,-29.215,-43.298
-45.835,-36.36,-47.379,-37.488,-44.813,-36.505,-27.746,-40.926
-47.101,-36.951,-48.434,-37.609,-45.58,-37.478,-27.578,-40.459
-45.96,-36.578,-47.391,-37.788,-44.459,-38.592,-26.581,-40.154
-42.589,-34.284,-43.711,-36.191,-40.784,-37.303,-24.354,-39.256
-41.475,-34.66,-42.213,-35.492,-39.016,-36.238,-23.239,-39.28
-43.019,-38.103,-44.063,-36.283,-40.475,-36.296,-23.712,-40.179
-42.893,-39.07,-44.873,-35.859,-41.186,-35.303,-23.98,-40.367
-40.603,-36.678,-42.895,-34.294,-39.363,-33.822,-23.573,-39.934
-40.202,-35.865,-41.638,-34.816,-38.231,-34.944,-24.008,-40.435
-42.944,-38.492,-43.556,-38.08,-40.071,-38.579,-25.915,-42.363
-45.856,-41.804,-46.556,-41.262,-42.703,-41.458,-27.778,-44.618
-47.656,-44.285,-48.227,-42.98,-43.958,-42.549,-28.785,-46.367
-50.337,-46.866,-49.643,-45.039,-45.38,-44.184,-30.356,-48.142
-53.29,-48.669,-51.791,-47.852,-48.035,-47.085,-32.457,-49.776
-52.046,-46.439,-51.554,-47.866,-48.33,-47.709,-31.259,-48.586
-45.752,-39.82,-46.162,-42.708,-43.029,-43.264,-24.243,-42.669
-39.485,-33.281,-38.669,-35.557,-35.374,-36.515,-14.829,-34.683
-37.99,-31.647,-35.086,-31.983,-31.675,-32.945,-8.407,-29.259
-42.51,-36.239,-38.249,-34.855,-34.4,-35.412,-7.437,-28.643
-51.233,-44.483,-45.866,-42.647,-41.279,-42.455,-12.434,-32.662
-60.078,-52.504,-54.342,-51.631,-49.602,-50.77,-23.18,-40.45
-65.427,-58.324,-62.134,-58.749,-57.847,-57.88,-36.312,-49.912
-66.063,-61.493,-67.398,-62.111,-63.056,-61.859,-45.184,-57.06
-62.937,-61.688,-67.662,-61.383,-62.532,-61.795,-45.859,-58.963
-58.204,-59.391,-63.343,-58.464,-57.754,-59.529,-40.918,-56.737
-53.879,-55.994,-57.078,-55.596,-51.778,-57.425,-35.227,-53.652
-51.286,-53.009,-51.795,-53.326,-46.571,-55.344,-31.128,-51.501
-51.287,-52.214,-50.751,-51.965,-44.794,-53.392,-29.351,-50.59
-53.567,-54.247,-54.524,-52.52,-47.802,-53.765,-30.978,-51.554
-55.615,-56.048,-58.595,-53.467,-51.58,-55.521,-34.814,-53.693
-54.73,-53.816,-58.345,-51.028,-50.871,-53.746,-36.121,-53.657
-51.899,-49.459,-55.092,-45.875,-46.851,-48.28,-33.104,-50.304
-50.564,-48.228,-53.405,-43.076,-44.813,-44.934,-30.167,-47.233
-51.23,-50.243,-54.183,-43.688,-45.681,-45.464,-30.576,-47.105
-52.173,-52.244,-55.171,-44.418,-46.627,-46.237,-32.455,-48.616
-53.484,-54.239,-55.726,-44.352,-47.08,-46.042,-33.693,-50.084
-54.695,-56.071,-55.887,-44.491,-47.408,-46.173,-34.316,-50.829
-53.834,-55.017,-54.538,-44.456,-46.332,-46.605,-34.532,-50.311
-52.479,-52.398,-52.316,-44.417,-44.26,-47.346,-34.431,-49.324
-53.511,-52.51,-51.943,-45.44,-43.874,-48.751,-34.328,-49.36
-54.905,-54.417,-53.578,-46.636,-45.203,-49.798,-34.224,-49.965
-53.381,-53.957,-53.769,-46.209,-44.928,-49.538,-33.853,-49.75
-49.088,-50.409,-50.338,-44.025,-41.409,-48.107,-32.985,-48.689
-43.429,-46.11,-45.405,-41.205,-36.831,-45.771,-31.723,-47.517
-38.192,-43.267,-42.033,-39.167,-33.774,-43.552,-30.623,-46.659
-36.281,-42.907,-40.524,-38.941,-32.466,-42.959,-30.1,-46.48
-39.314,-45.25,-40.839,-40.37,-32.94,-44.003,-30.499,-47.486
-45.377,-49.623,-44.338,-42.545,-36.278,-45.704,-32.346,-49.574
-51.023,-54.181,-49.728,-44.781,-41.267,-47.588,-35.161,-51.608
-54.742,-57.296,-53.149,-46.79,-44.476,-49.412,-37.317,-52.692
-57.058,-59.131,-53.708,-48.368,-45.004,-50.899,-37.971,-52.874
-58.535,-60.717,-53.512,-49.012,-44.639,-51.592,-37.426,-52.093
-59.322,-61.868,-53.274,-48.241,-43.963,-50.942,-35.97,-50.353
-59.774,-62.054,-52.551,-47.154,-42.8,-49.908,-34.4,-48.937
-60.28,-62.403,-52.214,-47.76,-42.461,-50.448,-34.013,-48.924
-60.621,-63.92,-52.735,-49.811,-43.37,-52.328,-34.618,-49.297
-60.871,-65.856,-52.954,-51.577,-43.8,-54.067,-34.982,-49.156
-61.888,-67.181,-52.388,-52.874,-43.207,-55.829,-35.13,-49.523
-63.52,-67.29,-52.149,-53.938,-43.193,-57.471,-35.901,-50.992
-64.308,-66.013,-53.316,-54.073,-44.592,-57.581,-37.162,-52.515
-63.472,-64.229,-54.905,-53.567,-45.836,-56.719,-38.194,-53.206
-62.142,-63.657,-54.773,-53.802,-45.162,-56.933,-38.837,-53.238
-62.053,-64.807,-53.096,-54.569,-43.195,-57.799,-38.96,-52.935
-63.373,-66.156,-52.407,-54.549,-42.116,-57.541,-38.401,-52.431
-65.821,-67.48,-54.069,-54.521,-43.141,-57.133,-37.897,-52.223
-69.567,-70.26,-56.267,-55.653,-44.882,-58.049,-37.929,-52.385
-73.098,-73.53,-56.529,-56.328,-45.058,-58.473,-38.056,-52.092
-74.19,-74.833,-55.23,-55.124,-43.914,-56.689,-38.417,-51.434
-72.955,-74.482,-54.279,-53.552,-43.243,-54.566,-39.513,-51.764
-72.304,-75.683,-55.229,-54.597,-44.38,-55.983,-41.786,-54.051
-75.643,-80.641,-59.575,-60.084,-48.713,-62.751,-45.925,-58.086
-81.415,-86.175,-65.813,-66.985,-54.952,-70.431,-50.598,-62.045
-82.88,-86.843,-68.628,-69.679,-57.811,-72.694,-52.483,-63.638
-77.779,-83.165,-65.724,-67.861,-54.961,-70.234,-51.108,-62.748
-70.997,-79.701,-60.655,-65.38,-50.29,-67.965,-49.304,-61.064
-66.137,-77.097,-57.355,-63.517,-47.681,-67.1,-48.507,-59.724
-62.756,-73.389,-56.696,-61.681,-47.309,-66.234,-47.815,-58.856
-60.35,-69.451,-57.338,-60.34,-47.592,-65.373,-47.067,-58.347
-59.682,-67.827,-57.687,-59.841,-47.444,-65.035,-47.494,-58.313
-60.432,-68.129,-57.52,-58.959,-47.007,-64.065,-49.029,-58.583
-59.724,-67.299,-57.181,-56.34,-46.597,-61.173,-49.774,-58.33
-56.355,-64.941,-56.883,-53.298,-46.47,-57.962,-49.234,-57.483
-55.059,-65.419,-58.117,-53.715,-48.235,-58.331,-49.806,-57.563
-60.315,-71.532,-61.739,-59.036,-52.512,-63.555,-53.16,-59.476
-67.696,-78.144,-64.213,-64.439,-55.294,-68.638,-56.651,-61.492
-69.009,-77.876,-62.141,-64.08,-53.188,-67.732,-56.367,-61.463
-64.447,-72.013,-58.806,-59.233,-49.854,-62.846,-52.832,-59.598
-61.635,-68.675,-59.321,-55.975,-50.329,-60.603,-49.932,-57.329
-63.52,-70.874,-62.781,-56.074,-53.376,-61.723,-49.122,-55.228
-65.737,-73.903,-64.288,-55.973,-54.414,-61.536,-48.728,-53.096
-65.17,-73.81,-61.81,-53.697,-52.076,-58.723,-47.541,-50.92
-62.779,-70.98,-57.332,-50.742,-48.371,-55.766,-45.715,-49.102
-59.85,-66.849,-53.48,-48.265,-45.288,-53.617,-43.931,-48.189
-57.43,-62.991,-52.203,-46.472,-44.286,-51.999,-43.096,-48.313
-56.477,-61.194,-53.895,-45.626,-45.87,-51.265,-43.116,-48.416
-56.959,-61.821,-56.541,-45.357,-48.27,-51.177,-43.116,-47.586
-58.679,-63.763,-58.173,-45.075,-49.537,-50.982,-43.232,-46.799
-60.391,-64.726,-58.046,-43.965,-49.234,-49.916,-43.343,-46.329
-59.499,-62.339,-55.622,-40.961,-47.341,-47.214,-42.077,-44.539
-56.682,-58.503,-52.551,-37.69,-45.251,-44.342,-39.734,-41.933
-55.691,-58.202,-52.032,-37.588,-45.308,-44.133,-38.807,-41.296
-56.42,-60.833,-53.334,-40.006,-46.534,-45.81,-40.338,-42.996
-55.187,-60.28,-52.744,-40.874,-45.647,-45.827,-42.184,-44.557
-51.085,-54.977,-49.755,-39.295,-42.478,-43.635,-41.714,-44.362
-46.812,-50.056,-46.778,-38.27,-39.523,-42.245,-39.459,-43.155
-44.921,-49.455,-44.996,-39.749,-37.905,-43.761,-38.301,-42.318
-45.361,-51.575,-44.097,-42.47,-37.243,-46.811,-39.298,-42.358
-46.301,-53.102,-43.743,-44.246,-37.258,-48.545,-40.831,-43.033
-46.675,-53.2,-43.587,-44.467,-37.556,-48.121,-41.571,-43.886
-46.448,-52.208,-42.94,-43.606,-37.28,-46.697,-41.596,-44.303
-45.189,-49.788,-40.999,-41.829,-35.578,-45.028,-40.935,-43.609
-42.769,-46.624,-37.524,-39.66,-32.313,-43.557,-39.424,-41.867
-40.659,-44.865,-33.562,-38.125,-28.703,-43.023,-37.31,-39.92
-40.137,-45.179,-30.675,-37.043,-26.124,-42.746,-34.706,-38.197
-40.473,-45.66,-28.81,-35.45,-24.085,-40.881,-31.972,-36.606
-40.921,-44.877,-26.905,-33.892,-21.775,-37.847,-30.377,-35.39
-41.626,-43.785,-25.221,-33.715,-20.032,-36.24,-30.479,-34.916
-41.442,-43.317,-24.261,-34.644,-19.205,-36.768,-31.16,-35.082
-39.053,-42.362,-23.399,-35.353,-18.297,-37.745,-31.661,-35.687
-36.387,-40.355,-22.81,-35.629,-17.657,-38.285,-32.844,-36.791
-36.642,-39.604,-24.334,-36.578,-19.293,-39.108,-35.593,-38.608
-39.825,-42.328,-28.887,-38.967,-23.783,-40.709,-39.258,-41.17
-43.687,-47.415,-34.249,-41.732,-28.854,-42.311,-41.862,-43.417
-46.615,-51.55,-37.237,-42.902,-31.751,-42.791,-42.062,-43.728
-47.548,-52.284,-37.443,-41.854,-31.962,-41.932,-41.165,-42.099
-46.348,-50.295,-37.078,-39.62,-31.293,-40.284,-41.435,-40.293
-45.618,-49.343,-38.625,-38.335,-32.488,-39.189,-43.48,-40.403
-48.012,-51.768,-42.388,-39.567,-36.181,-39.89,-46.477,-42.949
-51.34,-54.638,-45.402,-41.695,-39.17,-41.316,-48.821,-45.375
-51.662,-54.34,-45.45,-41.948,-39.064,-41.464,-49.441,-45.323
-49.628,-52.096,-44.248,-40.678,-37.823,-40.704,-48.957,-44.078
-48.835,-51.175,-44.248,-40.55,-38.007,-41.399,-48.04,-43.343
-50.54,-52.254,-45.819,-42.703,-39.677,-44.434,-46.803,-42.787
-53.417,-54.177,-48.009,-45.876,-41.713,-47.857,-46.366,-42.621
-55.877,-56.272,-49.386,-48.421,-42.948,-49.907,-47.278,-43.522
-56.28,-57.429,-48.381,-49.092,-41.859,-50.364,-47.224,-43.972
-54.365,-56.772,-45.236,-47.904,-38.413,-49.363,-44.867,-42.349
-53.126,-56.371,-43.285,-47.376,-36.097,-48.19,-43.577,-40.645
-54.393,-57.846,-44.91,-49.227,-37.631,-48.517,-46.337,-41.683
-55.236,-58.527,-47.746,-51.372,-40.487,-49.91,-50.34,-44.236
-52.951,-55.924,-48.194,-51.319,-40.837,-50.686,-51.021,-44.969
-48.039,-50.781,-45.233,-48.635,-37.92,-49.437,-47.875,-42.961
-41.258,-44.218,-39.662,-43.758,-32.745,-45.548,-43.245,-39.453
-33.897,-37.713,-33.57,-38.422,-27.036,-40.684,-38.67,-35.749
-29.014,-33.871,-29.822,-35.138,-23.385,-37.625,-34.284,-32.439
-28.887,-34.004,-30.293,-34.631,-24.002,-37.006,-30.256,-29.624
-33.034,-37.047,-34.369,-35.809,-28.485,-37.605,-28.21,-28.07
-38.655,-40.855,-39.295,-37.421,-33.661,-38.559,-30.398,-28.973
-43.879,-45.116,-44.472,-39.817,-38.507,-40.853,-37.742,-32.973
-50.702,-52.221,-52.842,-45.233,-46.346,-46.651,-49.413,-40.526
-60.435,-61.888,-63.837,-53.592,-57.379,-54.814,-61.883,-50.116
-67.952,-68.297,-70.43,-59.67,-64.534,-59.628,-69.19,-56.594
-67.254,-66.98,-68.572,-59.051,-62.999,-57.789,-68.55,-56.603
-60.337,-60.636,-63.002,-53.922,-57.313,-52.348,-63.616,-53.08
-53.761,-54.716,-58.514,-48.894,-52.832,-47.236,-59.124,-49.93
-49.8,-50.829,-54.018,-45.353,-48.674,-43.517,-56.272,-47.319
-47.403,-48.278,-49.718,-43.289,-44.617,-41.914,-54.662,-45.111
-47.638,-48.714,-49.639,-44.194,-44.577,-43.634,-54.502,-44.722
-50.903,-52.524,-52.859,-47.713,-47.964,-46.975,-55.239,-45.51
-53.396,-55.062,-53.599,-49.963,-49.037,-47.874,-54.871,-45.061
-53.047,-54.202,-52.307,-50.055,-48.045,-46.561,-53.572,-44.268
-52.444,-53.64,-53.988,-51.181,-49.935,-47.074,-54.388,-45.883
-51.986,-53.975,-56.486,-52.657,-52.585,-48.965,-56.878,-48.095
-48.712,-51.553,-53.764,-51.033,-50.119,-48.556,-56.732,-47.23
-43.306,-46.81,-47.972,-48.158,-44.68,-46.683,-53.458,-44.643
-39.571,-43.236,-46.049,-47.805,-42.798,-46.105,-50.905,-43.647
-37.993,-40.697,-48.221,-48.647,-44.67,-45.776,-51.335,-44.22
-36.965,-37.83,-50.272,-48.205,-46.62,-44.196,-53.761,-45.152
-36.549,-36.04,-51.623,-47.221,-48.152,-42.448,-55.466,-45.734
-36.281,-35.937,-52.841,-46.17,-49.416,-40.948,-54.249,-44.504
-34.236,-35.289,-51.703,-43.73,-48.103,-38.506,-50.853,-41.045
-30.064,-32.747,-47.225,-39.981,-43.555,-35.189,-47.971,-37.601
-25.781,-29.783,-42.432,-36.956,-39.045,-32.754,-46.728,-36.17
-23.764,-28.476,-40.442,-35.708,-37.398,-32.037,-45.701,-35.816
-24.072,-28.656,-40.344,-35.055,-37.17,-31.834,-43.487,-34.385
-24.109,-28.107,-38.443,-33.304,-34.809,-30.522,-40.686,-31.578
-22.488,-25.897,-33.524,-30.303,-29.645,-28.029,-38.585,-28.882
-20.653,-23.659,-28.785,-27.926,-24.949,-26.262,-37.356,-27.386
-19.976,-23.357,-27.304,-28.119,-23.716,-26.801,-36.426,-27
-20.355,-24.865,-28.13,-30.17,-25.038,-28.498,-35.618,-27.098
-20.565,-25.946,-28.204,-31.836,-25.603,-29.629,-35.196,-27.091
-19.366,-25.218,-26.584,-32.766,-24.23,-30.704,-35.048,-26.685
-17.247,-23.635,-24.925,-33.388,-22.679,-31.747,-34.298,-25.635
-15.715,-22.504,-24.367,-32.782,-22.192,-30.841,-32.603,-23.799
-15.435,-22.335,-24.311,-30.952,-22.357,-28.261,-31.336,-22.046
-16.243,-22.895,-23.936,-29.228,-22.437,-26.264,-31.497,-21.459
-17.993,-23.536,-23.274,-27.756,-22.099,-24.892,-31.66,-21.224
-20.572,-24.041,-22.799,-25.947,-21.63,-22.971,-30.252,-19.666
-22.989,-24.129,-22.59,-23.834,-21.319,-20.799,-27.923,-16.831
-23.457,-23.036,-22.141,-21.669,-20.798,-19.04,-26.019,-14.038
-22.062,-21.543,-21.367,-20.055,-20.092,-17.758,-24.997,-12.401
-21.613,-22.134,-21.333,-19.982,-20.372,-17.255,-24.857,-12.288
-22.364,-23.838,-21.815,-20.602,-21.268,-17.118,-24.964,-12.454
-20.328,-21.746,-20.423,-19.346,-20.22,-15.733,-24.382,-11.246
-15.504,-16.356,-17.727,-16.736,-17.885,-13.593,-23.646,-9.545
-13.412,-14.585,-17.352,-16.104,-17.925,-13.304,-23.718,-9.157
-14.488,-17.145,-18.352,-16.927,-19.221,-14.096,-23.413,-9.086
-13.047,-17.215,-16.121,-15.662,-17.152,-12.608,-21.345,-7.502
-8.727,-13.645,-11.542,-13.152,-12.736,-9.964,-19.233,-5.815
-7.416,-12.602,-10.384,-13.556,-11.715,-10.461,-19.682,-6.753
-10.789,-16.275,-13.685,-16.869,-14.991,-13.749,-21.996,-9.523
-14.635,-20.382,-16.44,-18.942,-17.655,-15.544,-23.428,-10.856
-16,-21.807,-15.462,-18.141,-16.834,-14.682,-22.871,-9.824
-15.217,-21.044,-11.936,-16.528,-13.721,-13.457,-21.034,-8.034
-12.861,-18.237,-7.659,-14.941,-9.712,-12.258,-18.92,-6.51
-9.285,-13.317,-3.995,-12.271,-5.976,-9.516,-17.439,-5.078
-6.127,-8.848,-2.662,-9.222,-4.578,-6.059,-17.324,-3.894
-5.596,-7.733,-4.679,-8.194,-6.867,-4.603,-18.776,-3.883
-7.983,-9.341,-8.683,-9.616,-11.361,-5.639,-20.991,-5.217
-10.657,-10.532,-11.01,-11.113,-14.271,-6.909,-22.286,-6.337
-10.881,-9.398,-9.557,-10.598,-13.556,-6.611,-21.534,-5.794
-9.13,-6.771,-6.69,-8.693,-11.282,-5.309,-19.268,-3.966
-8.059,-4.782,-5.574,-7.192,-10.088,-4.264,-17.017,-2.05
-8.33,-3.898,-5.398,-5.738,-9.435,-2.834,-15.633,-0.463
-6.969,-1.724,-2.904,-2.098,-6.966,0.734,-14.186,1.449
-2.104,2.863,2.302,3.243,-2.363,5.432,-11.678,3.889
2.469,6.027,6.61,6.32,1.471,7.552,-9.483,5.536
2.265,3.963,7.182,5.376,1.889,6.042,-9.425,5.505
-0.161,-0.242,5.9,3.621,0.563,4.244,-10.049,5.348
1.384,-0.384,6.718,4.696,1.426,5.23,-8.24,7.181
6.841,3.773,9.793,7.695,4.465,8.034,-4.733,9.991
10.464,7.352,11.681,8.834,5.994,9.414,-3.376,10.707
11.003,8.906,11.929,7.751,5.688,8.862,-4.258,9.478
12.559,11.114,13.915,7.911,7.163,9.184,-3.735,9.599
15.116,13.483,17.745,9.9,10.596,10.958,-1.255,11.855
14.724,12.445,19.31,10.56,11.886,11.664,0.264,13.758
12.355,8.849,17.393,9.395,9.872,11.135,0.217,14.332
12.147,7.159,14.947,9.012,7.447,11.681,0.516,14.901
13.037,7.609,13.639,9.538,5.921,13.225,0.879,15.355
11.092,6.597,12.864,8.938,4.589,13.787,-0.147,14.655
7.265,3.708,12.65,7.724,4.061,13.47,-1.154,14.072
5.601,2.292,13.479,8.147,5.165,13.889,0.017,15.251
6.474,3.586,15.103,10.152,7.1,15.199,2.604,17.16
7.253,5.281,17.353,11.956,9.096,16.39,4.624,18.193
7.223,6.299,19.907,13.15,11.076,17.186,5.452,18.485
6.948,7.543,20.767,13.924,11.702,17.696,5.042,18.271
5.92,8.647,18.574,13.636,9.641,17.639,3.658,17.273
4.449,8.941,16.171,12.798,7.247,17.393,2.98,16.442
4.018,9.123,17.066,13.278,8.06,18.097,4.51,17.154
5.003,9.892,20.185,15.43,11.487,19.896,7.508,19.399
6.597,11.249,22.179,17.532,14.032,21.664,10.102,22.084
7.717,12.564,22.09,18.098,14.031,22.609,11.14,23.704
8.728,13.552,22.037,18.104,13.638,23.174,11.21,24.007
12.142,15.582,24.237,19.835,15.899,24.218,12.253,25.045
17.761,19.143,26.9,22.587,19.09,25.316,14.293,27.317
21.021,22.06,26.252,23.368,18.626,25.251,14.689,27.989
20.165,22.905,22.781,22.208,14.878,24.276,12.571,26.086
17.662,21.738,19.468,20.659,11.358,22.865,9.677,23.676
13.842,17.89,16.353,17.467,7.981,19.838,6.755,21.288
8.273,12.533,12.801,12.564,3.806,15.671,3.832,18.397
4.453,9.941,10.926,10.284,1.446,14.102,2.24,16.733
4.903,11.248,12.055,12.564,2.582,16.461,2.733,17.696
6.06,12.207,13.063,14.815,3.63,18.659,3.367,18.839
4.087,10.307,10.5,13.265,0.997,17.452,2.133,17.534
1.35,8.621,6.306,10.851,-3.014,15.448,0.143,15.466
1.742,10.22,4.578,11.425,-4.31,16.281,-0.668,15.134
3.854,13.69,5.27,13.389,-3.28,18.737,-0.606,15.771
4.37,16.365,5.63,13.608,-3.01,19.528,-0.654,16.064
3.344,17.548,4.494,12.369,-4.659,18.362,-1.246,15.925
2.282,18.015,2.895,11.731,-6.717,17.41,-2.493,15.195
1.137,18.861,2.424,12.713,-7.255,18.033,-3.047,14.792
-1.056,19.331,3.213,14.298,-6.243,19.088,-1.521,16.275
-3.568,17.91,4.378,15.222,-4.747,19.211,0.88,18.677
-4.104,16.111,5.556,16.055,-3.23,19.284,1.884,19.49
-2.311,16.082,6.356,16.966,-2.206,19.828,1.035,18.509
0.75,17.339,7.229,17.258,-1.457,19.946,0.335,18.186
5.391,19.428,10.004,18.2,0.861,20.385,2.146,20.274
10.835,22.35,13.815,20.774,4.542,22.211,5.634,23.442
13.594,23.857,14.603,22.674,5.972,23.62,7.391,25.084
11.749,21.68,11.594,21.816,3.65,22.487,6.467,24.489
7.138,17.022,8.582,18.85,0.528,19.119,4.892,22.625
3.22,13.28,7.874,15.547,-0.645,15.277,3.923,20.465
3.198,13.331,8.776,14.257,0.326,13.647,3.898,19.242
7.808,17.407,11.363,16.645,3.25,16.206,5.821,20.559
14.468,22.665,16.716,21.44,8.435,21.328,10.414,24.66
20.724,26.506,24.185,26.088,15.573,25.754,17.048,29.911
26.592,29.473,31.708,30.209,23.357,29.197,24.618,35.339
31.679,32.788,37.395,34.444,29.571,32.925,31.834,41.129
33.272,34.534,39.357,36.915,31.584,35.156,36.259,45.545
30.008,32.038,36.584,35.139,28.522,33.245,35.777,45.634
23.603,25.85,29.761,29.649,21.639,27.812,30.161,40.753
15.742,18.281,20.413,22.485,12.518,20.841,20.187,32.405
8.929,12.584,12.329,16.47,4.624,15.055,9.333,23.708
7.247,12.352,10.456,15.256,2.748,14.335,3.541,19.081
10.598,16.614,14.251,18.819,6.491,18.611,4.484,20.218
14.468,20.605,18.272,22.941,10.491,23.204,8.428,24.232
16.899,22.57,20.191,25.143,12.28,25.57,12.31,27.756
19.201,24.12,22.088,26.3,13.907,26.857,15.396,29.968
21.356,25.764,24.879,27.149,16.566,27.879,17.143,31.115
22.262,26.747,26.407,27.283,18.345,28.198,17.129,31.124
23.191,27.998,26.073,27.485,18.491,28.533,16.427,30.842
26.132,31.138,26.823,29.586,19.53,30.623,17.231,32.016
29.646,34.828,29.428,32.681,22.069,33.731,19.867,34.416
30.22,35.796,29.604,32.88,22.241,34.216,21.337,35.117
28.171,34.289,25.93,29.683,18.874,31.343,19.872,33
29.155,35.07,25.204,28.764,18.21,30.284,19.281,31.962
35.564,39.764,31.609,32.824,24.119,33.758,22.795,34.994
40.823,42.609,37.822,35.707,29.88,36.387,26.288,38.225
39.42,39.308,36.842,33.191,29,34.381,25.369,37.4
34.763,33.191,32.55,29.812,25.214,31.405,22.678,34.776
31.258,28.207,30.641,28.862,23.811,30.157,21.646,33.47
29.611,25.551,30.901,28.219,24.21,29.313,21.396,32.664
31.49,27.597,32.441,28.11,25.568,29.186,21.382,32.273
37.409,34.571,35.736,30.601,28.737,31.01,22.785,33.916
42.877,40.946,38.8,33.482,31.847,33.022,24.674,36.304
44.541,42.697,39.079,33.865,32.316,33.442,25.254,36.829
43.999,41.68,37.11,32.917,30.709,33.333,24.774,35.815
42.878,40.338,34.327,32.038,28.236,33.221,23.465,34.522
41.701,39.465,31.788,31.054,25.755,32.367,21.341,33.275
42.151,39.802,31.414,30.97,25.38,31.892,20.565,33.083
44.412,40.638,33.364,32.368,27.454,33.018,22.387,34.308
46.595,41.083,35.461,34.3,29.699,35.002,24.852,35.879
48.522,42.717,37.154,37.044,31.494,37.673,26.771,37.893
50.618,45.74,38.623,40.461,33.114,40.983,28.404,40.492
52.02,47.504,38.902,42.336,33.507,43.152,29.123,42.189
52.066,46.926,37.88,41.9,32.362,42.981,28.656,42.446
49.197,43.814,35.133,39.858,29.433,40.759,27.357,41.728
42.356,37.892,30.168,36.595,24.587,37.302,25.474,39.9
35.538,32.326,26.377,34.221,21.218,34.803,24.753,38.158
33.216,30.425,26.691,34.684,22.001,34.884,26.524,38.539
33.459,30.15,27.759,35.614,23.396,35.463,28.495,40.165
32.626,28.899,26.311,34.336,22.067,34.268,28.306,40.502
31.723,28.351,25.158,32.959,20.788,33.117,27.436,39.74
33.298,29.969,27.522,34.294,22.86,34.348,28.304,40.117
37.02,32.019,31.913,36.939,27.029,36.618,30.471,41.836
40.522,33.437,35.096,38.055,30.244,37.562,31.399,42.636
41.561,34.525,35.418,37.117,30.829,36.94,29.618,40.944
40.043,34.265,33.379,35.074,29.104,35.403,26.274,37.592
38.437,32.65,30.861,32.677,26.647,33.202,23.216,34.394
38.322,32.45,28.895,30.526,24.351,30.852,20.653,32.007
39.149,35.304,27.926,29.989,22.972,29.905,18.963,30.67
41.144,40.004,29.561,32.619,24.488,32.051,20.268,31.943
44.156,44.208,33.411,37.002,28.431,36.3,24.182,35.701
45.197,45.496,35.42,38.963,30.409,38.796,26.228,37.918
42.725,43.417,34.057,37.244,28.925,37.604,24.389,36.291
39.584,40.124,32.49,34.461,27.435,34.457,21.429,33.292
38.424,37.212,32.591,32.039,27.661,30.817,19.552,31.184
38.31,34.089,32.788,29.19,27.692,26.623,18.353,29.449
37.072,30.28,31.226,25.423,25.853,22.303,16.788,27.109
35.069,27.688,28.173,21.776,22.763,19.403,14.877,24.657
34.308,28.012,25.384,20.142,20.16,19.193,13.565,23.387
34.421,28.972,23.245,20.578,18.234,20.198,12.478,22.995
33.994,27.934,21.227,21.336,16.489,19.602,10.969,22.338
33.396,26.166,20.547,21.991,16.361,17.907,10.563,21.925
32.713,25.022,22.317,22.945,18.758,17.791,12.071,22.411
31.612,23.817,25.302,23.773,21.817,19.506,14.029,23.208
31.332,22.922,28.086,24.598,24.128,21.507,15.891,24.088
32.064,22.662,30.138,25.74,26.021,22.837,17.843,25.16
31.806,21.656,30.906,26.234,27.286,23.175,18.937,25.887
30.289,19.932,30.526,25.476,27.226,22.645,18.813,25.701
29.005,18.915,29.477,24.217,25.842,21.423,18.061,24.371
28.048,18.4,27.565,23.042,23.643,19.881,16.691,22.133
26.524,17.432,25.032,21.893,21.191,19.082,14.915,20.019
24.515,16.297,23.238,21.274,19.43,19.767,13.946,19.222
23.069,15.662,23.161,22.009,19.551,21.349,14.576,19.954
22.421,15.092,23.837,23.264,20.993,22.379,15.783,20.913
22.253,14.521,24.337,23.836,22.258,22.522,16.431,21.172
23.499,15.71,25.937,24.799,23.9,23.401,17.39,21.871
26.006,18.47,28.513,26.727,26.049,25.503,19.067,23.432
26.375,18.828,28.638,27.051,25.991,26.297,19.404,23.817
22.912,15.481,25.166,24.256,22.636,24.147,17.045,21.826
20.049,13.343,22.229,21.584,19.765,21.71,13.869,19.277
22.921,16.663,23.742,23.028,21.388,22.681,13.1,18.733
29.324,22.504,27.683,27.126,25.564,26.094,15.232,20.094
31.986,24.458,28.465,28.244,26.341,26.843,16.772,20.477
27.897,20.487,23.644,23.867,21.408,22.382,14.626,17.885
21.007,14.358,16.178,17.241,14.277,16.143,10.167,13.663
16.55,10.82,11.08,13.385,9.737,13.45,7.224,10.872
16.188,11.259,10.961,14.585,9.784,15.556,7.614,11.004
18.439,13.868,14.491,18.734,13.1,18.974,9.943,12.75
20.906,16.534,18.38,21.772,16.798,20.337,11.809,14.07
21.636,17.76,20.145,21.846,18.596,19.487,12.129,14.282
20.752,16.924,19.791,20.131,18.411,17.71,11.572,13.741
19.997,15.093,19.006,18.063,17.8,15.521,11.175,12.913
20.521,14.125,19.145,16.514,18.063,13.662,11.732,12.672
22.884,15.526,20.707,17.005,19.621,14.146,13.833,13.996
26.019,18.406,22.463,19.046,21.267,16.641,16.115,15.677
26.835,19.092,21.911,19.174,20.707,17.39,16.433,15.472
24.887,16.849,19.138,16.795,18.037,15.324,15.547,14.214
23.517,15.883,17.315,15.818,16.263,14.327,15.591,14.275
24.21,18.057,18.185,18.441,17.217,17.209,16.867,15.68
24.684,19.629,19.804,21.626,19.065,20.966,18.163,16.879
23.518,18.313,19.656,21.492,19.13,20.905,18.265,16.853
21.963,16.931,17.794,18.258,17.364,17.138,17.049,15.435
21.224,17.505,15.954,14.694,15.571,13.136,15.621,13.474
21.902,18.703,15.778,12.926,15.39,11.033,15.71,12.879
23.716,19.47,17.358,13.411,16.908,10.775,17.851,14.387
24.722,19.888,18.659,14.591,18.227,11.121,19.803,15.875
23.752,19.697,17.825,14.44,17.525,10.964,18.954,15.119
21.529,18.295,15.045,12.832,14.799,10.342,15.913,12.775
19.332,16.131,11.994,11.375,11.57,9.984,13.408,10.845
18.861,15.132,10.247,11.049,9.469,9.975,12.433,9.706
20.221,15.731,9.498,10.781,8.429,9.222,11.74,8.438
21.108,16.043,8.755,9.664,7.696,7.23,10.714,7.166
21.782,16.675,9.443,9.648,8.551,6.015,10.632,7.106
25.001,20.365,13.539,12.765,12.554,7.727,12.654,8.561
29.477,25.648,19.468,17.357,18.116,11.464,15.934,10.612
31.329,28.291,23.974,20.749,22.43,14.993,18.541,12.58
30.459,27.858,26.293,22.986,24.862,17.679,19.627,14.239
29.808,27.413,27.711,25.47,26.423,20.259,19.99,15.435
30.857,28.439,28.649,27.888,27.613,22.632,20.212,16.007
32.425,29.756,28.19,28.414,27.71,23.221,19.513,15.284
32.814,30.47,26.323,27.049,26.246,21.749,17.751,13.159
32.099,30.91,24.85,26.378,24.604,20.643,16.472,11.359
31.857,31.368,24.885,27.739,24.323,21.644,16.373,11.169
32.013,31.125,24.641,28.783,24.136,22.758,15.871,10.996
30.461,29.289,22.611,27.084,22.385,21.369,14.274,9.404
28.019,27.206,21.632,24.605,21.511,19.143,14.252,8.586
28.231,26.921,24.484,24.555,24.203,19.17,17.497,10.442
31.284,27.806,28.513,26.34,28.023,20.704,21.568,13.25
34.458,28.648,30.472,28.1,29.997,21.948,25.023,16.012
36.19,29.604,31.521,30.086,31.297,23.594,29.455,19.872
35.855,29.943,32.917,32.177,32.863,25.703,33.926,23.811
32.512,27.598,31.591,31.527,31.363,25.159,33.81,24.444
24.636,20.56,22.979,24.459,22.359,18.34,25.392,19.031
12.583,9.044,7.72,11.347,6.84,6.256,10.092,7.922
2.667,-0.905,-5.198,0.084,-6.106,-3.108,-3.577,-2.819
2.08,-1.751,-6.695,-0.87,-7.602,-2.539,-6.698,-5.709
9.27,5.367,1.558,6.669,0.633,5.06,0,-0.95
17.245,13.009,11.631,14.67,10.739,12.353,9.414,5.476
22.81,17.643,19.838,19.834,18.913,17.141,17.267,10.279
25.434,19.034,24.909,22.294,23.823,19.308,21.453,12.511
23.915,16.157,24.422,21.049,23.097,17.502,19.87,10.728
20.627,11.658,20.548,17.864,19.029,14.133,15.197,6.765
21.029,11.774,20.211,17.802,18.856,14.394,14.322,5.833
25.156,16.684,25.232,21.629,24.377,18.106,18.719,9.201
27.645,19.887,29.908,24.439,29.351,20.082,22.354,12.47
26.329,18.478,29.065,22.921,28.415,18.089,20.738,11.74
23.632,15.828,23.426,18.792,22.641,14.88,15.831,7.69
21.093,14.386,17.242,15.155,16.467,13.086,11.661,3.763
18.507,13.08,13.759,13.418,12.982,12.575,9.992,2.292
16.718,11.86,13.515,13.575,12.546,12.799,10.528,3.05
16.661,12.348,14.828,14.533,13.572,13.602,11.711,4.282
17.428,13.864,15.326,14.424,13.965,13.75,11.408,4.213
17.872,14.157,14.452,12.82,13.15,12.53,9.455,2.739
17.725,13.222,13.692,12.014,12.459,11.788,8.628,1.947
16.773,12.508,13.865,13.705,12.845,13.019,10.651,3.461
15.366,11.822,14.352,15.993,13.565,14.756,13.295,5.753
13.739,9.475,14.374,16.081,13.438,14.899,13.993,6.232
10.942,5.296,13.452,13.988,12.215,13.232,13.399,4.988
7.23,1.827,11.894,12.105,10.626,11.49,13.284,4.148
4.473,0.926,10.437,11.918,9.197,11.256,13.87,4.666
2.837,0.884,8.631,12.005,7.338,11.168,14.147,5.266
1.591,-0.12,6.38,10.955,5.219,9.458,13.717,4.78
1.831,-0.429,5.781,10.489,4.874,8.337,13.68,4.379
3.721,1.397,7.181,11.868,6.318,9.957,14.531,5.278
4.471,3.255,7.362,12.801,6.39,11.656,14.778,6.181
2.115,2.493,4.635,11.251,3.819,10.422,13.223,5.418
-1.872,-0.771,1.261,8.81,0.915,8.023,11.169,3.854
-4.312,-3.573,0.281,8.683,0.078,8.307,11.117,3.863
-3.567,-3.438,2.264,11.09,1.568,11.083,13.068,5.555
-1.323,-2.057,4.834,12.271,3.683,12.107,14.069,6.088
-0.141,-2.522,5.729,9.983,4.706,9.751,12.67,3.987
-0.32,-4.25,5.454,6.891,4.879,7.061,10.895,1.392
-1.478,-5.485,4.775,5.451,4.522,6.032,10.163,0.088
-4.156,-7.283,2.629,4.137,2.417,4.992,8.798,-1.238
-7.195,-10.03,-0.756,1.77,-1.01,2.725,5.69,-3.634
-7.416,-10.724,-2.331,0.492,-2.484,1.01,3.065,-5.447
-4.13,-7.661,-0.233,1.984,-0.258,1.693,3.269,-5.224
-0.428,-3.402,3.481,4.664,3.392,3.708,5.239,-3.949
1.581,-0.793,6.213,6.631,5.923,5.062,6.598,-2.843
2.209,-0.492,7.414,7.525,6.933,5.275,6.539,-2.234
0.267,-3.057,6.375,6.188,5.652,3.96,4.728,-3.252
-4.915,-7.659,3.271,2.296,2.265,1.22,1.427,-6.196
-9.153,-10.406,1.181,-0.765,0.184,-0.758,-1.337,-8.597
-9.013,-9.271,1.44,-0.953,0.819,-0.797,-2.637,-9.167
-7.022,-6.862,1.751,-0.576,1.388,-0.167,-3.859,-9.574
-6.736,-6.036,1.04,-1.065,0.506,0.421,-5.253,-10.118
-8.274,-6.903,0.358,-1.591,-0.593,0.825,-5.725,-9.533
-10.403,-8.755,-0.835,-2.843,-2.113,-0.244,-5.922,-8.957
-12.938,-11.508,-4.39,-6.157,-5.689,-3.394,-7.473,-10.508
-14.997,-13.518,-8.849,-9.521,-10.009,-6.212,-9.527,-12.946
-14.379,-12.047,-10.086,-9.439,-11.2,-5.845,-9.272,-13.126
-12.01,-8.805,-8.25,-7.14,-9.247,-3.99,-6.764,-11.315
-12.432,-9.468,-7.929,-7.944,-8.584,-5.493,-6.169,-11.423
-16.756,-14.907,-10.208,-12.892,-10.656,-10.692,-9.347,-14.779
-19.895,-18.678,-10.959,-15.96,-11.466,-13.554,-11.863,-17.055
-17.573,-15.87,-8.161,-12.608,-8.589,-10.008,-9.795,-14.309
-12.628,-10.118,-5.41,-6.616,-5.575,-3.964,-6.129,-9.097
-10.721,-8.002,-6.299,-4.242,-6.266,-1.577,-5.476,-6.659
-11.859,-9.487,-9.205,-5.639,-8.979,-3.199,-6.945,-7.52
-11.069,-9.382,-10.015,-6.509,-9.508,-4.683,-6.915,-8.248
-6.801,-6.169,-8.162,-5.156,-7.406,-4.039,-5.198,-7.501
-3.13,-3.075,-6.938,-3.413,-6.03,-2.892,-4.37,-6.852
-2.654,-1.596,-7.394,-2.221,-6.373,-2.332,-4.801,-6.644
-2.891,-0.125,-6.603,-0.94,-5.602,-1.583,-4.206,-5.55
-2.3,0.997,-4.218,-0.628,-3.448,-1.224,-2.535,-4.289
-3.764,-0.833,-4.057,-3.303,-3.387,-3.417,-2.671,-5.269
-7.727,-4.335,-6.414,-7.295,-5.398,-7.355,-4.512,-7.815
-8.696,-4.658,-6.569,-8.003,-5.002,-8.726,-4.507,-8.409
-4.27,-1.721,-3.247,-4.629,-1.367,-6.086,-2.336,-6.536
-0.107,-0.379,-0.733,-1.279,1.064,-3.085,-1.2,-5.255
-0.373,-1.573,-1.049,-0.282,0.366,-2.168,-1.696,-5.641
-1.702,-1.76,-1.896,-0.19,-0.778,-2.065,-1.976,-6.12
-0.947,-0.184,-2.482,-0.483,-1.11,-2.371,-2.282,-6.595
-0.041,0.951,-3.493,-1.852,-1.524,-3.824,-3.55,-7.921
-0.318,1.203,-3.473,-3.317,-1.337,-5.315,-4.464,-9.285
0.02,1.618,-2.069,-3.791,-0.286,-5.561,-4.1,-9.764
1.721,2.669,-1.945,-3.637,-0.276,-4.927,-3.576,-9.793
3.346,4.059,-3.249,-3.337,-1.344,-4.369,-3.44,-9.926
3.718,4.859,-3.029,-3.093,-1.2,-4.597,-3.201,-10.11
3.071,4.598,-1.072,-2.859,0.494,-5.153,-2.934,-10.076
2.484,3.977,0.203,-2.258,1.93,-4.824,-3.201,-10.032
2.443,4.099,0.068,-1.325,2.188,-3.737,-4.169,-10.614
2.32,5.465,-0.406,-0.651,1.879,-3.233,-5.091,-11.589
0.377,5.906,-1.327,-1.556,0.926,-4.718,-5.571,-12.477
-5.339,1.586,-4.578,-5.595,-2.283,-8.92,-7.086,-14.282
-12.558,-6.226,-9.188,-11.023,-6.692,-13.839,-9.76,-16.823
-15.406,-11.334,-10.527,-13.452,-7.977,-15.833,-10.58,-17.355
-13.699,-12.217,-8.543,-12.775,-6.3,-14.778,-9.269,-15.938
-12.748,-12.279,-8.259,-12.469,-6.318,-13.264,-9.135,-15.706
-13.786,-12.332,-10.842,-12.801,-8.654,-11.717,-10.345,-16.57
-14.943,-11.77,-13.558,-12.512,-10.663,-10.098,-10.66,-16.353
-16.062,-11.51,-14.927,-12.617,-11.668,-10.181,-10.372,-15.628
-16.044,-11.153,-14.746,-13.651,-11.839,-12.119,-10.564,-15.795
-13.101,-8.905,-13.233,-14.109,-10.656,-13.349,-10.36,-15.982
-9.102,-5.291,-11.313,-13.154,-8.517,-12.553,-8.948,-15.077
-7.95,-3.634,-10.367,-12.484,-7.391,-12.012,-7.978,-14.448
-9.82,-5.492,-10.606,-13.751,-8.038,-13.68,-8.97,-15.346
-11.187,-7.642,-10.519,-14.923,-8.476,-14.829,-9.942,-15.693
-11.247,-7.373,-10.236,-13.765,-8.084,-13.055,-9.156,-14.04
-12.662,-6.976,-11.654,-12.582,-8.866,-11.83,-8.802,-13.08
-14.966,-8.233,-13.776,-13.657,-10.649,-14.125,-10.365,-14.674
-15.24,-9.061,-14.244,-15.24,-11.316,-16.994,-11.865,-16.737
-14.195,-8.476,-13.935,-16.003,-11.165,-17.637,-12.235,-17.692
-13.403,-7.628,-14.271,-16.644,-11.342,-17.45,-12.44,-18.371
-12.011,-6.988,-14.707,-17.204,-11.538,-18.351,-12.743,-19.29
-11.326,-7.375,-15.625,-18.098,-12.303,-20.469,-13.355,-20.393
-13.435,-9.049,-17.604,-19.713,-14.189,-22.21,-14.655,-21.583
-16.257,-10.087,-19.238,-20.708,-15.646,-21.864,-15.673,-22.329
-18.043,-10.25,-20.218,-21.404,-16.253,-21.22,-16.246,-23.217
-19.82,-11.177,-21.788,-23.93,-17.311,-23.469,-17.751,-25.355
-20.348,-11.744,-23.042,-27.229,-18.044,-27.211,-19.416,-27.458
-17.909,-10.572,-22.685,-28.734,-17.296,-28.879,-19.371,-27.803
-15.249,-10.208,-22.291,-29.115,-16.704,-28.755,-18.744,-27.333
-15.246,-12.601,-23.323,-30.069,-17.655,-28.955,-19.286,-27.385
-16.577,-15.522,-24.73,-31.149,-19.04,-29.357,-19.81,-27.459
-17.211,-16.323,-25.096,-31.232,-19.47,-28.808,-18.596,-26.775
-16.671,-14.434,-23.751,-29.597,-18.177,-26.738,-15.784,-25.07
-14.568,-10.396,-20.19,-25.503,-14.513,-22.739,-11.651,-21.739
-10.358,-5.179,-14.542,-19.349,-8.674,-17.018,-5.655,-16.347
-4.714,-0.133,-8.631,-13.496,-2.503,-11.217,1.718,-9.709
-0.6,2.892,-5.29,-10.144,1.307,-7.398,7.862,-3.81
-1.771,1.588,-6.687,-10.179,0.455,-7.222,8.972,-1.666
-9.374,-5.69,-14.493,-15.054,-7.099,-12.745,1.842,-6.397
-19.807,-16.459,-27.612,-24.679,-20.386,-23.611,-12.315,-17.216
-25.476,-22.634,-37.759,-32.694,-30.883,-32.776,-25.08,-26.999
-21.717,-18.998,-36.573,-32.371,-29.912,-33.038,-27.815,-28.916
-13.763,-11.303,-27.919,-26.533,-21.193,-27.334,-21.867,-24.516
-9.255,-7.094,-21.167,-21.852,-14.172,-22.841,-14.301,-19.372
-7.21,-4.604,-17.112,-18.267,-9.844,-19.502,-7.639,-14.848
-3.952,-0.413,-13.048,-13.918,-5.648,-14.928,-2.655,-11.199
-1.596,2.335,-11.875,-12.006,-4.52,-12.342,-2.997,-11.566
-2.167,1.327,-15.227,-14.246,-8.078,-14.165,-8.337,-15.785
-2.871,-0.018,-17.805,-16.191,-10.874,-16.257,-11.599,-17.949
-1.533,1.281,-15.425,-14.178,-8.542,-14.403,-8.961,-14.92
-0.065,3.469,-11.464,-10.953,-4.63,-10.802,-5.343,-11.018
-1.174,3.215,-11.162,-11.098,-4.712,-10.245,-6.129,-11.23
-4.117,0.788,-13.607,-13.93,-7.662,-12.503,-9.144,-14.034
-6.124,-0.853,-14.366,-15.379,-8.536,-13.635,-9.537,-15.001
-7.717,-1.566,-13.668,-14.851,-7.704,-13.139,-8.057,-14.116
-11.564,-3.685,-15.177,-14.775,-9.209,-13.488,-8.366,-14.228
-15.993,-6.392,-17.992,-15.131,-11.982,-14.267,-9.949,-15.358
-16.727,-6.549,-17.686,-13.831,-11.479,-13.027,-9.835,-15.42
-14.714,-5.259,-14.769,-11.646,-8.498,-10.937,-8.327,-14.543
-14.101,-6.159,-13.632,-11.402,-7.602,-11.151,-7.557,-14.369
-14.404,-8.273,-14.339,-12.674,-8.749,-12.622,-7.22,-14.403
-12.442,-8.142,-13.644,-12.54,-8.391,-11.982,-6.23,-13.315
-8.964,-6.379,-11.626,-10.827,-6.369,-9.686,-5.295,-11.974
-7.653,-6.666,-11.292,-10.367,-5.931,-9.026,-5.49,-12.001
-9.157,-9.664,-13.098,-12.044,-7.816,-10.681,-6.546,-13.052
-10.207,-11.799,-13.808,-13.346,-8.66,-12.131,-6.865,-13.209
-9.15,-11.189,-11.866,-13.227,-6.868,-12.32,-5.705,-12.112
-7.949,-10.279,-9.929,-13.86,-5.153,-13.285,-4.889,-11.932
-8.957,-11.655,-10.612,-16.683,-5.897,-16.53,-6.817,-14.399
-12.855,-15.238,-13.445,-20.785,-8.578,-20.737,-11.245,-18.504
-17.09,-18.411,-15.598,-23.748,-10.618,-23.126,-14.277,-21.001
-17.524,-18.276,-14.313,-23.175,-9.337,-22.063,-12.335,-19.46
-13.516,-14.734,-9.601,-19.08,-4.697,-17.984,-6.495,-14.493
-7.16,-9.152,-3.379,-13.022,1.329,-11.723,0.314,-7.855
-0.703,-3.359,1.805,-6.967,6.2,-5.264,5.888,-1.927
2.191,-1.187,2.877,-3.921,7.078,-2.58,7.708,0.11
-0.253,-4.035,-0.031,-4.692,4.33,-4.465,6.075,-1.274
-4.805,-8.032,-3.439,-7.01,1.24,-7.846,4.021,-2.83
-7.924,-9.794,-6.008,-9.809,-1.241,-11.419,1.848,-4.716
-8.992,-9.232,-8.22,-12.453,-3.59,-14.363,-1.021,-7.795
-9.43,-8.314,-9.863,-13.401,-5.388,-14.816,-3.07,-9.848
-11.528,-10.123,-11.635,-13.619,-7.293,-14.357,-4.292,-10.322
-15.786,-14.82,-14.484,-15.076,-10.156,-15.823,-6.034,-11.196
-19.466,-17.904,-16.616,-16.175,-12.17,-17.249,-6.901,-11.717
-19.687,-16.358,-15.462,-14.654,-11.131,-15.528,-5.093,-9.932
-17.622,-13.58,-12.836,-12.437,-8.906,-12.851,-2.882,-7.817
-17.397,-14.466,-13.189,-12.569,-9.435,-13.123,-3.172,-8.245
-20.462,-18.536,-16.994,-14.641,-13.064,-15.759,-5.182,-10.232
-23.638,-21.477,-20.828,-16.489,-16.744,-17.778,-7.081,-11.542
-22.8,-20.469,-21.749,-16.479,-17.648,-17.717,-7.813,-11.463
-17.885,-16.481,-19.099,-13.937,-15.068,-15.607,-6.553,-9.999
-13.935,-13.362,-15.362,-10.674,-11.568,-12.807,-4.745,-8.307
-15.164,-13.905,-14.715,-9.839,-11.108,-11.245,-5.623,-8.665
-19.659,-17.064,-18.079,-11.946,-14.293,-11.46,-9.408,-11.51
-22.354,-19.659,-21.579,-14.586,-17.577,-12.45,-12.363,-14.206
-21.37,-19.671,-22.119,-16.028,-18.326,-13.38,-12.349,-14.696
-19.499,-18.138,-21.553,-16.977,-18.167,-14.478,-11.754,-14.408
-19.149,-17.205,-22.234,-18.159,-19.138,-15.793,-12.583,-15.117
-19.115,-16.817,-22.7,-18.578,-19.952,-16.506,-13.301,-15.82
-18.822,-16.246,-21.851,-17.899,-19.454,-16.564,-12.833,-15.348
-19.693,-16.109,-21.404,-17.556,-18.898,-16.703,-12.411,-14.543
-20.681,-16.207,-21.429,-17.88,-18.439,-16.436,-12.494,-14.122
-19.888,-15.734,-20.185,-17.607,-17,-15.026,-12.158,-13.728
-18.439,-15.293,-17.792,-16.267,-14.941,-13.117,-10.963,-12.977
-17.913,-15.645,-15.705,-14.705,-13.28,-11.522,-9.304,-11.762
-18.295,-16.868,-15.016,-14.195,-12.782,-10.77,-8.17,-10.712
-18.287,-17.947,-15.437,-14.859,-13.365,-10.856,-8.209,-10.523
-15.651,-16.505,-14.852,-14.682,-13.027,-10.334,-8.191,-10.216
-10.526,-12.481,-11.857,-12.175,-10.038,-8.124,-6.315,-8.362
-6.401,-9.101,-7.645,-8.71,-5.386,-5.136,-2.858,-5.376
-5.03,-7.534,-4.338,-6.467,-1.574,-2.817,0.018,-2.992
-4.484,-5.553,-2.893,-5.853,-0.187,-1.65,0.752,-2.255
-2.895,-1.993,-2.375,-5.171,-0.236,-0.643,0.525,-1.946
-0.798,1.501,-1.718,-3.131,0.108,1.137,1.317,-0.432
0.666,3.653,-1.321,-1.247,0.675,2.652,2.246,0.985
1.976,5.545,-1.063,-0.961,0.973,3.024,1.773,0.59
4.06,7.809,0.309,-0.605,1.986,3.542,1.638,0.168
5.95,8.945,2.332,1.112,3.756,4.896,3.451,1.388
5.195,7.68,2.69,2.046,4.37,5.332,4.586,2.091
1.492,5.219,1.276,1.157,3.374,4.337,3.307,1.08
-1.342,4.694,1.051,1.713,3.132,4.753,2.872,1.22
-0.255,7.376,3.291,5.645,5.002,8.145,5.466,4.126
2.207,10.199,5.385,9.48,7.054,11.636,8.338,7.147
1.945,9.61,4.637,9.205,6.689,11.629,8.331,7.28
-0.542,6.424,1.958,5.621,4.092,8.39,5.89,4.964
-1.899,4.17,0.407,2.737,2.101,5.698,3.859,3.025
-2.027,3.713,0.415,2.055,1.789,5.605,3.375,2.368
-3.756,2.738,-0.589,1.126,0.934,5.567,2.715,1.136
-6.856,0.7,-2.915,-1.22,-1.12,3.512,1.068,-1.137
-8.597,-0.606,-4.185,-2.974,-2.35,1.298,-0.144,-2.591
-9.449,-1.381,-4.507,-3.577,-2.657,0.285,-0.315,-2.42
-11.329,-2.819,-5.664,-4.285,-3.469,-0.103,0.183,-1.077
-13.65,-4.433,-7.207,-4.915,-4.714,0.347,1.549,1.055
-16.478,-7.005,-8.789,-5.523,-6.589,0.959,2.536,2.239
-21.15,-12.128,-11.699,-7.239,-9.893,-0.224,0.709,0.469
-25.876,-17.275,-15.175,-9.06,-13.096,-2.395,-2.73,-2.686
-27.686,-18.722,-16.425,-9.149,-13.846,-3.049,-3.791,-3.848
-26.626,-17.328,-14.584,-8.324,-12.097,-2.261,-1.655,-2.48
-23.911,-15.527,-11.022,-7.783,-9.084,-1.095,1.742,0.144
-21.179,-14.11,-8.042,-7.145,-6.533,0.627,5.051,3.079
-21.611,-14.669,-8.469,-7.139,-7.008,1.85,6.367,4.464
-25.36,-17.669,-12.321,-9.046,-10.536,0.793,4.304,3.041
-27.493,-19.374,-15.273,-11.555,-13.087,-1.655,1.203,0.915
-25.157,-17.206,-14.636,-12.617,-12.374,-3.368,-0.003,0.358
-21.064,-13.831,-12.793,-12.322,-10.786,-3.872,0.27,0.498
-17.886,-12.013,-11.952,-11.555,-10.218,-3.728,0.496,0.205
-15.103,-10.575,-11.078,-10.179,-9.513,-3.101,0.508,0.245
-12.464,-8.274,-9.847,-8.293,-8.385,-2.212,0.235,0.688
-10.824,-6.367,-9.532,-6.957,-8.058,-1.745,-0.93,0.314
-8.836,-4.617,-9.095,-5.749,-7.458,-1.107,-2.222,-0.285
-4.513,-0.521,-6.154,-2.669,-4.363,1.47,-1.59,0.876
0.002,5.12,-2.054,1.437,-0.325,5.143,0.462,2.91
-0.174,7.008,-1.648,1.89,-0.166,5.807,0.042,2.282
-5.741,2.902,-6.414,-2.916,-5.112,2.175,-4.097,-1.377
-11.47,-2.32,-11.408,-7.697,-10.049,-1.208,-7.617,-3.923
-13.677,-4.402,-12.242,-8.489,-10.807,-1.376,-7.417,-3.315
-14.362,-5.18,-10.241,-8.259,-9.107,-1.426,-5.964,-2.496
-15.174,-6.361,-7.959,-9.28,-7.419,-3.143,-5.605,-3.259
-13.864,-5.528,-4.943,-8.456,-4.835,-3.004,-4.593,-3.012
-10.339,-2.237,-1.032,-4.695,-1.089,0.25,-2.032,-0.743
-9.823,-1.436,0.124,-3.143,0.067,1.4,-1.421,-0.285
-14.693,-5.683,-3.41,-6.79,-3.236,-2.891,-4.533,-3.169
-19.374,-9.921,-6.257,-10.429,-5.76,-7.516,-6.751,-4.692
-18.888,-9.722,-3.176,-9.049,-2.66,-6.623,-4.382,-1.962
-15.271,-7.324,3.112,-4.878,3.269,-1.712,-0.143,1.942
-11.997,-5.548,7.473,-1.517,7.313,2.869,3.382,4.671
-9.355,-3.738,9.439,1.27,9.489,6.243,7.792,7.699
-7.046,-1.272,11.096,4.52,11.776,9.462,13.678,12.059
-6.667,0.125,12.127,6.735,13.171,11.594,17.947,15.783
-9.809,-1.498,9.889,5.463,10.912,10.33,17.495,16.076
-16.114,-6.445,2.696,0.044,3.908,4.819,11.251,11.785
-24.647,-14.365,-8.801,-8.73,-7.136,-4.226,-0.636,3.012
-33.997,-23.743,-21.615,-19.026,-19.763,-14.804,-15.174,-8.498
-41.23,-30.986,-31.747,-27.98,-30.13,-23.924,-26.47,-18.457
-43.732,-33.464,-36.256,-33.466,-35.111,-29.66,-30.434,-22.909
-40.517,-31.03,-33.449,-34.109,-32.979,-30.798,-26.908,-21.072
-33.604,-25.854,-25.798,-30.343,-26.013,-27.482,-19.869,-16.172
-29.102,-23.126,-21.73,-27.214,-22.076,-24.482,-16.858,-14.45
-29.503,-24.515,-24.292,-27.813,-24.203,-25.206,-19.817,-17.308
-27.655,-22.633,-23.635,-25.832,-23.279,-23.761,-19.241,-16.436
-18.438,-12.787,-12.9,-16.076,-12.624,-14.76,-8.46,-6.25
-9.146,-3.189,-1.097,-5.791,-0.846,-5.084,3.6,4.931
-7.963,-2.574,1.454,-3.823,1.573,-3.612,5.836,6.947
-12.327,-8.115,-2.407,-8.264,-2.833,-8.382,0.562,1.791
-17.213,-14.038,-6.712,-14.098,-7.758,-13.99,-5.38,-4.31
-22.509,-19.901,-12.143,-21.008,-13.502,-20.169,-11.726,-10.83
-26.446,-24.379,-17.666,-27.066,-19.094,-25.428,-17.642,-16.674
-24.681,-23.36,-17.613,-27.157,-18.918,-24.813,-17.935,-16.958
-19.475,-18.673,-12.885,-22.647,-13.796,-20.047,-13.306,-12.62
-18.73,-17.98,-11.915,-21.711,-12.375,-19.575,-11.667,-11.501
-24.409,-23.33,-17.642,-26.732,-17.971,-24.929,-15.999,-16.183
-29.817,-27.975,-23.41,-30.783,-23.943,-28.488,-20.711,-20.491
-28.491,-25.724,-22.97,-28.59,-23.701,-25.826,-20.581,-19.495
-22.235,-18.861,-18.734,-23.717,-19.356,-21.394,-17.228,-15.923
-19.128,-15.321,-18.165,-23.062,-18.384,-21.508,-16.338,-15.603
-22.485,-18.144,-23.204,-27.655,-23.092,-26.284,-20.37,-20.052
-25.642,-20.985,-27.135,-31.325,-27.178,-29.87,-25.132,-24.892
-22.07,-17.596,-24.233,-28.785,-24.734,-27.715,-24.704,-24.806
-15.236,-11.275,-17.825,-22.498,-18.355,-21.932,-18.935,-19.17
-12.868,-9.631,-15.349,-19.364,-15.292,-18.735,-14.003,-13.161
-16.145,-13.734,-18.441,-21.743,-17.841,-20.708,-14.401,-12.289
-19.958,-18.063,-21.606,-25.032,-20.9,-23.811,-16.898,-15.337
-21.012,-19.069,-20.752,-25.045,-20.078,-23.967,-16.292,-16.803
-20.438,-17.947,-18.229,-22.858,-17.496,-22.069,-13.315,-15.358
-19.574,-16.302,-17.229,-20.919,-16.533,-20.195,-11.87,-14.053
-18.111,-14.556,-16.941,-19.754,-16.539,-18.669,-12.577,-14.122
-16.245,-13.308,-15.527,-18.934,-15.511,-17.522,-12.798,-13.77
-14.866,-12.65,-13.299,-17.968,-13.473,-16.725,-11.056,-12.105
-13.733,-11.884,-11.613,-16.888,-11.802,-16.032,-9.275,-10.853
-12.544,-11.497,-11.112,-16.637,-11.403,-15.846,-9.553,-11.418
-12.475,-12.592,-11.584,-17.35,-11.941,-16.192,-10.362,-12.153
-14.275,-14.69,-12.606,-17.656,-12.594,-16.019,-9.248,-10.906
-17.293,-17.164,-14.064,-17.602,-13.451,-15.504,-7.607,-9.12
-20.158,-19.806,-15.438,-18.654,-14.679,-16.14,-8.495,-9.638
-21.148,-21.102,-15.759,-20.281,-15.31,-17.917,-11.629,-12.059
-20.369,-20.568,-15.514,-21.118,-15.132,-19.639,-14.098,-13.824
-19.959,-20.176,-15.879,-21.442,-15.232,-20.699,-14.309,-13.655
-20.293,-20.214,-16.192,-21.03,-15.477,-20.042,-13.103,-11.964
-19.483,-18.458,-15.437,-18.473,-14.766,-16.333,-11.945,-9.769
-17.255,-15.14,-14.421,-14.831,-13.52,-11.484,-11.413,-8.245
-15.277,-13.286,-13.411,-13.289,-12.464,-9.83,-11.012,-7.916
-13.428,-12.972,-10.847,-14.102,-10.592,-11.834,-9.972,-7.836
-9.982,-11.268,-6.915,-14.562,-7.446,-13.532,-8.68,-7.199
-4.778,-7.543,-3.612,-12.903,-4.108,-12.164,-7.861,-6.432
1.399,-3.049,-0.096,-8.624,-0.152,-7.748,-6.192,-4.876
7.819,1.894,5.544,-2.138,5.438,-1.401,-2.128,-0.973
11.989,5.956,10.51,3.698,10.002,4.261,2.145,3.725
11.248,6.764,10.37,5.392,9.638,6.068,2.761,5.257
7.371,5.283,6.421,3.378,5.566,4.294,-0.041,2.945
5.372,5.203,3.763,1.679,2.764,2.751,-2.506,0.167
6.83,7.026,3.557,1.967,2.52,3.098,-3.318,-0.905
8.331,7.518,2.457,1.571,1.419,2.879,-4.276,-1.446
7.587,5.532,-0.587,-0.779,-1.69,0.892,-5.666,-2.55
6.654,4.071,-2.095,-1.961,-3.241,-0.141,-5.496,-2.999
6.971,5.109,-0.516,-0.075,-1.655,1.447,-3.495,-1.749
6.8,6.703,0.712,2.192,-0.355,3.401,-2.307,-0.413
6.007,7.5,-0.208,3.019,-1.16,4.353,-3.113,-0.479
6.619,8.701,-0.505,4.316,-1.62,6.017,-3.612,-0.476
8.158,10.457,1.273,6.832,-0.444,8.495,-2.202,1.04
8.641,11.823,3.212,8.854,1.115,9.712,0.057,3.191
8.196,12.764,3.809,9.769,2.227,9.528,1.764,4.718
7.853,12.959,2.957,9.626,2.24,8.703,1.942,4.952
7.437,11.494,0.873,7.646,0.274,6.44,0.276,3.738
6.604,8.572,-1.412,4.391,-2.76,3.056,-1.682,2.211
6.947,6.318,-1.923,2.743,-3.92,1.547,-1.5,2.295
10.564,6.884,0.425,4.386,-1.486,3.435,1.097,4.235
15.703,9.263,4.139,7.14,2.516,6.028,3.661,6.043
18.266,11.183,7.164,8.753,5.528,6.982,4.801,6.888
17.738,12.774,9.392,10.256,7.747,7.718,5.785,7.959
16.537,14.364,10.847,12.521,9.335,9.577,7.132,9.249
15.375,14.448,10.558,13.87,9.034,11.199,7.533,9.544
13.686,12.574,8.681,13.008,7.014,11.082,6.441,8.809
12.832,11.251,7.178,11.418,5.43,9.984,5.206,8.2
14.734,12.668,7.898,11.401,6.065,9.791,5.654,8.624
17.945,15.083,10.531,12.854,8.42,10.817,7.585,9.708
19.523,16.046,13.239,14.498,10.746,12.327,9.245,10.908
19.693,16.509,15.075,16.636,12.467,14.548,10.65,12.759
20.499,17.554,16.092,19.337,13.724,17.429,12.73,15.067
22.132,17.923,16.275,20.937,14.111,19.449,14.311,16.178
23.519,17.48,15.737,20.808,13.432,19.605,14.294,15.869
24.737,18.286,15.121,20.672,12.436,19.153,14.177,15.954
26.438,20.71,15.034,21.736,12.094,19.699,14.84,16.753
27.108,21.409,14.575,22.042,11.844,19.855,14.104,16.047
25.046,18.35,12.482,19.297,10.277,17.38,10.913,13.274
22.881,15.259,10.316,15.52,8.385,14.201,8.306,11.332
24.175,16.123,10.963,14.617,8.818,14.024,9.09,12.242
27.428,19.425,14.38,16.744,11.827,16.413,12.223,14.612
28.852,21.973,17.592,19.056,14.699,18.006,14.681,16.028
28.367,23.591,18.531,20.208,15.447,17.804,14.789,15.573
28.271,24.755,18.346,20.857,15.13,17.396,13.692,14.39
28.377,24.077,18.937,21.232,15.422,17.412,13.239,13.869
27.599,21.837,20.428,21.327,16.497,17.343,13.761,14.033
27.302,20.945,22.316,21.744,18.155,17.23,14.977,14.56
28.547,21.922,24.262,22.345,20.038,17.136,16.319,15.326
29.81,22.653,25.803,22.461,21.407,17.039,16.794,15.769
29.018,21.994,26.54,22.033,21.889,16.946,16.129,15.226
25.848,19.916,26.149,20.819,21.491,16.091,14.886,13.879
22.508,17.236,25.081,18.978,20.769,14.519,14.228,13.122
21.205,15.099,24.327,17.859,20.356,13.749,14.941,13.678
20.916,13.235,23.667,17.513,19.658,13.613,15.425,13.872
19.462,11.199,22.739,16.538,18.467,12.539,14.035,12.459
18.003,10.181,22.802,15.37,18.423,11.233,12.624,11.177
19.897,11.121,24.08,15.405,19.774,11.318,12.963,11.598
23.337,12.313,23.632,15.572,19.447,11.54,12.861,12.107
21.374,11.274,19.444,14.151,15.387,9.839,10.228,10.644
14.87,9.551,14.712,12.839,10.723,7.959,7.166,8.501
12.973,10.797,13.81,14.42,9.805,9.08,6.757,8.501
15.986,13.45,15.825,17.643,11.713,12.148,8.769,10.603
15.574,13.048,16.828,19.013,12.508,13.668,10.585,12.382
10.619,9.882,15.605,17.671,11.221,12.641,10.537,12.492
7.617,8.024,13.738,15.664,9.687,10.693,9.189,11.522
9.692,9.278,12.726,15.025,9.191,9.818,7.835,10.523
12.921,10.814,12.23,15.246,8.921,10.268,6.934,9.913
13.101,9.622,11.118,14.704,7.568,10.674,6.89,10.084
12.018,7.362,9.985,14.184,6.093,10.816,8.442,11.613
12.716,7.023,10.411,15.498,6.564,11.68,11.075,14.032
14.48,8.498,12.66,18.387,9.176,13.424,13.259,16.232
15.691,10.167,15.512,21.36,12.186,15.398,14.327,17.635
15.75,11.056,17.508,23.245,13.895,16.855,14.528,17.88
16.348,12.249,19.47,24.68,15.431,18.181,15.155,17.933
21.028,16.505,24.249,28.277,20.023,21.403,18.54,20.603
28.392,22.864,31.369,33.957,27.145,26.604,24.841,26.337
31.771,25.515,36.016,37.092,31.776,30.085,30.841,31.584
29.469,22.316,36.003,35.313,31.727,29.578,34.226,34.077
26.894,18.365,34.677,32.279,30.425,27.753,36.016,35.395
26.198,17.042,33.901,30.536,29.823,26.642,36.342,36.029
21.432,13.421,28.499,25.297,24.661,21.872,30.404,31.502
9.186,2.919,14.645,12.339,10.749,9.47,15.121,18.763
-1.415,-7.494,1.16,-1.031,-3.136,-3.668,-0.976,5.031
-0.875,-8.62,-1.053,-5.161,-5.661,-8.018,-6.527,-0.135
4.985,-4.902,3.247,-3.829,-1.437,-6.627,-3.825,0.813
6.456,-5.005,3.702,-5.184,-1.016,-7.41,-1.892,0.284
5.669,-6.47,1.895,-6.566,-2.707,-8.672,-1.167,-0.796
8.292,-3.803,3.626,-2.595,-0.505,-5.475,1.546,1.532
12.3,0.488,6.728,3.42,3.047,-0.094,4.042,5.012
12.95,1.452,6.5,5.456,2.799,2.469,3.45,5.768
10.906,0.003,4.428,4.226,0.383,2.422,2.137,5.307
10.482,0.739,5.45,5.046,0.968,3.771,4.27,7.58
12.657,4.501,9.953,9.409,5.083,7.657,9.397,12.082
13.923,7.482,13.223,13.458,8.392,10.967,12.925,14.644
12.1,7.291,12.272,14.384,7.878,11.432,12.526,13.869
9.755,6.266,9.383,14.083,5.235,10.924,10.66,12.589
10.273,7.721,8.521,15.606,4.279,12.445,10.549,13.497
12.675,10.714,10.283,18.4,5.919,15.302,11.995,15.796
13.133,11.295,11.746,19.146,7.381,15.888,12.642,16.819
11.569,9.431,11.876,17.587,7.607,13.933,12.723,16.524
12.26,10.105,13.778,18.067,9.648,13.91,15.052,17.98
16.092,14.874,18.845,22.734,14.892,18.017,19.979,22.314
18.163,18.136,23.26,27.745,19.656,22.65,24.41,26.593
15.918,16.01,23.683,29.361,20.534,24.219,26.026,28.269
13.384,12.5,22.173,29.058,19.128,24.074,25.649,28.31
13.641,11.985,21.914,29.635,18.474,25.072,25.15,28.361
13.58,12.57,21.639,30.253,17.952,26.442,24.399,27.855
11.059,11.931,19.402,29.164,16.148,25.987,22.358,26.059
9.908,12.302,17.859,28.124,15.304,25.011,20.495,24.497
12.816,15.217,19.809,29.611,17.474,26.358,21.188,24.968
16.692,18.132,23.363,32.585,20.753,29.655,23.68,26.965
18.751,19.217,25.863,34.737,23.071,32.399,25.522,28.695
20.878,20.37,27.77,36.173,25.069,34.075,26.515,29.571
25.119,23.601,30.409,37.946,27.767,35.905,28.19,30.484
29.717,27.675,33.519,39.504,30.795,37.712,30.792,32.031
32.586,30.366,36.333,40.091,33.575,38.188,32.992,33.536
34.629,31.723,38.716,40.406,36.122,37.593,33.897,34.123
37.159,32.951,40.359,40.967,37.947,37.257,33.878,33.902
39.124,33.695,40.112,40.462,37.645,36.514,33.113,32.917
38.852,32.677,37.712,37.851,35.115,33.757,31.326,30.658
37.399,30.677,35.644,34.891,33.076,30.342,29.614,28.033
37.5,30.059,36.118,33.44,33.664,28.465,29.296,26.602
39.274,31.269,37.515,32.593,35.198,27.163,29.574,25.946
40.213,32.601,37.092,31.234,34.97,24.844,28.921,24.837
39.209,33.102,34.897,30.026,32.971,22.429,27.224,23.468
37.713,33.644,32.864,29.507,31.046,21.447,25.627,22.741
37.216,35.009,32.064,29.3,30.234,21.885,25.199,22.801
37.991,36.827,32.569,29.802,30.625,23.289,26.021,23.413
38.96,37.847,33.548,31.413,31.43,25.085,26.84,24.162
37.625,36.015,32.72,32.217,30.413,25.357,25.706,23.784
33.575,31.36,29.659,30.77,27.223,23.339,22.696,21.931
30.71,27.96,28.001,29.582,25.543,22.013,20.911,20.919
31.952,28.658,30.196,31.13,27.75,23.986,22.344,22.489
34.867,30.802,33.417,33.365,30.955,27.137,24.582,24.543
35.646,30.769,33.847,33.567,31.494,28.24,24.428,24.595
33.683,28.44,31.55,32.603,29.662,27.54,22.691,23.627
30.544,25.272,28.988,31.691,27.787,26.304,21.929,23.175
27.618,22.152,27.537,29.821,26.766,24.08,21.912,22.385
25.405,19.84,26.747,26.86,25.943,21.13,20.983,20.584
23.831,18.941,25.624,24.85,24.719,19.552,19.531,19.071
22.156,18.702,23.579,24.628,22.967,19.999,18.632,18.557
19.07,17.495,20.623,24.639,20.445,20.628,17.398,17.845
14.68,14.85,17.45,23.488,17.35,19.845,14.628,16.027
10.334,10.923,14.648,20.815,14.473,17.402,11.263,13.695
6.778,6.166,12.502,17.28,12.438,14.225,9.604,12.184
4.916,2.725,11.572,14.472,11.495,11.807,10.623,12.216
5.55,2.199,11.565,12.746,11.014,10.028,12.154,12.52
7.817,3.339,11.118,11.277,9.961,7.818,11.572,11.677
9.949,4.459,9.866,10.317,8.514,5.856,9.807,10.826
11.227,5.454,8.984,10.651,7.898,5.732,9.332,11.417
11.994,6.33,9.257,11.796,8.61,7.135,9.917,12.236
12.121,6.531,10.014,12.391,9.786,7.957,9.981,11.736
11.244,6.405,10.388,12.058,10.379,7.364,9.624,10.779
9.484,6.375,10.142,11.439,10.134,6.626,9.384,10.548
7.836,6.069,9.665,11.191,9.762,7.048,8.968,10.736
7.573,5.612,9.075,11.306,9.436,8.194,8.05,10.607
7.105,4.391,6.523,10.039,6.879,7.695,6.182,9.35
3.9,1.621,1.347,6.661,1.295,4.921,3.904,7.352
0.022,-0.622,-2.735,4.082,-3.201,2.759,3.056,6.717
-1.177,-0.604,-3.554,3.743,-4.192,2.331,3.065,7.173
-0.043,0.57,-3.481,3.831,-4.198,2.11,1.961,6.356
2.152,2.337,-3.307,4.521,-4.01,2.738,1.309,5.301
4.37,4.34,-1.645,6.902,-2.073,5.169,3.136,6.348
4.924,5.182,1.036,9.414,0.901,7.859,5.749,8.532
4.68,5.397,3.887,10.828,3.643,9.786,7.613,10.345
6.709,6.962,7.219,11.849,6.575,10.932,9.465,11.927
10.614,9.504,10.14,12.415,9.395,10.723,10.698,12.738
12.014,10.225,10.325,11.391,10.013,9.241,9.218,11.358
8.821,7.526,7.539,8.728,7.691,7.341,5.639,8.059
4.471,3.622,4.646,5.802,4.833,5.365,3.197,4.946
3.112,1.877,3.712,3.648,3.604,3.368,2.898,3.255
3.937,1.964,3.336,2.105,2.985,1.739,2.708,2.586
3.198,0.981,1.318,0.889,1.11,0.89,1.523,2.463
1.174,-0.665,-1.104,0.625,-0.88,1.091,0.734,2.934
1.877,0.394,-0.559,1.902,-0.128,2.49,1.691,4.048
5.302,3.558,2.407,3.416,2.655,4.053,3.28,5.242
7.341,4.612,3.881,3.363,3.956,4.063,3.765,5.807
7.325,3.368,3.544,2.534,3.765,2.934,3.785,5.967
8.464,3.738,4.229,2.936,4.747,2.835,4.734,6.295
11.58,6.602,5.682,4.367,6.379,4.101,5.884,6.535
13.536,8.288,5.469,4.923,6.191,4.816,5.559,5.99
12.649,6.866,4.226,4.191,4.939,4.191,4.368,5.005
11.927,5.55,4.898,3.95,5.529,3.796,5.157,5.282
13.848,7.077,8.19,5.227,8.501,4.61,8.932,7.682
16.144,9.46,12.034,6.812,12.059,5.658,13.129,10.642
15.824,10.108,14.085,7.343,14.296,5.911,14.936,11.907
13.272,9.468,13.435,6.763,14.03,5.23,14.428,11.317
11.253,9.487,11.392,5.923,12.039,4.284,13.675,10.734
11.255,10.609,9.496,5.413,9.996,3.751,13.556,10.908
11.033,10.728,7.137,4.536,7.615,3.057,13.049,10.634
8.006,8.296,4.177,2.977,4.795,2.025,12.077,9.929
4.092,5.457,2.984,2.45,3.902,2.266,12.087,10.519
2.407,4.536,4.059,3.571,5.253,3.933,12.891,12.12
2.007,4.069,4.202,3.964,5.366,4.761,12.394,12.126
1.025,2.529,2.143,2.628,3.096,4.034,10.139,9.902
0.875,2.168,0.849,2.078,1.78,3.69,8.309,8.068
3.563,5.196,2.259,4.039,3.52,5.208,8.739,8.52
7.63,9.013,4.096,6.353,5.824,7.15,10.05,9.399
9.436,9.246,3.604,6.059,5.593,6.666,9.307,7.967
7.853,5.896,1.742,3.798,3.764,3.733,6.693,5.067
5.586,2.721,1.636,2.638,3.585,1.54,5.392,3.73
5.126,1.685,4.062,3.411,5.765,1.89,6.272,4.371
5.328,1.015,6.795,4.404,8.121,3.252,6.838,4.685
4.298,-0.761,8.139,5.129,9.222,4.164,6.029,3.983
2.484,-2.368,7.757,6.076,8.888,4.644,5.002,3.591
0.418,-3.256,4.861,5.647,6.199,3.869,3.419,3.103
-1.795,-4.34,0.066,2.866,1.508,1.624,0.597,1.313
-3.019,-5.007,-3.793,0.257,-2.373,0.227,-1.964,-0.754
-2.831,-4.201,-5.589,-0.368,-4.133,0.689,-3.03,-1.661
-2.031,-2.41,-6.435,-0.032,-4.991,1.491,-3.086,-1.616
-1.059,-0.669,-6.66,0.692,-5.539,2.203,-2.766,-1.457
0.31,0.955,-5.604,2.43,-4.912,3.671,-1.919,-1.282
2.163,2.955,-3.856,4.253,-3.264,4.969,-0.694,-1.004
3.421,4.311,-3.468,3.539,-2.734,3.573,-0.797,-1.735
3.197,3.78,-4.02,0.393,-3.371,0.042,-2.379,-3.653
2.718,2.929,-2.33,-1.44,-2.139,-1.495,-2.199,-4.342
3.944,4.304,2.191,0.175,1.741,0.549,1.263,-2.415
7.023,7.724,7.257,3.975,6.272,4.062,6.05,1.151
10.139,10.94,11.429,8.472,10.501,8.077,11.193,5.906
11.985,12.905,14.27,12.961,14.182,13.127,17.308,11.614
11.672,12.884,14.86,15.463,15.658,17.046,22.626,15.96
7.162,8.661,11.795,13.248,12.712,15.956,22.711,15.906
-0.988,0.603,4.581,6.643,5.123,10.06,15.084,10.312
-8.39,-6.882,-5.021,-0.974,-4.578,3.205,2.021,0.628
-11.966,-10.506,-12.584,-6.214,-11.939,-1.693,-10.166,-8.575
-11.297,-10.163,-13.824,-6.921,-13.187,-3.119,-15.091,-12.201
-7.665,-7.511,-9.972,-4.177,-9.699,-1.59,-12.545,-10.533
-4.146,-4.928,-6.462,-2.094,-6.521,-0.242,-7.739,-8.098
-2.221,-3.083,-5.027,-2.246,-4.981,-0.482,-3.634,-6.639
0.071,-0.271,-2.947,-2.207,-2.618,-0.417,0.011,-4.93
3.277,3.337,-0.077,-1.119,0.137,0.36,1.944,-3.732
3.877,4.07,0.234,-1.489,0.127,-0.336,0.516,-4.907
0.413,0.631,-2.451,-4.001,-2.453,-2.542,-2.459,-7.011
-3.524,-3.203,-4.462,-5.439,-3.955,-3.263,-3.636,-6.951
-6.038,-4.935,-4.282,-4.155,-3.383,-1.665,-2.932,-5.288
-7.936,-5.747,-4.076,-2.649,-3.11,-0.466,-3.055,-5.317
-7.838,-5.406,-4.499,-2.506,-3.466,-0.972,-4.607,-7.41
-5.091,-2.368,-3.988,-1.963,-2.631,-1.119,-5.324,-8.686
-2.538,1.701,-2.513,0.093,-0.964,0.654,-4.143,-7.783
-2.412,3.081,-2.161,1.689,-0.9,2.534,-3.051,-6.673
-3.768,1.119,-4.263,0.771,-3.244,1.919,-4.211,-7.522
-4.394,-1.221,-7.094,-1.659,-5.738,-0.435,-6.707,-9.615
-3.898,-1.954,-8.01,-3.248,-6.214,-1.535,-7.87,-10.691
-2.832,-1.329,-6.445,-3.085,-4.795,-0.402,-6.557,-9.734
-0.426,0.868,-2.983,-1.24,-1.751,1.706,-3.326,-7.136
2.342,3.874,1.057,1.635,2.309,3.618,0.214,-4.193
2.204,4.47,3.239,3.805,4.813,4.851,1.928,-2.615
-0.33,1.999,3.004,4.166,4.627,5.597,1.42,-2.899
-1.091,0.031,2.541,3.353,3.834,5.929,0.113,-4.228
0.404,-0.048,2.448,1.636,3.271,4.53,-1.692,-6.228
0.4,-0.874,0.82,-1.468,1.335,0.616,-4.604,-8.846
-2.154,-3.129,-2.135,-4.652,-1.575,-3.441,-7.314,-10.844
-4.315,-4.33,-3.678,-5.844,-2.958,-4.909,-7.75,-11.002
-4.165,-3.498,-3.139,-5.565,-2.477,-4.451,-6.553,-10.293
-2.403,-1.712,-2.483,-5.656,-1.994,-3.982,-6.215,-10.367
-0.787,0.203,-2.865,-6.416,-2.476,-3.705,-7.144,-10.908
-0.646,1.693,-3.445,-6.888,-3.166,-3.136,-7.23,-10.572
-1.341,2.041,-3.165,-6.433,-2.985,-2.583,-5.794,-9.587
-2.14,0.631,-2.733,-5.977,-2.415,-2.983,-5.229,-9.61
-5.068,-2.644,-4.383,-7.405,-3.686,-4.912,-7.524,-11.411
-11.023,-6.628,-8.762,-10.836,-7.751,-7.752,-11.715,-14.106
-16.107,-9.32,-13.258,-14.135,-12.243,-10.232,-15.406,-16.379
-17.113,-10.061,-14.952,-15.457,-14.217,-11.486,-16.707,-17.216
-16.533,-10.708,-14.296,-15.025,-13.836,-11.579,-15.581,-16.591
-18.945,-13.641,-14.861,-14.945,-14.3,-11.758,-14.768,-16.458
-24.941,-18.577,-18.961,-16.996,-18.002,-13.251,-16.957,-18.655
-30.207,-22.743,-24.475,-20.21,-23.337,-15.528,-21.009,-21.939
-30.683,-24.075,-27.375,-22.131,-26.442,-17.258,-23.636,-23.786
-27.211,-22.723,-26.53,-22.039,-25.885,-18.16,-23.578,-23.573
-23.32,-20.152,-24.397,-20.961,-23.934,-18.4,-22.042,-22.226
-20.333,-17.803,-22.854,-19.319,-22.454,-17.451,-20.307,-20.441
-17.927,-16.47,-21.391,-17.171,-20.896,-15.471,-19.074,-18.72
-17.277,-16.308,-19.734,-15.514,-19.039,-14.072,-18.84,-17.903
-19.347,-16.774,-18.501,-14.888,-17.699,-13.86,-19.005,-17.992
-22.549,-17.641,-18.301,-14.943,-17.511,-13.98,-18.807,-18.146
-24.836,-19.396,-19.397,-15.849,-18.462,-14.351,-18.985,-18.415
-26.072,-21.484,-20.94,-17.849,-19.572,-15.673,-20.197,-19.362
-27.37,-22.522,-21.855,-20.317,-20.116,-18.043,-21.691,-20.667
-29.014,-22.444,-22.245,-22.155,-20.602,-20.499,-22.594,-21.498
