EEG 1,EEG 2,EEG 3,EEG 4,EEG 5,EEG 6,EEG 7,EEG 8
-123.126,-124.682,-117.582,-80.074,-109.638,-96.024,-109.488,-80.204
-119.281,-118.469,-115.702,-75.29,-108.589,-90.281,-105.931,-75.63
-114.532,-111.989,-112.878,-69.732,-106.408,-83.615,-100.76,-70.61
-109.627,-107.392,-109.742,-65.878,-103.927,-79.03,-96.334,-66.033
-105.274,-104.653,-106.568,-64.056,-101.72,-77.252,-93.85,-62.643
-100.168,-101.097,-101.662,-60.943,-97.919,-74.272,-90.274,-58.513
-93.294,-95.446,-94.517,-55.085,-91.671,-67.93,-84.073,-52.056
-84.192,-87.479,-85.532,-47.925,-83.48,-59.934,-76.845,-43.832
-72.77,-76.512,-74.847,-40.052,-73.605,-51.374,-68.935,-35.016
-62.447,-65.43,-64.824,-32.514,-64.365,-43.388,-61.042,-27.522
-57.267,-59.279,-58.151,-27.782,-58.442,-38.605,-55.587,-22.849
-54.879,-56.645,-52.867,-24.945,-53.696,-36.385,-51.578,-19.375
-50.099,-51.264,-45.8,-19.981,-46.861,-32.345,-46.288,-14.85
-42.252,-41.78,-37.253,-11.138,-38.566,-23.963,-40.521,-9.116
-33.272,-32.049,-28.056,0.328,-29.807,-12.359,-34.539,-1.942
-24.022,-24.083,-18.383,11.964,-20.499,-0.503,-26.344,6.559
-15.147,-16.725,-9.744,21.498,-12.153,8.967,-17.631,14.106
-7.57,-9.577,-3.224,28.42,-6.091,15.892,-12.417,19.335
-1.118,-3.11,2.366,33.844,-1.039,21.869,-9.923,23.816
5.704,3.798,8.489,39.115,4.625,27.818,-5.873,29.204
13.517,11.926,14.46,44.638,10.154,33.684,0.228,35.003
20.31,19.166,18.094,49.144,13.403,38.742,4.75,39.369
23.916,23.347,18.587,50.965,13.588,41.442,6.311,41.399
26.445,26.529,18.44,51.223,12.811,42.08,7.576,42.786
32.901,33.328,21.59,53.625,14.753,44.467,11.09,46.192
43.73,43.898,28.393,59.192,20.233,50.689,16.423,51.89
53.527,52.749,34.858,64.764,25.78,57.563,21.587,57.863
58.82,56.776,38.296,68.151,28.791,61.745,25.948,62.653
61.637,59.246,40.163,70.605,30.643,64.135,30.197,66.331
65.161,63.82,43.079,74.105,33.587,67.612,33.944,69.442
70.705,70.188,48.415,79.584,38.509,73.655,36.577,72.839
78.395,77.663,56.693,87.608,46.127,82.192,40.64,78.469
87.2,86.872,67.208,97.606,56.331,91.892,49.155,87.207
94.565,95.737,76.63,105.913,65.815,99.494,58.949,95.548
98.85,100.755,81.803,109.315,70.945,102.784,63.646,99.375
101.991,103.604,84.941,111.177,73.677,105.001,64.625,101.197
107.253,109.471,91.359,117.665,79.503,111.398,69.86,106.997
115.125,119.099,101.64,128.617,89.251,121.758,80.311,116.542
123.55,128.491,111.501,138.774,98.657,131.385,89.243,124.735
130.975,135.247,119.07,146.012,105.739,138.434,95.046,130.68
137.394,140.649,126.398,152.311,112.511,144.91,101.888,137.112
143.478,146.621,134.409,158.614,119.99,151.638,109.907,143.7
149.666,153.564,141.663,164.008,126.825,157.313,115.45,148.212
154.936,159.963,147.179,168.305,132.038,161.32,118.097,151.128
157.688,164.006,151.47,172.105,136.099,164.638,120.864,154.397
158.811,166.568,155.31,175.366,139.667,168.198,125.115,158.203
160.587,169.528,158.419,177.28,142.326,171.221,128.714,161.136
163.445,172.323,160.142,177.948,143.435,173.069,129.958,162.688
166.884,174.643,161.118,179.191,143.85,175.353,130.998,164.583
170.516,178.117,162.196,181.851,144.672,178.981,134.038,168.233
172.99,182.009,162.218,183.756,144.754,181.698,136.629,171.635
174.092,184.251,160.64,183.53,143.211,182.178,135.833,172.342
176.765,186.796,160.941,184.212,143.038,183.473,134.166,172.336
182.375,192.097,166.064,188.656,147.191,188.396,136.278,175.218
187.29,197.695,173.199,194.728,153.518,194.878,142.621,180.72
188.707,200.774,178.383,199.475,158.326,199.937,150.563,186.555
188.621,202.332,181.81,202.924,161.466,203.724,158.13,191.935
189.407,203.722,185.239,205.66,164.675,207.23,163.935,196.395
192.153,206.063,189.69,208.704,168.984,211.193,167.999,199.962
198.329,211.794,195.868,213.786,174.651,216.467,172.058,203.869
207.072,220.652,202.644,219.771,180.554,222.048,176.125,208.133
214.452,228.42,207.553,223.763,184.765,226.161,178.483,211.486
218.833,233.188,210.874,226.69,187.608,230.059,179.813,214.161
222.527,237.39,215.505,232.038,191.762,236.405,183.397,218.082
226.524,241.797,221.411,238.815,197.351,243.66,189.408,223.258
228.698,243.667,225.203,242.11,201.017,247.199,192.922,226.159
229.111,243.115,226.657,241.751,202.277,247.173,192.099,225.531
231.989,245.205,230.211,243.45,205.53,249.187,192.669,226.277
240.153,253.062,238.631,249.841,213.482,255.675,198.843,232.145
251.222,263.76,249.203,257.361,223.325,263.015,207.209,239.811
261.807,273.605,258.681,263.633,232.18,269.008,214.778,245.901
272.624,283.424,268.632,271.166,242.006,276.611,224.563,253.294
285.587,295.155,281.196,281.58,254.764,287.702,238.583,265.018
299.289,307.555,294.096,292.503,267.692,299.591,253.296,278.4
309.741,317.197,302.735,300.108,275.921,308.02,262.946,287.571
311.143,318.904,301.624,299.387,274.257,308.194,261.877,287.214
300.547,309.567,288.123,287.74,260.622,297.914,248.57,276.881
285.922,295.997,270.139,272.01,242.812,283.486,230.893,263.667
280.314,290.361,261.221,263.728,233.739,275.504,220.934,256.421
286.588,296.154,265.444,266.964,237.549,278.111,223.077,257.879
296.371,306.259,275.511,276.805,247.486,287.137,231.941,264.52
302.92,314.021,284.833,287.534,256.835,297.159,242.32,272.769
306.543,318.995,292.47,296.89,264.321,305.966,253.392,281.739
307.769,321.487,297.308,303.355,269.109,312.348,261.991,289.087
306.147,320.837,298.348,306.3,270.479,315.742,263.893,291.796
305.697,320.326,299.761,308.892,272.305,318.944,262.579,292.545
309.517,322.944,304.736,313.394,277.394,324.164,264.57,295.907
312.434,324.612,308.447,316.103,280.856,328.001,268.603,299.678
309.88,321.763,306.78,314.235,278.881,327.481,269.55,299.495
306.937,319.033,304.947,312.172,277.039,326.277,268.491,297.66
309.632,321.443,309.247,314.29,281.351,328.485,270.526,299.074
316.048,327.24,317.764,318.75,289.426,332.505,276.265,303.476
322.293,333.242,325.292,322.423,296.412,335.462,281.569,307.264
327.018,337.98,329.328,324.057,300.448,336.792,283.531,308.68
328.328,339.04,329.273,322.671,300.834,336.156,283.367,308.661
327.435,337.471,328.543,320.576,300.343,335.05,284.72,309.67
331.117,340.34,333.788,323.671,305.426,338.02,290.528,314.332
341.179,349.876,345.076,332.634,316.577,345.714,300.436,322.791
350.334,358.596,354.55,340.883,326.21,352.79,310.661,331.535
354.079,361.473,357.983,344.644,329.997,356.501,317.313,336.903
356.128,362.649,358.863,346.76,331.198,359.224,319.457,338.706
360.509,367.142,361.071,350.092,333.364,362.63,319.163,339.253
367.586,375.324,365.121,354.915,337.046,366.751,319.823,340.855
376.749,385.578,370.213,361.184,342.036,372.179,323.424,344.477
387.15,396.345,376.266,368.641,348.435,379.092,329.413,349.82
397.45,406.464,383.951,376.285,356.446,386.594,336.713,356.421
405.538,414.286,391.017,382.013,363.651,392.819,343.547,362.668
408.186,417.059,392.391,383.314,365.085,395.337,346.121,365.093
404.751,414.493,387.885,380.867,360.494,394.284,342.811,362.539
400.039,410.855,383.23,378.688,355.75,393.084,337.953,359.029
399.279,410.349,382.561,379.123,355.137,393.964,337.469,359.592
401.967,412.329,384.998,380.544,357.487,395.621,341.584,364.021
403.875,413.098,387.516,380.358,359.558,395.848,345.13,367.553
404.285,412.175,390.189,379.407,361.608,395.255,346.505,369.097
406.167,412.985,395.641,381.048,366.58,396.824,350.323,372.716
409.376,416.381,402.456,385.292,373.245,400.938,358.204,379.036
411.342,419.775,406.822,388.613,377.696,404.299,365.24,383.522
412.495,422.387,409.315,389.483,380.273,404.876,368.168,384.151
414.441,425.125,412.46,389.214,383.293,403.934,369.07,383.654
416.934,427.429,415.313,388.348,385.764,402.577,369.832,383.905
419.862,428.717,416.081,386.829,386.197,400.868,369.922,383.933
423.707,429.968,416.307,386.102,386.39,400.398,369.903,383.717
427.857,432.073,418.649,387.557,388.832,403.04,371.916,385.307
432.17,435.481,423.995,391.276,394.2,408.212,376.955,389.879
436.816,439.503,430.924,395.958,401.102,413.196,383.046,395.438
439.683,441.829,435.763,398.968,406.012,415.338,386.383,398.417
439.923,442.651,436.477,399.758,406.875,415.088,385.844,398.21
440.67,444.779,435.81,400.866,406.222,415.397,384.584,397.844
443.483,447.799,436.677,402.98,406.969,416.898,385.231,399.266
445.721,448.725,437.607,403.318,407.914,416.698,386.251,400.621
445.836,448.15,436.734,400.895,407.19,413.679,385.838,399.995
446.224,449.784,436.317,399.439,406.784,411.746,386.045,399.18
449.048,454.323,438.378,401.586,408.782,413.679,388.227,399.733
452.786,458.542,440.15,404.179,410.712,416.025,389.015,399.255
454.059,459.485,438.296,403.299,409.1,414.965,386.232,396.126
451.467,456.81,433.829,399.583,404.674,411.716,383.571,392.798
448.098,453.51,430.675,396.489,401.481,409.49,385.198,391.704
448.446,453.531,431.04,396.063,401.965,409.486,389.795,392.425
452.178,456.361,433.307,397.113,404.393,410.484,393.41,393.657
455.048,457.743,434.926,397.279,405.933,410.646,394.894,394.476
454.915,455.647,435.044,395.456,405.815,408.965,394.799,393.363
453.465,451.857,433.933,392.379,404.767,405.925,392.985,389.36
453.87,449.644,433.266,390.709,404.566,404.14,390.845,384.951
457.838,451.417,435.524,392.691,407.188,406.228,391.508,384.328
464.413,457.095,441.128,397.519,412.666,411.545,396.06,388.304
470.661,463.504,447.62,402.375,418.732,416.74,402.05,393.343
472.339,465.512,450.42,403.725,421.181,418.122,404.865,395.098
467.634,461.242,446.214,399.642,416.898,414.468,402.167,392.6
461.387,455.946,438.66,393.728,409.459,409.419,398.064,389.127
459.45,455.123,434.729,391.308,405.498,407.55,397.259,387.294
460.3,456.472,434.376,391.297,404.86,407.972,397.291,385.592
458.882,454.964,432.675,389.257,403.029,406.856,393.907,382.366
454.436,450.889,429.556,385.548,400.086,404.029,389.007,378.884
449.628,447.74,428.334,383.388,398.828,401.89,386.961,376.353
445.921,446.338,428.288,382.586,398.278,400.438,387.007,373.795
442.901,444.919,426.34,380.878,395.773,397.993,384.971,370.461
441.202,443.762,423.866,379.402,393.026,395.829,381.693,368.437
441.159,444.072,423.412,379.899,392.481,395.8,381.305,369.11
439.076,443.191,421.432,378.818,390.266,394.801,381.319,368.324
432.919,438.958,414.669,373.383,382.922,390.111,376.336,362.238
427.723,435.039,408.142,368.091,375.746,385.53,368.777,354.9
428.401,435.626,407.989,367.742,375.189,385.376,365.338,352.377
432.183,438.913,411.832,370.265,378.712,387.968,366.891,353.861
431.942,438.854,412.145,370.246,378.742,388.272,368.218,353.967
425.9,433.494,407.192,366.479,373.879,384.631,365.868,350.739
419.754,427.876,402.233,362.573,369.287,380.264,361.561,346.928
416.929,425.146,399.889,360.134,367.103,377.358,357.03,343.942
413.939,421.321,397.543,356.523,364.695,373.794,351.689,339.857
407.915,413.369,393.56,350.745,360.765,368.212,346.899,334.617
401.651,405.728,389.7,346.818,357.065,364.552,345.901,331.953
399.15,404.013,388.535,348.268,355.803,366.865,348.246,333.584
400.144,406.913,390.168,352.006,356.914,371.614,349.54,335.587
400.67,408.582,390.59,352.108,356.994,371.582,347.33,333.657
397.566,405.871,385.766,347.578,352.83,365.774,343.147,328.556
391.848,400.662,378.381,342.297,346.759,359.312,339.175,323.767
387.101,396.25,374.546,339.172,343.71,355.607,336.299,320.566
384.309,392.606,374.423,337.453,343.524,353.615,334.56,318.026
381.127,387.322,374.012,334.97,342.747,351.214,333.03,315.62
376.823,380.962,372.469,330.669,340.697,347.621,329.558,312.447
373.898,377.101,370.932,325.139,338.428,343.036,322.974,307.043
373.159,376.434,368.127,319.687,335.286,337.829,316.084,300.796
371.739,375.68,362.195,315.097,329.987,332.602,313.253,297.278
368.417,373.157,355.227,311.557,324.007,328.367,313.704,296.873
366.305,371.091,351.966,309.401,321.14,325.873,312.116,296.23
367.072,370.843,352.763,308.117,321.726,324.53,306.972,293.173
365.83,368.681,350.61,304.635,319.494,321.731,301.346,288.37
357.28,360.656,340.959,296.874,310.219,315.464,296.936,283.425
344.906,349.966,330.328,288.188,299.972,307.93,293.721,279.716
336.294,342.869,325.661,282.537,295.469,302.335,291.198,277.277
332.409,339.665,323.986,278.935,294.102,298.194,287.537,274.708
329.49,336.746,321.06,275.683,291.771,294.258,282.711,271.594
326.785,333.59,318.461,273.862,289.754,291.327,280.186,269.264
325.528,331.335,317.471,273.207,289.155,289.207,280.545,267.617
324.885,329.215,316.021,271.669,288.133,286.735,280.118,265.437
322.817,326.033,312.825,269.489,285.625,284.561,278.49,263.635
318.048,321.192,308.233,267.064,281.717,282.439,276.921,261.61
311.808,315.529,302.96,263.347,276.811,278.594,273.502,256.926
308.241,312.458,299.012,260.387,273.223,275.06,270.163,253.157
308.915,313.083,297.46,260.363,272.427,274.603,271.178,254.581
309.065,312.245,294.967,259.063,270.935,273.356,271.767,255.991
304.286,305.75,288.935,252.94,265.865,267.335,266.691,252.405
296.629,296.652,283.141,246.293,260.828,260.167,262.274,248.988
289.933,289.174,280.514,242.638,258.632,255.339,262.038,250.923
283.995,282.38,276.481,238.001,254.899,249.764,255.799,254.077
276.479,273.472,266.565,228.879,245.602,240.863,240.177,252.566
267.754,263.201,254.393,218.714,234.53,231.656,229.678,247.435
260.338,254.747,245.806,211.405,227.028,224.685,229.528,241.577
253.656,248.069,239.419,204.803,221.055,217.387,225.039,233.895
244.388,239.765,230.177,195.249,211.742,207.035,210.947,224.04
232.614,229.195,217.618,182.917,199.349,194.714,197.659,214.558
223.129,220.519,205.843,171.327,188.076,183.595,189.537,207.158
220.015,217.39,199.223,164.844,181.901,177.141,184.679,202.001
221.277,217.717,197.854,163.513,180.813,175.468,182.711,197.148
221.811,217.017,198.543,162.82,181.608,174.401,183.427,191.135
221.007,215.283,201.231,161.617,184.067,172.272,188.671,187.561
221.267,214.876,206.699,162.308,189.117,171.483,199.451,188.967
221.653,214.7,209.861,163.669,192.214,172.007,210.381,190.526
219.53,211.973,206.733,162.02,189.334,170.66,215.422,186.687
214.99,206.628,202.184,157.179,184.47,166.387,213.534,177.723
209.269,200.443,198.644,150.877,179.675,160.371,202.167,167.658
202.218,193.998,189.475,142.652,168.992,152.597,178.193,160.266
194.616,187.551,175.394,133.308,154.067,144.096,154.099,155.67
189.462,183.27,168.13,127.544,146.889,139.138,148.744,150.932
188.591,183.42,170.668,128.395,149.807,140.419,160.065,146.968
190.645,186.998,175.047,133.412,154.346,145.248,175.134,147.901
193.356,190.65,177.693,137.702,157.036,148.85,189.384,152.465
196.784,193.373,181.619,139.364,160.696,150.464,199.241,156.619
201.009,195.884,187.506,140.054,165.761,152.587,201.496,160.165
201.092,195.17,189.375,139.301,166.973,153.865,200.83,162.066
191.417,186.827,180.835,133.367,158.76,149.146,200.242,157.463
174.004,171.928,163.377,120.593,142.006,136.739,191.994,143.958
156.708,156.501,144.744,104.703,123.379,121.213,172.073,125.582
145.265,145.884,131.716,92.611,109.968,109.6,151.798,109.873
139.889,141.196,126.147,88.056,104.574,105.438,142.53,102.427
138.437,140.705,126.366,89.153,105.55,106.751,145.074,103.363
139.016,141.84,130.028,91.717,109.937,108.793,154.774,107.359
137.448,140.113,131.474,90.288,111.78,106.334,159.152,106.815
129.656,132.325,123.565,81.356,104.065,97.24,147.8,98.057
119.885,122.862,109.869,69.932,90.358,86.489,131.113,86.172
116.222,118.504,101.706,63.838,81.875,80.559,122.307,79.071
118.851,119.012,102.362,63.405,82.144,79.572,119.079,77.168
122.416,120.178,106.814,64.679,86.487,80.311,120.322,76.097
122.813,119.045,108.127,64.175,88.025,79.669,126.127,74.029
118.314,113.98,102.575,59.745,82.882,75.218,128.562,70.763
111.365,106.661,95.828,54.432,76.528,69.501,127.334,67.612
106.09,100.684,94.936,52.656,75.754,67.202,128.776,66.462
101.941,95.983,95.075,51.34,75.677,65.947,126.866,64.315
95.466,89.664,87.303,44.376,67.792,59.403,113.775,56.895
87.891,81.983,75.409,33.975,56.188,48.889,99.034,47.31
84.253,76.643,70.175,27.858,51.326,41.779,94.902,41.185
84.2,74.687,71.117,26.801,52.442,39.273,96.554,37.276
81.855,72.718,69.794,25.017,51.228,36.357,94.205,32.053
75.65,68.31,64.609,20.52,46.202,31.384,88.641,26.591
69.772,63.177,59.378,15.987,41.139,26.51,84.381,22.415
65.878,59.294,55.609,12.629,37.594,22.547,81.983,18.467
60.849,55.263,51.583,7.909,33.859,18.666,77.466,14.435
53.884,50.199,45.128,-0.772,27.554,15.249,66.873,12.341
49.461,47.392,38.957,-9.915,21.409,14.258,56.117,13.745
49.149,47.92,36.945,-14.488,19.603,14.512,52.215,15.208
47.45,46.532,35.139,-17.425,18.173,11.401,49.737,11.901
41.505,40.482,30.006,-22.526,13.331,5.113,44.482,6.334
35.628,34.129,26.817,-25.8,10.249,1.171,42.108,4.484
32.922,31.604,28.829,-23.498,12.284,2.108,44.843,6.609
32.863,33.337,32.293,-18.183,15.949,6.07,48.322,9.128
35.512,38.365,35.303,-13.472,19.414,10.724,49.803,10.048
39.706,43.918,38.954,-10.318,23.589,14.206,49.413,9.272
40.907,44.985,40.855,-9.462,26.157,14.264,46.616,6.883
35.139,37.589,35.96,-13.85,22.131,8.354,39.961,2.451
24.927,24.779,25.636,-23.304,12.4,-1.841,31.903,-2.874
19.125,16.749,19.962,-29.87,6.844,-8.33,29.122,-5.91
22.48,18.787,24.635,-27.711,11.879,-6.764,33.276,-6.521
29.422,24.745,32.635,-21.401,20.996,-2.416,39.396,-7.315
33.16,27.731,36.09,-16.812,25.811,-0.196,45.868,-6.76
35.004,28.995,38.073,-12.942,28.748,2.2,56.085,-2.093
38.664,31.203,43.033,-9.357,34.06,5.608,63.988,0.845
39.861,30.016,41.225,-12.755,32.062,3.05,49.353,-6.858
33.018,21.804,22.182,-25.32,12.746,-8.428,10.489,-20.736
25.488,14.912,0.896,-34.857,-8.295,-18.019,-17.413,-26.906
28.018,18.704,-0.502,-31.209,-8.987,-15.784,-11.993,-22.569
35.083,26.253,10.298,-22.847,2.428,-8.296,3.889,-17.562
34.591,25.111,12.546,-22.07,5.009,-7.013,8.178,-18.087
29.495,18.003,8.275,-25.711,0.992,-10.636,8.742,-21.097
29.72,15.218,9.804,-25.477,2.76,-12.043,11.671,-23.377
33.394,16.666,13.984,-24.235,7.02,-12.596,6.383,-26.76
33.468,16.735,12.657,-27.608,5.569,-16.531,-8.824,-32.177
31.662,16.13,10.683,-31.14,3.632,-20.629,-15.395,-36.186
32.716,17.763,16.112,-28.434,9.712,-20.252,-2.263,-36.522
32.79,17.745,21.235,-24.936,15.65,-19.374,7.686,-36.773
24.822,9.743,12.021,-30.603,6.643,-25.055,-10.357,-42.216
12.097,-3.043,-5.008,-41.328,-10.175,-34.001,-35.285,-49.995
4.516,-10.615,-11.005,-44.384,-15.112,-36.541,-34.532,-51.096
4.121,-10.476,-5.992,-39.857,-9.056,-33.179,-21.031,-46.821
4.532,-9.249,-4.269,-38.904,-7.412,-33.464,-24.841,-49.141
0.422,-12.384,-9.961,-45.027,-13.587,-39.952,-42.56,-59.479
-7.34,-18.677,-16.94,-51.302,-20.133,-45.829,-52.898,-65.867
-13.973,-23.79,-21.42,-53.09,-23.553,-47.14,-54.492,-63.921
-17.264,-26.229,-23.075,-52.392,-24.453,-46.615,-55.903,-60.871
-19.967,-28.803,-22.3,-52.07,-23.001,-47.415,-54.333,-61.572
-25.268,-34.428,-23.152,-53.91,-22.894,-50.617,-51.248,-65.512
-32.163,-41.484,-29.021,-58.177,-28.128,-55.304,-56.33,-71.01
-37.505,-46.206,-35.134,-62.59,-34.382,-59.242,-66.535,-76.012
-40.473,-48.088,-36.389,-65.208,-35.931,-61.438,-69.931,-78.927
-41.823,-48.585,-35.645,-66.137,-34.857,-62.155,-64.844,-79.542
-43.093,-49.369,-37.626,-67.237,-36.308,-62.864,-61.606,-80.36
-47.424,-53.473,-43.596,-71.51,-42.439,-66.79,-68.992,-85.553
-55.136,-61.111,-51.679,-78.448,-51.103,-74.07,-81.75,-94.605
-62.171,-67.887,-57.841,-83.151,-57.414,-79.797,-88.448,-101.493
-66.425,-71.597,-59.917,-83.497,-59.181,-81.1,-88.185,-102.527
-69.048,-73.73,-59.391,-82.161,-58.206,-80.375,-86.848,-100.629
-70.143,-74.618,-58.088,-81.417,-56.386,-80.399,-86.596,-100.41
-69.498,-74.124,-57.216,-81.063,-55.23,-80.76,-89.367,-100.377
-70.088,-75.086,-59.591,-81.846,-57.635,-81.442,-97.316,-98.16
-75.628,-80.514,-68.129,-86.981,-65.883,-86.433,-106.638,-100.994
-84.518,-88.416,-80.201,-96.21,-77.23,-96.687,-112.137,-113.04
-91.975,-95.033,-89.71,-104.121,-86.213,-105.989,-114.825,-123.982
-97.546,-101.251,-95.936,-108.896,-92.168,-111.12,-118.815,-128.12
-103.281,-108.687,-101.893,-113.647,-97.673,-115.199,-124.89,-132.643
-107.784,-114.012,-106.745,-118.443,-101.928,-118.96,-130.843,-139.686
-108.914,-114.396,-108.287,-120.52,-103.084,-120.044,-135.45,-143.112
-108.524,-112.961,-108.207,-120.4,-102.786,-119.375,-138.732,-141.875
-110.111,-113.821,-109.179,-121.105,-103.4,-120.24,-140.66,-141.342
-114.169,-116.936,-110.671,-123.231,-104.425,-122.918,-141.373,-144.1
-118.329,-120.3,-110.855,-124.804,-104.153,-125.077,-141.809,-147.298
-120.859,-122.938,-110.629,-124.983,-103.33,-126.012,-144.877,-147.788
-122.627,-125.41,-113.534,-125.959,-105.504,-128.252,-153.172,-148.054
-125.565,-129.361,-120.474,-130.013,-111.795,-134.293,-163.197,-154.209
-130.021,-134.974,-126.398,-134.297,-117.202,-140.695,-166.963,-163.456
-135.386,-140.584,-127.392,-134.152,-117.864,-141.482,-163.405,-164.707
-142.163,-146.151,-127.798,-132.272,-118.077,-139.243,-160.997,-158.783
-149.859,-151.908,-131.909,-134.404,-121.724,-141.189,-163.322,-158.271
-155.123,-155.182,-135.963,-139.019,-125.025,-146.607,-166.196,-165.64
-156.45,-155.171,-136.847,-141.976,-125.553,-150.641,-171.842,-172.555
-156.88,-155.913,-137.836,-143.823,-126.697,-152.981,-183.983,-175.092
-159.517,-160.29,-141.713,-146.244,-130.378,-155.292,-194.788,-175.243
-164.923,-166.772,-147.785,-148.965,-135.536,-157.535,-197.273,-174.745
-171.713,-172.074,-154.435,-151.248,-141.171,-158.921,-196.672,-174.405
-176.734,-173.767,-159.339,-152.512,-145.478,-159.022,-198.616,-175.176
-177.354,-171.899,-160.082,-152.185,-146.055,-157.964,-201.005,-176.776
-175.032,-169.286,-158.534,-151.38,-144.431,-157.253,-202.634,-179.247
-175.211,-170.027,-160.439,-153.181,-145.892,-159.275,-206.818,-183.718
-180.368,-174.893,-165.977,-157.535,-150.666,-163.212,-211.789,-187.39
-184.386,-178.102,-168.281,-160.066,-152.42,-165.264,-212.338,-186.703
-181.527,-175.693,-165.293,-159.655,-149.18,-165.465,-210.523,-185.239
-175.983,-172.392,-162.546,-159.412,-146.018,-166.73,-209.83,-187.164
-173.738,-172.233,-162.378,-158.608,-145.182,-166.752,-207.963,-188.133
-176.126,-174.802,-163.684,-155.903,-146.109,-163.523,-205.748,-184.379
-183.305,-181.332,-168.831,-156.84,-151.585,-163.926,-209.496,-183.172
-191.396,-189.919,-176.022,-163.456,-159.502,-171.289,-217.724,-190.17
-194.48,-194.664,-177.794,-168.55,-161.782,-177.804,-221.789,-198.113
-194.146,-196.012,-175.89,-169.495,-159.985,-179.477,-221.722,-200.36
-194.868,-198.43,-178.271,-171.032,-162.261,-180.923,-223.798,-200.342
-195.191,-201.127,-183.801,-174.098,-167.626,-183.977,-227.293,-202.057
-191.663,-199.969,-184.902,-174.055,-168.523,-184.412,-226.102,-202.666
-185.194,-194.993,-178.979,-168.811,-162.465,-179.934,-219.039,-198.331
-181.978,-192.68,-172.698,-164.174,-156.318,-175.941,-213.77,-193.283
-186.945,-197.631,-174.403,-166.455,-158.311,-178.048,-217.148,-194.497
-196.104,-205.314,-182.368,-172.67,-166.421,-183.045,-225.119,-200.043
-203.023,-210.416,-189.741,-176.802,-173.897,-185.588,-230.946,-203.56
-207.446,-214.13,-194.972,-178.55,-179.542,-186.145,-234.941,-204.286
-209.612,-216.932,-196.88,-178.609,-182.107,-185.868,-237.492,-203.92
-206.921,-215.376,-192.288,-175.217,-177.913,-183.016,-234.135,-201.159
-201.394,-210.235,-185.072,-170.488,-170.621,-179.039,-226.745,-197.703
-200.388,-208.312,-185.143,-170.255,-170.37,-178.876,-227.056,-199.333
-205.578,-211.926,-192.754,-173.647,-177.599,-181.646,-236.575,-203.927
-209.996,-215.287,-197.003,-174.954,-181.696,-183.031,-243.071,-205.547
-209.726,-215.079,-195.435,-175.215,-180.458,-185.004,-244.151,-207.348
-208.851,-214.69,-196.154,-178.107,-181.506,-189.966,-246.579,-212.255
-211.459,-216.431,-200.301,-181.261,-185.501,-193.944,-249.09,-215.356
-216.158,-217.925,-201.459,-180.893,-186.447,-193.391,-248.186,-214.169
-219.122,-217.073,-198.409,-177.818,-183.523,-190.143,-247.074,-212.372
-218.962,-215.065,-195.589,-174.945,-180.839,-187.19,-247.915,-212.936
-216.994,-213.222,-194.012,-172.62,-179.154,-184.443,-246.69,-213.85
-215.081,-211.313,-190.785,-169.274,-175.734,-180.86,-239.749,-210.242
-213.894,-209.104,-185.702,-164.453,-170.406,-177.051,-228.287,-200.841
-212.86,-207.742,-182.611,-160.795,-166.994,-175.324,-218.699,-192.695
-214.138,-210.926,-186.593,-164.299,-170.704,-180.011,-221.046,-195.045
-222.918,-221.932,-199.728,-177.95,-183.514,-193.202,-238.143,-207.823
-238.124,-237.02,-216.409,-195.534,-199.744,-209.594,-258.667,-222.876
-250.199,-247.776,-227.948,-208.491,-211.087,-222.073,-271.24,-235.228
-253.749,-251.467,-233.179,-214.534,-216.357,-228.498,-276.291,-243.382
-252.169,-250.893,-235.581,-213.723,-218.314,-227.831,-275.673,-242.109
-248.935,-247.406,-234.652,-206.558,-216.388,-219.925,-267.734,-230.451
-245.873,-243.331,-231.445,-199.924,-212.475,-212.004,-259.328,-221.036
-246.999,-244.368,-233.185,-201.872,-214.191,-212.495,-261.04,-224.121
-252.792,-250.464,-240.678,-208.632,-221.988,-217.728,-267.858,-230.93
-255.759,-252.849,-243.299,-208.875,-224.853,-216.886,-265.826,-227.703
-251.831,-248.718,-237.253,-201.329,-218.56,-209.398,-254.779,-216.026
-247.28,-245.996,-232.139,-195.262,-212.591,-203.939,-246.446,-206.88
-249.429,-249.873,-234.576,-197.292,-214.51,-206.11,-247.891,-208.513
-257.943,-257.186,-241.277,-206.729,-221.714,-216.076,-257.05,-223.347
-263.415,-260.457,-244.491,-215.097,-225.583,-226.169,-265.335,-240.434
-259.059,-256.217,-240.126,-214.21,-221.166,-226.626,-264.791,-243.443
-253.164,-251.654,-234.118,-209.184,-214.727,-221.395,-257.18,-234.622
-254.651,-252.997,-233.343,-209.059,-213.551,-220.688,-249.97,-228.834
-258.568,-255.896,-236.06,-212.219,-215.849,-223.898,-246.533,-229.044
-259.322,-256.474,-238.681,-214.16,-218.127,-226.131,-245.751,-229.094
-258.638,-255.787,-239.553,-214.796,-218.939,-226.989,-245.201,-228.247
-256.704,-253.083,-236.259,-213.839,-215.875,-226.422,-243.34,-228.272
-251.015,-247.195,-228.563,-210.16,-208.461,-223.43,-240.809,-226.336
-242.424,-239.934,-219.403,-203.847,-199.253,-217.73,-237.753,-218.578
-236.469,-234.88,-212.245,-196.749,-191.675,-210.619,-232.36,-207.773
-238.081,-234.714,-210.516,-191.805,-189.396,-205.828,-224.345,-201.795
-244.867,-237.953,-214.436,-188.856,-192.634,-205.865,-217.44,-202.65
-249.341,-239.96,-218.738,-184.454,-196.117,-207.938,-215.286,-203.932
-248.537,-238.664,-219.22,-178.495,-195.929,-207.36,-216.022,-201.146
-246.764,-236.947,-218.204,-175.054,-194.569,-204.228,-216.152,-197.459
-246.961,-236.994,-218.554,-174.963,-194.71,-202.125,-215.836,-196.903
-245.722,-236.011,-218.493,-174.445,-194.28,-201.107,-215.702,-197.391
-241.674,-232.402,-217.246,-172.386,-192.464,-198.913,-215.178,-195.462
-239.473,-229.174,-217.415,-170.978,-192.025,-196.035,-214.513,-192.534
-239.209,-226.231,-217.148,-168.077,-191.194,-192.021,-212.234,-189.01
-234.673,-220.053,-210.914,-159.94,-184.513,-184.829,-205.801,-182.325
-226.616,-212.791,-201.128,-151.074,-174.561,-177.689,-198.145,-175.548
-222.133,-209.032,-196.024,-147.704,-169.394,-174.381,-193.819,-172.989
-221.253,-207.166,-196.326,-146.81,-169.177,-171.864,-191.118,-171.383
-219.439,-204.786,-196.658,-144.172,-168.502,-168.397,-188.581,-168.254
-217.982,-204.497,-195.955,-142.988,-166.959,-167.771,-189.938,-167.43
-219.368,-206.927,-195.626,-145.239,-166.292,-169.455,-194.255,-169.296
-220.21,-207.489,-194.292,-146.504,-164.807,-168.164,-194.022,-168.546
-217.441,-204.374,-191.512,-144.698,-161.668,-164.269,-187.768,-164.336
-214.09,-201.267,-189.747,-143.632,-159.364,-163.012,-183.291,-162.684
-214.531,-201.313,-191.087,-146.43,-160.418,-166.121,-186.34,-167.471
-218.273,-204.049,-195.163,-151.511,-164.71,-170.561,-192.956,-174.304
-221.25,-207.537,-199.479,-155.756,-169.376,-173.345,-196.389,-176.417
-222.097,-210.836,-203.094,-159.253,-172.736,-175.821,-197.056,-174.831
-223.193,-214.161,-208.229,-163.991,-176.588,-181.074,-199.492,-176.008
-224.667,-216.321,-214.31,-168.001,-180.952,-186.347,-203.129,-178.633
-221.971,-213.145,-214.903,-165.339,-180.523,-183.919,-202.082,-173.035
-214.15,-204.099,-207.786,-156.32,-173.332,-174.345,-195.301,-159.827
-207.787,-196.236,-200.604,-149.71,-166.133,-168.057,-189.828,-152.272
-205.72,-193.265,-197.818,-147.645,-162.712,-166.972,-188.366,-151.724
-203.688,-191.553,-195.325,-144.199,-159.458,-163.471,-186.323,-146.871
-200.235,-189.583,-191.895,-140.119,-155.722,-158.249,-183.08,-138.314
-197.296,-188.289,-190.518,-139.753,-153.974,-156.913,-181.668,-134.774
-196.291,-187.584,-191.468,-141.56,-154.166,-158.073,-182.887,-135.261
-199.034,-189.012,-193.557,-143.861,-156.013,-159.487,-186.795,-135.16
-204.519,-193.421,-196.545,-147.84,-159.732,-162.432,-192.068,-134.965
-207.958,-198.007,-200.028,-152.748,-164.014,-166.519,-196.334,-136.784
-206.676,-199.725,-201.86,-155.491,-166.091,-168.498,-198.821,-141.506
-201.345,-197.129,-198.528,-153.227,-163.019,-165.304,-197.121,-146.565
-194.302,-191.543,-191.715,-147.889,-156.94,-159.507,-189.86,-148.154
-189.174,-187.44,-189.199,-146.103,-155.085,-158.375,-183.215,-148.443
-187.764,-187.007,-192.568,-149.146,-158.652,-162.015,-181.751,-151.089
-187.891,-187.268,-194.402,-150.497,-160.74,-162.276,-179.789,-152.277
-186.411,-185.262,-190.823,-146.892,-157.749,-156.733,-172.713,-147.161
-183.149,-182.046,-185.72,-143.023,-153.326,-152.067,-166.007,-140.07
-178.175,-177.948,-180.834,-141.152,-149.265,-150.458,-162.877,-136.178
-168.266,-169.328,-171.868,-135.274,-141.208,-144.46,-155.846,-129.734
-154.723,-157.357,-159.587,-124.606,-129.51,-133.153,-143.282,-117.599
-147.229,-150.904,-153.074,-119.379,-123.367,-127.682,-136.806,-110.398
-151.096,-154.185,-156.302,-124.112,-127.187,-132.359,-141.407,-113.634
-160.506,-161.886,-163.687,-131.811,-135.274,-139.322,-148.411,-119.223
-167.8,-167.782,-169.096,-136.591,-141.208,-143.057,-151.772,-121.913
-171.102,-170.766,-170.245,-138.119,-142.82,-144.095,-153.421,-123.26
-172.66,-172.951,-168.525,-137.478,-141.587,-143.364,-154.273,-123.38
-174.051,-174.577,-167.459,-135.786,-140.785,-141.345,-152.521,-122.097
-174.379,-173.358,-167.852,-133.891,-141.172,-138.971,-149.154,-121.557
-173.697,-170.123,-168.857,-133.131,-142.152,-138.184,-148.492,-123.119
-173.449,-168.11,-171.314,-134.749,-144.737,-139.967,-152.206,-125.614
-171.104,-165.066,-172.065,-135.919,-146.1,-140.701,-154.746,-125.748
-163.056,-156.682,-165.275,-132.542,-140.702,-136.653,-149.298,-121.46
-153.509,-146.703,-154.522,-127.137,-131.503,-131.194,-139.154,-117.297
-149.593,-141.907,-149.166,-125.293,-126.846,-129.527,-134.029,-119.205
-149.675,-141.14,-148.789,-126.042,-126.503,-129.749,-134.42,-123.429
-146.962,-139.183,-145.518,-124.409,-123.732,-126.823,-132.493,-121.632
-140.991,-135.713,-138.781,-120.006,-118.099,-121.025,-126.601,-114.408
-136.81,-133.464,-135.186,-116.861,-115.318,-117.013,-122.544,-109.66
-135.775,-132.267,-136.492,-117.111,-116.876,-117.07,-122.701,-110.537
-133.6,-128.892,-137.008,-117.666,-117.615,-117.653,-121.86,-111.365
-126.875,-121.565,-131.732,-114.063,-112.991,-113.67,-115.032,-106.042
-117.361,-112.626,-121.848,-106.59,-104.25,-105.3,-105.365,-96.719
-108.99,-105.35,-111.877,-99.1,-95.507,-97.017,-98.808,-89.293
-103.728,-100.601,-104.595,-93.618,-88.944,-91.692,-94.853,-84.415
-101.536,-98.191,-100.642,-89.894,-85.138,-89.343,-89.981,-79.819
-101.657,-98.178,-99.344,-87.856,-83.997,-89.061,-85.399,-76.423
-102.327,-99.622,-98.154,-87.571,-83.361,-89.551,-84.398,-75.91
-101.56,-100.561,-95.646,-88.063,-81.49,-89.292,-85.338,-76.415
-99.502,-100.104,-93.501,-87.973,-79.734,-87.702,-84.118,-75.631
-97.728,-98.988,-92.805,-87.185,-79.362,-85.929,-81.494,-74.783
-96.472,-97.633,-92.385,-86.237,-79.325,-85.006,-79.621,-74.419
-94.479,-95.036,-90.001,-84.226,-77.308,-83.272,-75.617,-71.073
-91.306,-91.045,-84.244,-80.207,-72.114,-78.846,-66.905,-63.293
-88.198,-87.703,-77.748,-75.867,-66.517,-73.747,-56.525,-55.048
-85.552,-85.312,-74.426,-72.817,-63.925,-70.709,-48.546,-50.032
-82.105,-81.079,-73.74,-69.859,-63.205,-68.567,-43.833,-47.778
-77.549,-74.525,-72.836,-66.374,-61.842,-65.636,-41.253,-46.192
-72.922,-69.14,-70.814,-64.171,-59.929,-63.269,-39.832,-44.572
-69.235,-67.348,-68.256,-63.723,-58.234,-62.406,-38.464,-43.179
-67.153,-67.867,-66.162,-63.145,-56.849,-61.504,-35.207,-41.37
-66.042,-67.891,-65.367,-61.775,-56.07,-59.807,-29.777,-38.557
-63.755,-65.957,-64.988,-60.731,-55.583,-58.303,-24.834,-35.987
-59.615,-63.155,-63.206,-60.343,-54.195,-57.393,-22.626,-34.924
-55.81,-61.038,-60.222,-59.691,-51.95,-56.499,-22.059,-34.431
-53.432,-58.901,-57.07,-57.7,-49.459,-54.871,-19.781,-32.56
-50.552,-55.384,-53.026,-53.934,-45.919,-51.876,-14.419,-29.013
-46.621,-51.828,-48.379,-49.67,-41.664,-48.201,-8.888,-25.83
-43.667,-50.677,-45.553,-47.359,-39.042,-46.04,-6.507,-24.622
-41.993,-51.198,-44.608,-47.603,-38.268,-46.196,-6.739,-24.34
-40.356,-50.966,-43.153,-48.353,-37.216,-46.645,-6.386,-23.279
-39.575,-50.477,-41.412,-48.292,-35.774,-45.851,-3.838,-21.783
-41.139,-51.648,-41.478,-48.256,-35.694,-44.84,-0.987,-21.246
-43.723,-53.308,-42.558,-48.181,-36.895,-44.065,0.142,-21.36
-44.929,-53.029,-42.946,-46.806,-38.101,-42.38,-0.275,-20.857
-44.826,-51.406,-43.39,-44.693,-39.029,-40.089,-1.771,-20.179
-45.187,-50.566,-44.568,-43.471,-39.754,-38.882,-3.267,-20.371
-46.793,-50.813,-45.592,-42.882,-40.324,-38.846,-2.381,-20.133
-48.168,-50.736,-45.056,-40.943,-40.007,-37.644,1.569,-17.003
-46.864,-49.243,-41.246,-36.856,-36.545,-33.59,6.483,-11.459
-43.748,-47.663,-35.31,-33.218,-30.572,-29.466,10.011,-7.141
-43.726,-48.973,-33.403,-33.885,-28.521,-30.036,10.42,-6.931
-48.223,-52.746,-38.718,-38.557,-33.905,-34.673,6.873,-10.34
-51.708,-54.221,-44.934,-42.156,-40.24,-37.491,2.184,-13.521
-50.302,-51.101,-45.163,-41.344,-40.475,-35.883,1.51,-12.455
-47.406,-46.791,-41.892,-38.735,-37.347,-33.418,4.837,-8.342
-46.95,-45.029,-41.034,-38.542,-37.046,-33.582,6.539,-6.519
-47.286,-45.126,-42.046,-40.416,-38.643,-35.384,4.821,-8.194
-45.738,-44.677,-41.293,-40.976,-37.754,-36.317,4.287,-9.001
-43.684,-43.778,-39.198,-39.194,-34.956,-35.678,7.788,-6.65
-42.974,-43.54,-37.332,-36.428,-32.841,-33.56,12.321,-3.669
-42.721,-43.919,-35.174,-33.912,-31.216,-30.423,14.555,-2.106
-41.817,-44.346,-32.762,-32.31,-29.405,-27.758,16.255,-0.413
-40.283,-43.73,-30.873,-31.366,-27.602,-26.302,20.933,3.161
-37.869,-40.803,-28.518,-29.385,-24.986,-24.544,27.9,7.762
-33.295,-35.208,-22.866,-24.196,-19.296,-19.852,35.174,12.885
-26.336,-28.511,-14.092,-16.313,-10.945,-11.989,44.158,19.894
-20.509,-24.637,-8.571,-10.434,-5.882,-5.666,54.459,27.624
-19.935,-26.265,-10.874,-10.448,-8.38,-5.472,60.144,31.377
-24.999,-32.304,-18.104,-15.688,-15.996,-10.465,56.6,28.465
-34.05,-41.175,-27.66,-24.544,-26.218,-18.346,45.165,20.506
-43.162,-50.042,-38.199,-34.596,-37.022,-27.421,31.148,11.084
-45.725,-52.95,-43.4,-39.914,-41.984,-32.944,21.431,4.369
-40.815,-48.549,-39.398,-37.287,-37.868,-31.557,19.994,3.009
-35.12,-42.885,-32.015,-31.243,-30.687,-26.807,24.567,5.814
-31.847,-39.282,-27.176,-26.868,-26.058,-23.421,30.349,9.63
-28.159,-35.276,-23.459,-23.695,-22.602,-21.43,34.477,12.365
-23.749,-30.366,-18.713,-20.183,-18.497,-19.492,35.294,12.677
-21.647,-27.067,-15.757,-18.214,-16.301,-18.665,32.003,9.568
-21.415,-25.055,-16.931,-19,-17.775,-19.514,27.559,4.837
-18.983,-21.467,-18.222,-19.277,-19.192,-19.563,27.07,3.011
-13.793,-16.732,-15.629,-16.861,-17.089,-17.638,30.81,5.443
-10.568,-14.596,-12.422,-15.003,-14.259,-16.485,33.916,8.146
-11.041,-14.969,-11.714,-15.62,-13.388,-16.992,34.635,8.71
-10.155,-12.716,-9.806,-14.741,-11.317,-15.547,37.034,9.972
-5.312,-6.568,-4.94,-10.204,-6.493,-10.819,43.801,14.03
-1.856,-2.402,-2.89,-6.671,-4.248,-6.952,50.871,17.926
-3.971,-4.107,-7.297,-8.158,-8.375,-7.203,51.922,17.671
-7.894,-8.088,-13.271,-12.179,-14.616,-9.822,47.272,13.904
-9.022,-10.2,-15.824,-15.001,-17.926,-12.029,43.268,10.536
-9.02,-11.713,-17.217,-17.272,-19.921,-14.09,41.748,8.314
-11.313,-14.625,-21.142,-20.713,-24.06,-17.258,38.585,4.741
-13.882,-16.292,-25.129,-23.09,-28.046,-19.604,33.946,0.542
-12.356,-13.722,-24.629,-21.65,-27.343,-18.442,33.362,-0.576
-8.398,-9.971,-21.581,-19.214,-23.871,-16.366,37.11,0.75
-6.983,-9.933,-20.872,-20.28,-22.845,-17.7,38.996,-0.038
-6.93,-11.759,-21.024,-22.938,-23.208,-20.066,37.109,-3.09
-4.29,-10.637,-18.293,-22.489,-20.965,-18.686,35.766,-4.465
-2.855,-9.633,-16.984,-21.494,-19.606,-17.194,35.509,-5.225
-7.742,-13.887,-22.528,-24.723,-24.47,-20.799,33.177,-8.819
-10.436,-15.251,-25.874,-25.055,-27.353,-21.031,33.067,-8.933
-0.633,-3.836,-15.154,-13.644,-16.777,-8.511,41.305,1.714
11.436,9.61,0.09,-0.44,-1.612,5.48,51.343,13.511
12.85,11.922,4.835,2.562,3.666,8.254,55.698,15.885
13.236,12.646,6.206,4.519,5.695,9.445,60.77,17.569
21.14,20.344,13.728,13.178,13.348,17.149,69.987,25.47
24.214,23.276,17.37,16.903,16.721,19.791,73.66,29.136
16.934,16.427,11.19,11.085,10.336,12.658,69.316,24.293
12.228,12.369,6.909,8.413,6.054,8.805,66.768,21.6
15.309,16.04,10.487,13.689,9.669,14.134,68.876,25.174
17.253,18.664,13.501,17.522,12.64,19.13,69.04,27.128
14.256,16.21,10.846,15.056,9.867,17.246,65.306,23.409
12.168,14.081,7.698,11.651,6.516,13.289,62.266,19.399
13.822,15.481,8.086,10.916,6.67,11.765,61.159,18.85
14.409,16.795,8.578,9.267,6.953,9.316,57.76,17.545
11.794,16.098,6.909,5.474,5.138,4.386,52.413,13.654
12.365,18.27,8.083,5.63,6.34,3.5,52.724,13.831
20.732,26.672,16.434,13.284,14.748,10.806,61.614,21.806
32.12,36.959,28.347,24.002,26.45,21.548,72.721,32.455
36.243,39.93,33.157,28.551,30.992,25.919,75.951,36.681
25.869,28.519,21.818,18.573,19.725,15.83,64.199,27.557
8.32,9.945,2.398,0.011,0.522,-2.354,45.175,11.452
-2.897,-1.262,-8.316,-11.464,-10.263,-13.221,34.943,2.162
-6.162,-3.051,-7.862,-11.973,-10.076,-13.383,36.656,2.371
2.541,6.879,5.037,0.253,2.692,-1.287,51.275,15.142
29.961,33.896,35.333,29.298,32.872,27.362,82.667,45.465
52.787,55.633,60.55,52.901,57.701,50.46,107.58,69.339
44.236,46.951,53.852,45.768,50.565,42.705,98.694,59.95
23.075,26.855,32.409,26.282,28.996,22.991,75.25,38.021
15.514,20.764,23.523,20.616,20.206,17.966,66.596,32.512
13,19.826,21.875,21.179,18.786,19.407,65.306,34.147
5.996,14.704,17.584,18.398,14.996,16.936,59.818,30.816
4.755,15.477,17.622,20.687,15.53,19.409,58.66,32.439
11.939,24.112,24.301,28.929,22.092,28.367,64.442,42.157
14.379,27.078,26.693,30.691,23.874,30.577,65.455,46.337
5.768,18.49,18.418,21.823,15.411,21.065,57.221,38.745
-3.818,8.755,8.1,12.816,5.601,11.288,50.131,30.388
-3.416,8.77,7.705,13.864,5.626,12.291,53.861,32.619
4.109,15.682,16.007,22.035,13.846,20.232,63.483,41.399
7.423,18.377,21.339,25.873,18.889,23.097,66.666,43.938
2.415,13.15,18.877,20.922,16.011,17.349,61.477,37.179
-3.202,7.542,15.708,14.913,12.374,11.022,57.292,30.987
-0.56,9.444,19.223,16.419,15.697,11.856,60.278,34.057
7.605,16.067,26.427,22.869,22.873,17.437,66.534,43.824
10.032,17.321,27.945,24.296,24.179,18.999,67.846,52.186
4.522,11.571,22.094,18.812,18.107,14.308,61.815,56.87
1.394,8.713,17.723,15.49,13.749,10.866,55.879,61.371
5.658,13.073,20.039,18.827,16.079,13.276,56.991,66.545
8.259,15.106,21.735,20.967,17.79,15.278,60.308,68.021
1.096,7.044,15.109,14.922,11.548,10.377,57.248,62.156
-9.098,-3.551,5.861,6.228,2.729,3.221,49.891,53.015
-11.146,-5.477,4.374,3.865,0.923,2.267,46.839,49.19
-6.357,-0.973,9.217,6.282,4.865,6.031,49.147,52.751
-3.797,0.092,11.004,5.126,6.032,6.043,49.838,57.838
-4.497,-2.977,8.065,-0.55,2.973,1.282,48.415,60.095
-2.446,-3.153,6.548,-3.773,1.542,-1.242,56.204,60.612
2.859,0.512,8.31,-2.259,3.421,0.559,76.879,61.555
6.326,2.967,9.683,-0.569,4.85,1.963,94.522,62.579
6.017,2.423,9.195,-0.911,4.424,0.924,96.675,61.445
4.276,1.29,8.922,-0.792,4.216,0.165,92.088,57.854
3.884,2.406,10.567,1.794,5.613,1.795,92.069,54.072
5.69,5.937,13.461,5.503,8.079,4.877,93.733,50.731
7.995,8.524,15.286,7.428,9.884,7.045,91.795,47.079
8.342,7.502,13.76,5.868,8.63,6.166,88.264,42.875
7.404,4.984,9.62,1.784,4.489,2.19,84.822,37.796
9.134,4.99,7.379,-1.707,1.92,-1.778,79.621,33.772
13.793,7.22,9.013,-2.934,3.165,-3.203,72.592,33.665
15.814,7.368,10.295,-3.887,4.258,-3.737,67.264,35.078
12.413,4.182,7.721,-6.754,1.821,-6.008,66.453,32.746
8.023,1.646,4.241,-9.916,-1.444,-8.759,67.546,26.979
7.038,2.317,4.563,-10.334,-1.187,-9.017,65.598,22.973
7.159,3.101,8.199,-8.748,2.202,-7.704,60.945,22.619
4.481,1.309,11.368,-7.609,5.374,-7.201,59.213,23.419
1.533,0.369,13.797,-5.679,8.083,-5.685,63.106,24.223
2.663,3.299,17.397,-1.296,11.778,-1.447,67.835,25.544
5.642,6.284,20.71,2.944,14.836,2.351,67.588,26.849
6.194,5.603,20.976,4.116,14.897,3.087,62.973,27.761
5.065,3.05,18.041,2.02,12.011,1.436,57.275,27.449
5.36,1.195,13.842,-2.089,7.699,-1.556,51.528,23.979
8.65,0.987,11.714,-4.809,5.167,-3.472,47.922,19.283
14.338,2.877,13.953,-2.854,7.316,-1.482,49.333,18.805
19.429,5.967,18.048,2.031,11.9,2.857,53.766,23.27
21.469,8.93,19.818,5.944,14.288,5.999,56.977,27.874
22.456,12.172,20.323,8.91,15.094,8.319,57.985,29.44
26.245,16.501,24.253,12.996,18.825,12.262,57.356,28.921
31.82,20.306,30.891,16.584,24.883,16.394,54.22,27.609
33.726,20.771,34.199,16.043,27.678,16.808,49.193,25.498
30.61,18.274,33.113,12.368,26.484,14.018,47.438,24.132
26.96,16.087,30.845,9.536,24.427,11.718,52.272,25.457
25.879,16.084,27.086,8.067,20.972,10.47,58.512,27.653
26.968,18.131,22.25,6.677,16.423,9.292,59.427,27.746
29.714,21.628,20.559,6.358,14.854,9.404,55.768,26.156
33.743,25.259,22.647,8.028,16.839,11.46,51.917,24.752
37.213,27.177,24.685,9.986,18.778,13.291,48.612,23.591
37.396,26.321,24.616,10.388,18.786,13.218,44.643,21.875
33.74,23.296,23.145,9.844,17.529,12.472,41.297,19.994
30.061,20.688,21.666,10.406,16.378,12.993,40.444,19.11
30.651,21.269,21.539,12.838,16.594,14.916,40.437,18.9
34.984,25.184,23.239,16.085,18.453,17.359,38.531,17.806
39.156,29.559,25.738,18.861,20.907,19.663,35.61,15.862
40.771,31.158,27.549,20.587,22.673,21.13,34.722,14.886
41.231,30.594,28.995,22.077,24.153,22.17,37.156,16.239
42.953,31.449,31.779,24.37,26.882,23.961,40.513,18.803
44.541,33.414,35.073,25.778,30.006,25.159,40.252,19.338
42.963,32.718,35.854,24.035,30.699,23.68,35.409,16.662
39.871,30,34.016,21.057,28.942,21.392,30.267,13.641
38.988,29.184,32.162,20.354,27.274,21.438,28.298,12.994
39.529,30.133,31.007,21.447,26.372,23.044,28.088,13.497
39.005,30.524,30.205,22.058,25.79,23.957,27.495,13.126
38.359,31.014,30.853,22.774,26.609,24.742,28.219,13.518
39.204,32.679,32.349,24.776,28.515,26.429,31.779,16.408
40.78,34.491,32.092,26.892,28.92,27.971,35.288,19.186
42.125,35.944,31.039,28.012,28.108,28.778,35.688,19.079
44.022,38.104,32.712,29.166,29.291,30.018,34.329,17.926
47.627,41.681,37.317,31.748,33.238,32.532,34.977,19.34
51.788,45.53,41.866,35.031,37.396,35.423,38.713,23.212
53.105,46.785,43.092,36.183,38.386,36.427,41.239,25.3
48.806,42.354,38.017,31.839,33.042,32.568,35.063,20.911
39.26,31.853,26.261,20.858,20.91,22.465,17.966,9.154
28.988,20.248,13.291,7.837,7.646,10.103,-0.259,-3.91
23.671,14.418,6.019,0.156,0.615,2.459,-7.901,-10.561
24.527,15.507,5.432,-0.335,0.728,1.505,-5.941,-10.859
27.733,18.505,8.197,2.515,3.876,3.735,-2.255,-9.647
30.286,20.205,12.574,6.476,8.042,7.246,1.114,-7.684
33.736,22.965,18.831,12.169,14.033,12.764,5.107,-3.686
39.098,28.015,24.947,17.828,20.108,18.27,7.391,0.157
42.571,31.065,26.98,19.469,22.004,19.722,6.053,1.043
42.288,30.09,26.219,17.745,20.741,18.069,3.976,0.06
42.1,29.63,27.805,18.09,21.718,18.621,5.842,0.388
43.022,31.51,30.866,21.667,24.47,22.228,11.224,2.712
40.315,30.573,29.978,22.736,23.483,23.447,13.028,3.393
33.301,24.486,24.854,18.18,18.163,19.337,6.765,-1.125
29.016,19.617,20.453,13.839,13.709,15.415,-1.45,-7.736
31.482,21.407,19.319,15.629,13.086,17.432,-3.113,-9.908
34.732,24.681,19.084,19.031,13.351,20.477,-0.503,-7.747
32.131,21.827,17.032,16.223,10.781,16.659,-2.13,-7.524
26.015,15.419,13.298,9.327,5.974,9.37,-7.556,-10.9
22.989,13.511,10.307,6.785,2.736,7.684,-8.508,-12.472
25.196,17.726,10.888,10.586,3.826,12.33,-3.851,-9.387
29.324,22.707,14.457,15.095,7.418,16.646,-1.299,-6.12
31.602,24.103,16.879,16.387,9.229,17.02,-4.381,-6.935
30.765,22.218,15.481,15.735,7.583,15.136,-8.696,-9.978
26.528,17.925,10.298,13.861,2.867,11.834,-11.033,-12.124
20.449,11.89,3.359,10.213,-3.423,7.158,-12.662,-13.445
16.801,7.672,-1.079,7.213,-7.54,4.103,-15.002,-15.122
17.587,8.013,-0.372,7.319,-6.989,4.705,-18.419,-17.916
20.66,10.949,3.93,9.697,-2.976,7.22,-21.583,-20.852
22.956,12.473,8.774,12.275,1.79,9.137,-21.489,-20.632
22.127,10.169,11.195,12.913,4.179,8.793,-18.166,-16.766
18.596,6.02,9.615,11.291,2.647,7.032,-15.413,-13.656
15.414,4.162,5.524,9.776,-0.932,6.482,-15.265,-14.005
14.249,5.044,2.254,9.962,-3.518,7.302,-16.04,-15.405
14.66,6.43,2.612,11.16,-3.194,8.056,-16.366,-15.526
15.652,7.405,5.92,12.206,-0.618,8.884,-17.199,-15.359
16.146,7.982,8.038,13.056,1.19,10.433,-18.217,-15.418
16.254,8.423,7.395,14.536,0.865,12.308,-17.226,-14.361
18.012,10.07,7.784,16.767,1.124,14,-14.796,-12.406
22.613,13.985,12.107,18.693,4.609,15.301,-14.646,-11.589
27.312,18.174,17.286,19.028,9.028,15.539,-18.677,-13.089
28.155,19.414,18.965,17.806,10.341,14.646,-24.699,-16.319
24.544,17.378,16.4,16.059,7.754,13.513,-28.725,-19.682
18.341,13.602,10.57,13.74,2.41,12.112,-27.796,-21.382
11.873,9.352,4.234,10.787,-3.273,10.078,-23.076,-20.605
7.733,6.442,1.593,8.859,-5.86,8.012,-19.942,-19.036
7.256,6.576,2.754,9.286,-5.25,6.54,-21.006,-18.948
9.353,9.074,4.552,11.503,-4.021,6.277,-22.818,-19.467
11.683,11.216,6.161,13.957,-2.784,7.564,-22.825,-18.826
13.035,11.634,7.728,15.462,-1.464,9.278,-22.89,-18.051
13.686,11.129,7.809,15.748,-1.553,9.961,-24.552,-18.249
12.718,9.546,5.512,14.377,-4.016,8.985,-27.316,-19.013
9.211,6.63,2.216,11.517,-7.386,6.889,-30.326,-20.368
5.877,4.716,0.412,9.392,-9.19,5.38,-32.988,-22.295
5.411,5.12,0.993,9.245,-8.898,4.969,-36.013,-24.367
6.173,5.665,2.027,9.75,-8.213,4.631,-39.582,-26.005
6.819,5.537,2.843,10.657,-7.296,5.05,-41.255,-25.917
9.356,7.03,5.988,13.283,-3.99,7.955,-40.007,-23.592
12.292,9.328,9.045,16.171,-0.924,11.635,-38.1,-20.466
9.822,8.06,4.733,15.835,-4.795,12.178,-36.521,-18.111
2.663,3.128,-4.742,12.343,-13.553,9.107,-34.775,-17.038
-2.35,-1.681,-9.89,8.67,-18.41,5.234,-34.337,-17.361
-2.924,-4.143,-8.782,6.671,-17.435,3.195,-35.982,-18.552
-0.805,-3.126,-5.233,6.506,-14.198,3.715,-37.73,-19.543
2.362,0.082,-2.214,6.436,-11.54,4.408,-39.299,-20.563
4.153,1.137,-2.437,4.691,-11.797,2.645,-41.485,-22.015
3.481,-0.969,-5.525,2.514,-14.526,-0.366,-42.121,-22.337
2.24,-2.973,-7.365,1.777,-16.043,-2.111,-40.387,-20.778
1.782,-3.807,-6.537,1.49,-15.163,-2.895,-40.398,-19.853
1.253,-5.059,-5.578,0.016,-14.392,-4.226,-44.207,-21.641
0.402,-6.007,-5.477,-0.883,-14.563,-4.802,-46.616,-23.511
0.252,-4.299,-4.772,1.735,-13.896,-2.06,-43.108,-21.642
0.359,-1.198,-3.973,6.03,-12.803,2.037,-37.711,-17.739
-0.7,-0.313,-5.401,7.395,-13.84,2.696,-36.726,-16.696
-2.09,-1.368,-7.971,5.66,-16.085,0.067,-40.465,-19.206
-1.987,-1.388,-8.304,3.985,-16.139,-1.856,-45.107,-21.953
-0.778,-0.049,-6.953,3.432,-14.549,-1.97,-46.684,-22.327
0.314,1.326,-6.379,3.155,-13.918,-1.702,-43.658,-20.16
1.059,2.243,-5.905,2.365,-13.628,-1.877,-39.595,-17.691
1.523,2.572,-4.329,1.292,-12.215,-2.421,-38.846,-17.219
2.017,2.561,-2.595,1.172,-10.391,-2.727,-40.05,-18.209
2.432,2.13,-1.906,1.847,-9.418,-2.586,-40.196,-19.07
1.817,0.745,-2.18,1.924,-9.429,-2.252,-40.3,-19.579
1.183,-0.021,-1.504,2.413,-8.755,-0.913,-41.524,-19.438
2.85,1.695,1.618,5.312,-5.758,2.284,-41.838,-17.763
5.243,3.362,4.299,8.58,-2.858,5.325,-40.315,-15.342
4.956,1.662,2.514,8.262,-4.116,5.101,-39.606,-14.554
3.488,-1.318,-1.533,5.244,-7.836,2.551,-40.879,-15.488
5.02,-1.139,-1.927,4.75,-8.259,2.25,-40.735,-14.794
9.631,2.684,1.845,8.606,-4.609,5.742,-37.398,-11.124
13.643,6.881,4.88,12.384,-1.56,9.167,-34.343,-7.969
14.752,8.793,4.878,12.435,-1.266,9.417,-33.842,-7.917
14.356,8.989,5.058,11.581,-0.575,8.759,-33.802,-8.799
14.264,8.998,7.574,13.141,2.248,9.82,-33.403,-8.514
12.706,7.495,8.214,13.551,2.859,9.644,-35.537,-9.228
8.524,3.676,4.211,9.21,-1.176,5.569,-40.809,-12.636
5.649,1.502,0.527,5.008,-4.885,2.161,-44.273,-15.306
6.239,3.075,0.04,5.645,-5.494,3.099,-42.782,-14.56
7,4.625,-0.971,7.287,-6.439,4.349,-39.861,-13.553
7.598,5.494,-2.49,6.912,-7.741,3.555,-38.722,-14.642
11.983,10.502,0.552,8.633,-4.785,5.257,-37.678,-14.898
18.712,19.056,7.232,13.913,1.613,10.726,-35.396,-12.448
21.108,23.684,10.635,16.966,5.066,13.697,-33.562,-9.628
17.64,21.647,9.756,15.04,4.47,11.218,-32.958,-7.935
12.378,17.251,9.768,12.68,4.489,8.443,-32.613,-6.741
6.996,13.099,10.959,12.63,5.48,8.897,-32.587,-6.403
0.723,8.426,8.925,12.077,3.506,9.653,-33.703,-7.625
-4.712,4.144,4.227,9.473,-0.947,8.344,-36.005,-9.572
-6.586,2.672,1.928,7.344,-3.291,6.883,-38.801,-10.906
-5.643,3.952,3.033,7.21,-2.551,6.918,-40.847,-11.313
-4.982,5.186,3.939,7.302,-2.118,7.295,-41.095,-11.218
-6.013,4.268,2.77,6.119,-3.889,6.655,-40.286,-10.887
-7.955,1.878,0.922,4.418,-6.338,5.382,-40.2,-10.62
-9.663,0.016,-0.196,3.549,-7.723,4.83,-40.755,-10.851
-12.203,-1.773,-2.116,2.637,-9.591,4.28,-41.331,-12.051
-18.049,-5.866,-7.113,-0.618,-14.571,1.078,-43.07,-14.271
-24.238,-9.753,-11.56,-4.169,-19.282,-3.014,-45.279,-15.639
-24.676,-8.356,-9.985,-3.804,-18.163,-3.354,-45.315,-14.569
-21.818,-4.435,-6.048,-1.929,-14.628,-1.735,-44.077,-13.241
-22.946,-4.433,-6.755,-3.084,-15.544,-2.517,-44.212,-13.761
-27.975,-8.129,-10.626,-5.312,-19.376,-4,-45.367,-14.626
-32.555,-11.968,-12.649,-5.665,-21.169,-3.855,-46.708,-14.992
-35.65,-14.735,-12.921,-5.734,-21.324,-4.204,-48.755,-16.191
-37.56,-15.991,-13.735,-6.742,-22.272,-5.889,-50.61,-17.71
-36.966,-14.909,-14.139,-6.924,-22.774,-6.32,-50.827,-17.717
-33.299,-11.771,-12.112,-5.734,-20.718,-5.085,-50.388,-16.75
-29.007,-8.285,-9.57,-5.326,-18.314,-5.086,-50.846,-16.671
-26.482,-5.184,-9.464,-6.001,-18.471,-6.563,-51.36,-17.145
-24.818,-1.23,-10.26,-4.904,-19.172,-6.008,-49.549,-15.726
-22.089,3.997,-8.941,-1.322,-17.228,-2.681,-44.377,-11.324
-17.673,9.361,-5.154,2.182,-12.815,0.229,-38.278,-5.962
-12.086,14.411,-0.026,4.504,-7.591,1.675,-35.584,-2.677
-7.445,18.478,4.395,6.104,-3.403,3.2,-37.788,-2.809
-6.214,19.42,5.656,6.414,-2.172,4.609,-41.552,-4.746
-7.857,17.08,4.171,5.976,-3.248,5.302,-42.238,-4.891
-9.505,14.487,3.183,7.017,-3.54,6.631,-39.053,-1.545
-10.117,13.281,4.02,9.201,-2.182,8.816,-35.501,2.63
-10.553,12.52,4.897,9.861,-1.28,9.922,-34.496,3.969
-10.401,12.27,4.845,9.027,-1.525,9.777,-35.564,2.614
-7.969,14.244,5.586,9.698,-0.767,10.818,-36.698,2.007
-2.499,18.917,9.249,13.21,3.092,14.311,-35.474,4.505
5.437,24.51,16.532,17.887,10.504,18.805,-29.325,9.699
14.787,29.477,26.691,22.484,20.774,22.865,-17.937,16.622
23.455,33.506,36.845,27.203,31.268,26.602,-4.697,24.667
28.056,35.449,42.36,30.766,37.184,29.552,5.002,31.562
27.012,33.834,41.122,30.872,36.013,29.773,6.993,33.711
21.669,28.69,35.069,27.344,29.935,26.247,1.03,29.847
13.267,20.837,25.85,21.316,21.048,19.901,-9.903,22.12
3.522,12.258,15.082,13.927,10.654,12.38,-21.67,13.583
-3.771,6.463,7.929,7.872,3.513,6.25,-28.957,7.156
-6.028,5.557,8.784,6.447,4.26,4.676,-28.074,5.171
-3.872,8.429,15.27,9.644,10.712,7.97,-22.022,6.424
0.369,12.524,21.365,14.557,16.832,13.314,-16.688,8.577
3.488,15.497,23.821,19.058,19.674,18.391,-13.61,12.518
3.106,15.712,22.947,21.5,19.465,21.191,-12.792,16.47
0.7,13.695,20.555,20.81,17.274,20.43,-15.43,15.512
-0.648,11.44,18.31,18.868,14.834,18.369,-19.469,11.829
-1.074,9.443,16.37,17.938,13.18,17.484,-21.183,11.339
-1.237,8.037,15.008,17.886,12.538,17.043,-20.651,13.061
1.024,9.461,16.153,18.545,13.992,16.388,-19.787,13.279
6.621,14.764,20.446,20.724,18.147,17.04,-18.887,13.003
13.167,21.85,25.716,24.299,23.522,20.071,-17.333,14.823
17.735,27.517,29.168,27.413,27.406,23.582,-15.061,18.07
18.314,29.36,29.035,27.95,27.503,24.436,-13.126,19.988
15.706,27.949,26.278,26.344,24.696,22.774,-12.422,19.64
13.315,26.506,23.539,25.157,22.006,21.59,-13.155,18.354
11.904,25.602,20.598,24.772,19.344,21.428,-16.29,16.51
9.698,22.796,16.395,23.37,15.506,20.589,-20.893,14.07
8.788,19.88,14.5,21.917,13.986,20.306,-22.24,13.416
13.387,22.173,18.489,23.684,18.422,23.385,-18.656,16.301
20.958,28.175,24.583,27.797,24.99,28.1,-14.697,20.372
24.682,30.855,27.369,30.115,28.011,30.487,-12.983,23.153
23.785,28.939,27.921,30.104,28.598,30.726,-14.176,25.131
21.098,25.055,27.954,28.97,28.871,30.19,-26.337,25.952
17.344,19.969,25.402,25.985,26.745,28.083,-51.98,24.439
15.124,16.83,21.553,22.784,23.186,25.538,-72.223,23.17
17.072,18.871,20.538,22.713,22.334,25.107,-71.931,25.154
19.531,22.249,21.27,24.626,23.107,25.971,-61.962,27.958
18.626,22.309,20.303,25.197,21.858,25.888,-56.446,27.578
17.657,21.602,19.057,24.958,20.114,25.324,-54.345,24.864
19.697,23.032,19.534,25.572,20.451,25.143,-52.734,22.943
20.056,22.828,18.279,24.711,19.775,23.397,-54.654,21.575
15.356,18.409,13.23,20.692,15.498,19.473,-58.274,19.396
10.993,14.334,9.609,17.837,12.003,17.407,-55.267,18.305
11.394,14.061,11.085,19.715,13.011,19.726,-44.66,20.382
13.523,15.256,13.296,22.931,15.001,23.161,-35.981,23.76
15.322,16.556,12.786,23.793,14.782,24.566,-35.874,25.264
19.896,20.159,13.532,24.199,15.642,25.4,-40.617,24.202
27.157,25.743,18.169,26.475,19.899,27.631,-42.834,21.996
30.665,28.655,21.686,28.725,23.167,30.146,-39.532,20.587
27.004,26.341,19.748,28.705,21.471,31.237,-32.779,21.446
21.498,22.391,15.862,28.047,17.86,31.578,-25.226,24.967
20.76,21.637,15.488,29.429,17.309,32.693,-17.883,29.84
23.39,23.162,17.35,30.898,18.66,33.107,-13.461,32.04
22.554,21.596,15.334,27.32,16.301,29.098,-16.101,27.531
15.842,14.791,7.57,18.297,8.597,20.482,-24.516,18.095
7.787,7.062,-1.194,9.741,0.187,12.081,-31.912,10.264
3.943,4.451,-5.789,6.674,-3.836,8.311,-33.3,7.951
4.365,6.817,-6.626,7.48,-4.046,8.095,-29.35,9.051
3.843,7.328,-8.613,6.555,-5.683,6.644,-25.661,8.789
0.241,2.85,-13.335,2.441,-10.437,2.873,-26.969,5.651
-2.854,-1.903,-16.787,-0.97,-14.037,0.334,-31.296,2.825
-2.83,-2.62,-16.177,-1.227,-13.453,0.694,-33.041,4.007
-0.493,0.043,-13.186,0.375,-10.369,2.423,-29.613,9.529
1.515,2.383,-11.329,0.858,-8.383,3.057,-24.331,15.22
0.191,0.764,-12.838,-2.254,-9.817,0.229,-23.421,16.104
-3.567,-3.702,-16.027,-7.645,-13.162,-5.203,-27.707,12.637
-5.158,-5.798,-17.529,-11.292,-14.998,-9.131,-31.672,8.826
-3.296,-3.715,-17.771,-11.922,-15.332,-9.752,-32.522,5.957
-0.944,-0.782,-18.69,-10.804,-16.08,-8.441,-31.419,4.678
-0.344,-0.242,-19.244,-8.709,-16.701,-6.442,-28.395,6.823
-1.703,-2.387,-18.7,-6.861,-16.473,-4.937,-24.434,10.404
-3.63,-5.123,-18.258,-6.186,-16.089,-4.557,-22.459,11.437
-4.673,-6.715,-18.432,-5.668,-15.993,-4.245,-22.453,10.332
-4.156,-6.355,-18.152,-3.505,-15.518,-2.32,-20.013,10.868
-1.246,-3.252,-15.598,1.033,-13.13,1.952,-12.685,14.65
2.016,-0.306,-11.926,4.902,-9.858,5.72,-6.037,17.971
2.322,-1.381,-10.329,4.555,-8.357,5.481,-5.379,17.269
2.098,-3.372,-9.81,2.549,-7.244,3.419,-6.072,15.634
5.027,-1.915,-7.79,2.732,-4.459,3.037,-2.974,16.569
8.646,0.884,-5.659,3.823,-2.101,3.36,0.52,17.538
9.741,2.405,-4.939,4.417,-1.478,3.555,1.087,16.406
9.195,3.108,-4.638,5.706,-1.08,4.821,1.239,15.502
7.532,1.995,-5.022,6.966,-1.239,6.121,2.957,16.128
5.056,-1.133,-6.333,6.993,-2.378,6.286,5.799,17.594
4.483,-2.821,-6.759,6.778,-2.625,6.646,9.143,19.56
5.981,-2.098,-6.818,5.638,-2.525,6.704,9.874,19.877
7.191,-1.113,-7.892,2.206,-3.79,4.668,5.157,16.408
8.672,0.116,-7.998,-1.399,-4.515,1.795,-0.622,11.782
10.25,1.418,-6.878,-2.98,-3.645,-0.019,0.81,11.047
7.769,-0.13,-8.637,-4.047,-4.64,-1.363,10.163,15.063
0.748,-4.672,-14.178,-6.328,-9.084,-2.997,18.616,19.445
-4.108,-7.009,-18.085,-7.739,-12.505,-3.286,20.94,21.87
-3.18,-4.841,-17.219,-6.348,-11.762,-1.222,20.96,24.402
-0.238,-1.828,-14.291,-4.018,-8.972,1.324,22.077,27.473
3.57,1.567,-10.309,-1.283,-4.758,4.132,25.105,30.482
9.954,7.393,-5.202,2.556,0.709,7.923,30.251,33.799
14.766,11.488,-3.327,3.895,2.739,9.069,34.228,35.124
13.995,10.078,-6.177,0.598,0.102,5.526,34.307,32.516
11.971,8.07,-7.8,-2.369,-1.026,2.434,32.39,28.784
13.748,10.448,-4.754,-1.037,2.427,3.725,30.442,26.753
17.082,14.156,-1.334,1.806,5.923,6.348,29.043,25.842
16.35,13.427,-2.721,1.943,4.466,6.328,28.931,24.465
10.003,7.483,-8.646,-1.185,-1.519,3.825,29.077,21.9
1.834,0.175,-14.452,-5.499,-7.37,0.743,26.573,18.169
-3.837,-5.2,-16.25,-9.008,-9.179,-1.884,21.016,13.709
-6.272,-8.516,-14.078,-11.054,-7.002,-3.554,16.839,10.012
-8.025,-11.692,-11.067,-12.261,-4.087,-4.3,18.61,8.935
-10.639,-15.015,-9.224,-12.488,-2.387,-3.876,26.089,10.843
-12.186,-16.048,-6.713,-10.337,0.156,-1.591,34.962,14.984
-11.723,-14.467,-2.658,-6.811,4.389,1.243,39.697,19.292
-11.304,-13.117,-0.185,-4.888,6.995,2.546,38.78,20.965
-11.36,-13.095,-0.494,-4.516,6.769,2.964,37.298,20.657
-11.32,-14.138,-1.554,-4.351,5.703,3.298,38.31,20.999
-12.661,-16.851,-3.015,-5.286,4.007,2.409,38.066,21.3
-14.756,-19.308,-4.738,-6.445,1.922,1.54,35.615,20.69
-14.608,-18.167,-4.932,-4.744,1.56,3.749,36.168,21.457
-13.472,-15.245,-4.167,-1.384,2.606,7.623,40.98,24.092
-15.043,-15.531,-5.056,-1.043,2.319,8.371,43.929,25.191
-18.068,-19.085,-7.582,-4.6,0.236,4.875,40.934,22.648
-17.287,-20.156,-8.937,-7.726,-1.016,1.508,35.736,18.761
-9.495,-13.671,-5.922,-5.714,1.924,3.009,33.617,17.073
2.564,-1.673,1.318,0.961,9.024,8.47,34.498,17.846
10.462,6.542,5.947,5.27,13.641,11.181,35.232,18.004
8.008,3.935,1.624,1.534,9.691,6.789,35.623,16.022
-0.057,-4.861,-6.606,-5.807,2.077,0.099,38.215,14.421
-3.242,-9.06,-7.777,-7.439,1.214,-0.812,43.265,15.853
0.944,-5.665,-0.498,-1.607,8.324,4.818,48.251,19.691
5.844,-0.906,6.085,5.203,14.73,10.855,50.689,22.964
7.286,0.766,6.317,8.175,14.895,13.297,49.164,22.813
7.283,0.549,3.805,8.292,12.071,13.311,45.213,19.322
6.56,-0.978,2.248,7.257,10.152,12.134,43.427,15.658
2.945,-5.293,0.027,4.677,8.009,9.288,45.716,14.048
-1.201,-9.981,-2.912,2,5.331,6.645,49.347,14.014
0.482,-9.606,-1.94,2.831,6.091,7.61,52.361,14.643
6.473,-5.885,2.937,5.759,10.325,10.327,55.02,15.202
7.645,-6.716,4.816,4.987,11.803,9.259,57.025,15.05
3.417,-11.601,2.903,1.155,10.007,5.457,58.233,15.046
2.56,-12.056,4.406,0.553,11.754,5.435,58.998,15.967
6.807,-7.377,10.512,3.517,17.77,9.46,58.36,16.226
9.2,-5.276,14.738,5.321,21.483,11.863,56.529,14.905
6.748,-8.683,14.071,5.217,20.216,11.247,57.385,14.538
3.413,-12.968,11.445,5.61,17.315,11.04,62.556,17.304
3.136,-13.697,10.131,6.787,15.987,12.388,66.773,20.684
6.334,-10.533,11.015,7.913,16.817,13.57,66.23,21.199
10.791,-5.868,12.773,9.107,18.61,14.152,65.431,20.282
13.35,-2.491,12.996,9.85,19.045,14.428,67.778,20.572
13.76,-0.26,11.809,9.58,17.834,14.017,69.603,20.996
15.122,3.421,12.527,9.945,18.194,13.725,70.184,21.185
18.603,8.818,16.425,12.303,21.823,14.683,73.693,23.197
23.006,14.275,21.527,15.382,26.886,16.062,79.298,26.223
27.799,19.406,26.505,18.006,31.84,16.941,82.81,27.597
31.797,23.529,31.275,21.027,36.464,18.381,84.84,28.35
33.504,25.432,35.792,25.636,40.681,21.891,88.277,31.361
33.475,25.839,38.991,30.671,43.496,26.481,91.69,35.459
30.706,23.962,36.669,31.191,40.905,27.346,89.261,35.078
21.274,15.418,24.643,22.549,28.785,19.929,76.606,26.014
7.409,1.504,7.082,8.204,11.16,7.209,57.107,11.214
-0.359,-7.167,-4.343,-1.092,-0.477,-1.127,41.564,-0.141
3.422,-3.77,-2.795,1.254,0.746,1.067,39.577,-0.956
12.187,5.893,6.708,10.28,10.088,9.58,49.865,6.478
17.968,12.729,14.768,16.5,18.188,15.336,60.751,13.712
21.12,15.794,18.835,18.08,22.224,15.93,63.931,16.584
24.933,18.748,22.304,19.567,25.466,15.94,62.213,17.374
28.046,21.279,25.664,21.82,28.462,17.185,60.126,17.742
28.404,21.416,26.665,22.529,29.017,17.95,57.747,17.135
27.516,20.055,25.7,21.697,27.66,18.085,55.372,15.994
26.61,18.356,24.477,20.071,26.165,17.678,54.557,15.075
24.397,15.585,22.277,16.95,23.603,15.219,53.919,13.275
20.149,11.149,17.554,12.136,18.314,10.573,49.665,8.818
16.451,7.028,12.677,7.99,12.924,6.881,42.415,3.371
16.366,5.965,11.848,7.005,11.884,6.509,38.154,1.232
17.996,6.566,13.351,7.337,13.33,6.917,38.598,2.274
17.654,5.458,12.25,5.921,12.011,5.306,38.652,2.624
17.455,4.492,10.504,5.359,9.876,4.774,37.545,3.183
21.357,7.829,13.399,9.948,12.428,9.038,41.09,7.752
26.447,13.066,18.377,16.795,17.269,14.494,48.518,13.483
26.88,13.906,19.011,19.125,18.007,15.055,50.892,13.743
23.052,9.571,15.67,16.086,14.817,10.964,45.881,8.405
19.764,4.339,13.065,12.437,12.238,6.586,40.152,2.897
19.277,1.261,12.911,11.299,12.148,4.371,37.87,0.663
20.734,0.971,14.365,12.228,13.789,4.766,38.158,1.371
22.664,2.763,16.863,13.965,16.416,7.182,40.289,3.441
23.664,4.684,19.496,15.36,19.195,9.377,43.427,5.33
22.538,4.849,20.504,15.035,20.517,9.165,44.543,5.398
19.701,3.512,19.985,13.276,20.3,7.483,42.937,4.195
17.719,2.717,20.875,12.91,21.455,7.544,43.37,5.145
17.52,2.729,24.266,15.026,25.222,9.977,48.571,8.315
16.349,1.278,26.749,16.541,28.037,11.585,53.678,8.929
13.982,-0.744,26.388,15.992,27.839,11.132,54.067,6.362
15.496,1.903,27.07,17.034,28.581,12.006,52.456,6.043
22.732,10.186,32.171,22.043,33.511,16.424,53.436,10.326
30.135,17.937,38.549,27.459,39.515,21.587,57.154,15.915
32.347,20.176,40.736,28.073,41.6,22.735,60.739,18.587
29.686,17.829,37.625,22.359,38.709,17.372,61.18,15.155
25.948,14.577,32.99,13.973,34.03,8.327,57.525,6.36
24.752,13.656,30.962,9.274,31.638,2.684,52.682,-0.866
26.738,15.852,32.175,10.928,32.633,3.967,50.275,-0.96
29.148,18.737,34.42,15.217,34.811,8.309,50.388,3.35
28.78,18.953,35.01,17.239,35.369,10.702,51.19,6.561
25.558,15.986,32.703,15.961,33.244,10.299,51.652,7.096
23.519,13.832,30.051,14.611,30.898,9.876,51.602,6.771
26.254,16.687,31.025,16.903,32,12.445,51.647,7.757
30.956,22.17,34.191,21.19,35.25,16.422,51.989,9.621
31.363,23.397,33.879,21.637,35.321,16.606,51.167,9.604
27.431,19.477,29.535,17.468,31.46,12.46,48.043,6.702
26.243,17.649,27.502,15.062,29.411,9.864,44.119,2.985
31.666,22.324,32.157,18.799,33.559,12.787,42.591,1.357
39.219,28.993,40.255,25.743,41.418,18.6,45.005,3.488
42.988,31.521,45.494,30.44,46.908,22.348,48.759,7.891
42.12,29.372,45.304,30.686,46.845,21.905,48.919,10.028
39.433,26.034,41.788,28.1,43.169,18.783,43.83,7.304
37.237,23.911,38.069,25.172,39.488,15.905,37.945,2.96
35.86,22.766,35.959,23.298,37.565,15.189,36.968,2.193
35.942,22.796,36.951,23.869,38.39,17.139,41.263,6.38
38.351,24.759,41.23,27.218,42.368,20.568,46.353,12.328
40.512,26.382,45.215,29.938,46.583,22.261,48.682,15.449
39.859,25.53,45.673,29.208,47.636,20.719,48.392,14.386
39.366,25.076,44.561,27.643,46.697,19.077,47.145,12.334
41.718,27.647,45.012,28.265,46.7,20.245,46.177,12.463
43.99,30.802,46.951,29.848,48.175,22.578,46.391,14.23
43.762,31.822,49.452,30.558,50.729,23.499,47.55,15.461
42.664,30.905,51.948,30.155,53.595,22.542,47.334,15.149
41.94,29.029,52.423,28.371,54.389,20.095,43.976,13.301
41.912,28.102,50.683,26.607,53.065,18.281,40.571,11.519
43.086,29.237,50.086,27.195,53.166,19.44,41.409,12.317
42.65,28.387,50.198,27.145,53.903,20.02,43.559,14.122
37.828,22.441,47.408,22.156,51.166,15.097,41.875,12.931
32.537,16.478,43.974,16.179,47.32,8.404,38.811,10.088
31.277,15.416,43.949,15.134,47.246,6.476,38.559,9.605
32.093,16.505,45.337,17.186,49.336,8.151,39.36,10.825
31.866,15.963,45.106,17.739,49.786,8.568,38.062,10.81
32,15.271,44.791,17.196,49.641,7.889,35.523,9.933
34.916,17.679,46.54,19.193,51.767,10.243,35.071,11.076
38.328,21.793,48.788,23.999,55.076,15.915,36.973,14.467
37.952,23.036,49.29,27.869,56.625,20.5,37.831,17.041
34.869,21.423,48.542,29.46,56.471,22.564,37.448,18.028
33.622,20.847,47.415,30.432,56.133,24.098,38.694,19.002
35.11,21.888,46.035,30.668,56.045,24.599,40.229,18.927
37.587,23.308,45.633,30.372,56.776,23.62,38.934,16.948
40.25,26.022,46.176,31.537,57.761,23.54,35.672,15.181
42.34,29.981,45.239,33.103,56.6,24.469,32.342,13.848
43.228,33.159,43.124,32.725,53.896,24.238,29.378,11.636
43.574,35.092,43.036,31.864,53.301,23.211,27.594,10.282
44.355,36.87,45.664,32.685,55.656,23.136,27.866,11.708
45.52,38.597,49.144,34.388,58.78,24.102,29.323,14.255
45.614,39.084,51.739,35.206,60.853,24.854,30.091,15.4
43.293,37.325,51.755,34.192,60.591,23.883,29.563,14.716
39.444,33.815,48.647,31.36,57.627,20.858,28.487,13.28
36.309,30.624,44.975,28.303,54.126,17.803,27.823,12.574
34.093,28.61,43.111,26.4,52.066,16.263,27.788,12.723
30.853,25.868,41.521,24.598,50.073,14.819,27.213,11.876
26.708,22.065,38.743,22.603,47.156,13.222,25.57,10.171
23.658,19.552,36.426,22.442,44.974,13.703,23.952,10.045
21.132,18.193,34.906,23.617,43.439,15.329,22.529,10.594
17.568,16.016,32.068,23.003,40.453,14.694,20.585,8.979
14.495,13.957,28.019,20.747,36.396,12.377,18.415,6.475
14.15,13.971,25.526,19.866,33.771,11.601,16.485,5.998
15.63,15.188,25.849,20.688,33.513,12.463,15.176,6.927
16.131,15.12,26.485,20.75,33.606,12.526,15.464,7.313
14.299,12.698,23.864,18.768,31.119,10.793,16.753,7.037
11.884,10.01,19.142,16.151,26.803,8.782,16.626,6.662
11.541,10.159,17.302,15.138,24.82,8.572,14.709,6.455
12.92,12.494,19.161,15.581,26.071,9.719,12.716,6.188
13.698,13.799,20.788,15.026,27.209,9.481,10.934,5.041
13.098,13.16,20.115,12.447,26.288,6.832,8.471,2.77
11.999,11.876,18.479,9.457,24.306,3.619,5.945,0.407
11.34,11.031,17.079,7.667,22.258,1.465,5.249,-0.788
10.646,10.37,15.297,6.576,19.804,-0.252,6.216,-1.041
9.129,9.077,13.025,4.909,17.143,-2.499,6.287,-1.722
8.249,7.865,11.834,3.178,15.648,-4.084,4.765,-2.874
8.982,7.888,11.71,2.806,15.172,-3.446,3.296,-3.302
9.037,8.436,10.426,3.66,13.888,-1.387,2.184,-2.905
6.809,8.324,7.491,4.529,11.346,0.557,0.249,-2.774
3.8,7.569,4.75,4.689,8.703,1.989,-2.804,-3.778
1.499,6.731,3.197,4.069,6.678,2.749,-5.933,-5.703
-0.426,6.071,2.254,3.334,5.274,2.877,-7.485,-6.983
-2.556,5.705,1.861,3.849,4.946,3.478,-6.63,-6.053
-4.184,6.058,2.801,5.969,6.173,5.602,-5.188,-3.786
-4.469,7.172,4.49,7.824,7.753,8.201,-6.011,-2.993
-4.289,7.971,4.761,7.461,7.722,8.79,-8.96,-4.51
-4.749,7.874,3.005,5.416,6.155,6.924,-11.38,-6.181
-5.183,7.856,1.065,3.717,4.74,5.018,-12.576,-6.786
-5.263,8.105,-0.112,3.184,3.848,4.377,-14.298,-7.844
-6.753,6.917,-1.798,2.793,2.29,3.437,-16.936,-10.292
-10.182,3.922,-4.444,1.524,-0.114,1.285,-19.076,-12.899
-12.451,2.042,-6.181,0.585,-1.457,-0.127,-19.866,-14.428
-11.496,3.134,-6.246,1.575,-0.904,0.714,-19.704,-14.709
-10.676,3.712,-7.731,2.063,-1.646,1.22,-20.857,-14.985
-13.125,0.485,-12.821,-1.144,-6.025,-1.474,-25.274,-16.927
-15.642,-3.084,-17.623,-5.08,-10.043,-4.694,-29.389,-19.021
-15.017,-2.998,-18.037,-5.017,-9.715,-4.312,-27.252,-17.574
-13.898,-1.371,-16.604,-2.103,-7.788,-1.281,-20.198,-12.939
-14.468,-0.906,-17.208,-0.166,-7.912,0.909,-16.221,-9.958
-14.477,-0.538,-18.949,-0.444,-9.17,0.698,-19.244,-11.469
-12.316,1.182,-19.348,-1.999,-9.514,-1.191,-24.802,-14.899
-9.093,4.387,-17.82,-2.733,-8.367,-2.106,-26.842,-15.824
-5.056,9.403,-14.198,-0.611,-5.234,0.49,-24.165,-12.858
1.29,16.693,-8.199,4.224,0.38,6.07,-18.48,-7.518
9.544,24.769,-1.101,10.001,7.404,12.292,-10.726,-0.922
16.559,30.559,5.026,15.663,13.572,18.18,-2.214,6.564
20.692,33.438,9.727,20.877,17.913,23.642,4.151,13.202
21.711,34.245,11.236,23.005,18.861,25.799,4.458,14.869
16.721,30.373,3.831,17.219,11.316,19.789,-4.898,7.84
4.66,20.109,-13.251,4.144,-5.615,6.873,-21.885,-5.476
-7.765,9.1,-29.837,-7.62,-22.329,-4.161,-37.306,-17.174
-13.135,3.747,-36.598,-12.099,-29.477,-7.992,-44.384,-22.488
-12.612,3.011,-35.308,-12.385,-28.466,-8.017,-45.026,-23.548
-11.701,3.4,-31.512,-12.406,-25.091,-7.854,-43.182,-23.392
-11.587,5.206,-26.752,-10.576,-21.198,-5.89,-38.594,-21.093
-11.851,7.449,-23.915,-7.208,-18.992,-2.819,-32.203,-16.917
-14.78,5.761,-27.683,-8.113,-22.631,-4.468,-30.679,-16.254
-19.6,0.804,-34.393,-13.641,-29.214,-10.476,-36.355,-20.798
-21.596,-1.733,-35.885,-16.513,-31.18,-13.115,-41.181,-24.118
-19.672,-0.122,-32.529,-14.238,-28.367,-10.56,-39.476,-22.24
-16.686,3.208,-29.832,-11.271,-25.955,-7.94,-36.247,-18.985
-15.197,5.571,-29.35,-10.781,-25.906,-7.887,-37.649,-18.722
-15.991,4.75,-29.858,-12.231,-27.083,-8.972,-41.829,-20.781
-17.015,1.929,-29.943,-13.351,-27.736,-9.134,-42.498,-21.269
-15.996,1.279,-28.487,-12.635,-26.71,-7.794,-38.161,-18.448
-14.375,3.222,-26.383,-11.252,-25.095,-6.271,-33.901,-15.06
-14.313,3.989,-25.606,-10.923,-24.776,-5.732,-33.474,-13.96
-15.102,2.04,-26.557,-11.572,-25.889,-6.277,-34.893,-14.533
-15.257,-0.4,-28.05,-12.518,-27.317,-7.881,-35.236,-15.238
-14.163,-1.023,-28.403,-13.066,-27.753,-9.375,-34.363,-15.69
-12.567,-0.4,-27.416,-12.742,-27.11,-9.139,-33.8,-15.982
-13.388,-1.641,-28.007,-13.154,-28.045,-8.79,-35.183,-16.895
-17.859,-5.742,-32.428,-16.194,-32.654,-11.284,-37.992,-18.879
-21.504,-8.717,-37.161,-19.584,-37.604,-14.893,-39.101,-20.125
-19.589,-7.122,-36.749,-19.395,-37.558,-15.183,-37.095,-18.878
-14.363,-3.5,-32.135,-16.42,-33.155,-12.341,-34.824,-16.889
-11.3,-1.784,-29.029,-14.394,-29.891,-10.394,-35.666,-17.029
-11.434,-1.681,-29.034,-14.251,-29.897,-10.861,-39.125,-19.058
-12.698,-2.115,-29.256,-15.023,-30.805,-12.408,-41.807,-20.691
-14.484,-3.959,-28.219,-16.017,-30.577,-13.611,-40.855,-20.243
-16.353,-5.963,-26.326,-15.434,-28.752,-12.913,-35.598,-16.908
-17.14,-5.647,-24.561,-12.51,-26.53,-10.11,-28.929,-11.959
-17.344,-4.456,-25.028,-10.435,-26.803,-8.018,-25.99,-9.101
-18.347,-5.053,-28.457,-11.726,-30.352,-8.535,-28.308,-10.218
-19.544,-6.035,-32.061,-13.79,-34.017,-9.354,-31.995,-12.368
-18.668,-4.294,-32.614,-13.142,-34.613,-7.73,-33.124,-11.708
-15.058,-0.316,-30.214,-10.447,-32.318,-4.581,-31.567,-8.379
-11.425,2.127,-27.965,-8.874,-30.073,-2.937,-29.516,-5.427
-10.204,1.713,-28.08,-9.458,-30.116,-3.723,-28.498,-4.416
-10.085,1.214,-29.363,-10.432,-31.414,-5.007,-28.786,-4.921
-10.404,0.947,-30.59,-11.705,-32.887,-6.358,-30.799,-7.343
-13.822,-2.568,-33.36,-15.84,-36.311,-9.92,-34.177,-11.47
-19.971,-8.638,-37.916,-22.324,-41.887,-15.163,-36.806,-14.269
-24.724,-12.62,-41.626,-26.98,-46.649,-18.596,-38.068,-14.29
-27.423,-14.113,-44.141,-28.355,-49.895,-19.447,-39.357,-13.966
-29.785,-15.402,-47.236,-28.377,-53.231,-19.613,-40.168,-14.408
-30.341,-15.177,-49.948,-27.625,-55.816,-19.325,-39.364,-13.848
-26.985,-11.127,-49.648,-24.881,-55.29,-17.147,-38.009,-11.56
-21.612,-5.393,-46.66,-20.69,-51.94,-13.357,-36.925,-8.962
-19.113,-3.34,-44.926,-18.764,-49.512,-11.576,-36.809,-8.525
-22.241,-7.332,-46.917,-21.713,-50.959,-14.828,-39.507,-11.677
-27.962,-13.687,-49.665,-26.728,-54.02,-20.496,-43.746,-16.036
-31.605,-17.596,-49.797,-29.486,-54.962,-23.681,-45.64,-18.026
-33.636,-19.106,-49.366,-30.286,-55.018,-24.254,-45.623,-18.309
-36.893,-20.811,-51.397,-31.771,-57.029,-25.094,-47.188,-19.846
-40.202,-22.495,-54.264,-33.721,-59.557,-26.171,-50.286,-22.487
-41.423,-22.78,-55.583,-34.651,-60.451,-26.074,-52.627,-24.44
-41.418,-22.33,-55.906,-34.696,-60.544,-25.396,-53.767,-25.991
-41.253,-22.424,-56.231,-34.745,-61.055,-25.548,-54.925,-28.765
-40.836,-23.142,-56.889,-35.684,-62.406,-27.285,-57.472,-33.127
-39.239,-22.326,-57.198,-36.673,-63.647,-29.15,-60.008,-36.395
-35.208,-17.63,-55.112,-34.838,-62.098,-27.976,-58.535,-35.512
-29.556,-10.68,-50.185,-29.645,-56.932,-23.648,-52.188,-31.395
-24.525,-5.263,-44.863,-24.413,-51.084,-19.831,-45.249,-27.358
-20.923,-2.562,-41.68,-22.317,-47.956,-18.978,-42.828,-25.575
-17.645,-0.658,-40.055,-22.568,-46.876,-19.289,-44.715,-25.506
-13.82,1.652,-36.877,-22.018,-43.85,-17.812,-44.55,-24.113
-11.773,1.82,-32.63,-21.282,-39.268,-16.151,-39.594,-20.671
-14.244,-1.994,-32.109,-23.689,-38.408,-17.997,-35.426,-18.357
-18.446,-6.426,-35.192,-27.578,-41.209,-21.477,-35.291,-17.923
-20.4,-8.96,-36.681,-29.258,-42.621,-22.88,-35.984,-17.506
-22.531,-12.689,-36.873,-31.071,-43.201,-24.64,-36.824,-18.447
-28.852,-20.013,-41.089,-37.044,-47.925,-30.623,-40.958,-23.16
-37.809,-28.482,-50.278,-45.815,-57.32,-39.201,-48.23,-30.32
-44.728,-34.472,-58.931,-52.874,-66.055,-45.819,-53.804,-35.876
-47.312,-36.51,-61.981,-55.96,-69.265,-48.194,-54.398,-37.033
-47.545,-36.116,-61.684,-57.031,-68.967,-48.149,-53.63,-35.733
-48.206,-35.435,-62.687,-58.262,-69.859,-48.483,-56.441,-35.945
-48.767,-34.135,-62.888,-57.702,-70.361,-48.463,-59.46,-36.948
-48.42,-32.236,-58.882,-53.546,-66.859,-46.015,-56.142,-35.096
-49.853,-33.029,-55.076,-49.521,-62.769,-43.283,-49.186,-31.781
-54.529,-37.696,-56.302,-49.649,-62.816,-43.881,-45.943,-32.124
-58.213,-41.267,-58.014,-50.846,-63.514,-45.307,-45.613,-35.438
-57.389,-40.204,-54.931,-48.287,-60.275,-42.461,-44.655,-35.821
-56.086,-38.965,-51.941,-44.726,-57.679,-37.605,-46.43,-33.108
-58.559,-41.686,-54.558,-44.987,-60.783,-36.326,-51.675,-32.291
-61.16,-44.292,-58.684,-46.746,-65.339,-37.41,-53.486,-33.33
-59.568,-41.971,-59.162,-45.609,-66.068,-36.202,-49.623,-32.234
-55.448,-36.288,-56.372,-42.029,-63.316,-32.201,-44.708,-28.404
-51.687,-31.234,-52.098,-39.192,-59.193,-28.767,-41.989,-24.654
-48.864,-28.396,-48.251,-39.131,-56.022,-28.885,-42.45,-23.471
-46.722,-27.032,-46.899,-41.229,-55.667,-31.969,-45.517,-24.828
-45.41,-26.514,-47.885,-43.882,-57.232,-35.502,-48.341,-26.769
-45.086,-26.842,-48.816,-46.583,-58.099,-38.499,-48.026,-27.894
-44.592,-26.686,-47.144,-48.334,-56.206,-40.497,-42.771,-27.83
-42.79,-24.642,-42.404,-47.799,-51.309,-40.997,-33.383,-26.868
-41.73,-22.701,-38.077,-46.913,-46.663,-41.727,-26.848,-26.557
-44.646,-24.416,-39.744,-49.571,-47.879,-45.022,-32.576,-28.291
-50.321,-29.291,-48.224,-55.595,-56.085,-49.981,-49.289,-31.546
-53.573,-32.589,-56.409,-59.772,-64.055,-53.085,-61.825,-34.495
-51.938,-31.389,-57.656,-58.274,-64.854,-52.12,-60.246,-35.717
-47.37,-26.871,-53.258,-52.135,-60.124,-47.518,-51.755,-34.743
-42.302,-21.599,-47.333,-43.915,-54.243,-40.584,-44.757,-31.059
-38.076,-17.93,-41.023,-35.673,-47.803,-32.765,-36.758,-24.823
-35.056,-16.464,-35.218,-29.433,-41.494,-25.966,-25.686,-18.457
-33.124,-16.045,-33.059,-26.324,-39.043,-21.671,-18.667,-14.661
-32.446,-16.283,-34.906,-24.818,-41.037,-18.987,-19.342,-12.848
-32.564,-17.441,-35.086,-22.068,-41.477,-15.597,-18.6,-10.425
-32.724,-19.003,-30.146,-18.627,-36.562,-12.081,-10.559,-7.825
-33.257,-20.177,-24.926,-17.921,-30.985,-11.321,-3.329,-7.214
-34.509,-20.971,-24.395,-20.435,-29.89,-13.465,-2.842,-6.554
-36.244,-22.69,-26.862,-23.776,-31.772,-16.293,-3.109,-2.682
-38.531,-26.374,-28.944,-27.183,-33.178,-19.113,0.528,1.337
-40.73,-30.24,-29.738,-30.853,-33.331,-22.084,4.356,1.003
-41.02,-31.24,-29.191,-33.209,-32.487,-23.85,5.156,-0.895
-39.228,-29.513,-27.691,-32.932,-30.879,-23.31,4.976,0.675
-36.965,-27.267,-25.194,-30.715,-28.102,-21.269,8.275,4.596
-33.674,-23.589,-19.35,-26.58,-21.772,-18.115,18.337,7.692
-28.135,-16.876,-10.342,-20.321,-12.17,-13.595,30.728,10.458
-23.864,-11.375,-5.311,-15.665,-6.621,-10.26,33.394,12.996
-25.279,-12.575,-9.536,-17.304,-10.746,-12.047,22.64,11.945
-29.055,-17.347,-16.305,-22.235,-17.865,-16.859,11.627,7.329
-28.133,-17.727,-15.169,-21.899,-17.143,-17.03,12.502,5.701
-23.344,-13.204,-7.751,-15.332,-9.952,-11.209,20.461,9.774
-21.021,-9.893,-3.347,-10.099,-5.655,-6.514,26.159,13.866
-22.037,-9.825,-3.864,-9.596,-6.364,-6.18,28.931,14.364
-23.189,-10.474,-5.822,-10.499,-8.752,-6.297,29.898,14.401
-23.916,-11.157,-8.243,-10.592,-11.556,-4.673,28.225,16.326
-25.041,-12.964,-10.552,-10.796,-13.733,-3.575,25.493,17.859
-25.776,-14.974,-10.484,-10.707,-13.059,-3.571,24.696,17.633
-24.068,-13.59,-5.708,-6.781,-7.686,-0.415,28.147,18.91
-19.067,-7.088,3.349,1.837,1.448,8.006,35.534,23.848
-13.816,-0.413,11.066,8.398,8.519,14.972,41.865,27.83
-11.855,0.539,12.76,6.982,9.256,13.589,43.646,25.408
-10.708,-1.062,13.097,3.022,9.058,9.101,45.628,20.141
-5.998,1.685,18.456,5.024,14.555,10.738,52.47,19.976
-0.346,6.593,24.17,10.137,20.569,15.909,56.794,24.085
1.499,7.341,22.492,10.588,18.835,16.559,49.344,26.254
2.372,6.479,18.396,8.575,14.342,14.517,39.113,27.373
7.435,10.098,21.873,10.826,17.234,16.14,42.262,31.154
15.71,16.962,32.38,16.724,27.147,20.826,58.242,36.003
24.74,23.685,44.331,22.865,38.828,25.351,76.013,40.249
34.026,30.239,54.346,28.103,48.921,28.926,86.379,44.597
39.986,34.567,58.1,30.254,52.674,30.459,85.344,47.726
37.232,31.709,52.801,26.969,47.183,28.239,77.928,46.508
25.335,20.53,40.034,18.14,34.447,21.176,67.942,38.449
10.635,6.857,24.157,6.353,19.009,10.595,52.775,24.993
3.28,0.43,13.507,-1.204,8.794,3.233,39.038,14.334
9.092,6.767,15.752,2.475,11.026,6.25,39.124,14.22
21.899,19.78,27.176,13.861,22.156,17.002,49.097,21.953
30.315,27.922,35.906,22.043,30.857,25.321,54.578,28.52
31.205,28.101,37.165,23.013,32.352,26.414,53.015,29.729
29.859,26.448,36.314,22.192,31.439,24.65,52.184,28.16
30.978,27.803,38.493,24.796,33.332,25.744,56.186,28.254
34.867,31.502,43.42,30.474,38.389,30.476,62.606,31.793
39.035,35.187,48.592,35.787,43.916,35.647,66.976,36.134
40.76,37.404,52.213,38.211,47.374,38.396,66.506,37.828
38.232,36.346,51.668,36.489,46.275,37.333,58.384,35.759
31.337,30.783,44.582,30.299,38.998,31.871,41.124,29.826
23.783,24.026,35.361,23.257,30.017,24.86,23.069,22.715
21.033,21.629,32.35,21.18,27.111,22.017,16.084,20.324
24.531,24.556,37.894,25.155,32.56,25.54,21.617,24.606
30.015,28.293,46.963,30.482,41.778,31.168,32.053,30.227
31.5,27.866,51.908,32.075,47.154,32.829,37.82,31.474
28.477,23.676,49.791,30.265,45.309,30.261,34.526,29.657
26.528,21.04,46.056,30.025,41.418,28.989,27.295,29.667
27.504,21.542,46.112,32.794,41.172,31.238,23.863,31.329
26.552,20.561,47.482,34.333,42.524,33.245,25.533,30.714
21.828,16.199,45.3,32.417,40.622,32.543,27.017,27.619
17.92,12.694,40.838,29.709,36.474,30.776,24.708,25.57
17.702,13.163,39.45,28.56,35.295,29.658,23.351,26.064
19.125,16.06,42.948,28.882,39.03,29.551,29.832,26.772
19.973,18.41,47.09,29.333,43.419,29.921,40.009,25.233
18.439,17.178,43.995,26.551,40.039,28.12,37.984,21.812
13.787,12.024,32.281,19.538,27.372,22.903,18.955,18.216
11,8.947,23.635,14.979,17.995,19.264,2.199,15.57
14.705,12.194,25.687,17.515,20,21.155,0.808,14.39
20.126,16.45,30.303,21.454,24.728,24.467,3.621,14.684
21.121,16.583,31.019,21.855,25.57,25.217,3.707,16.204
19.463,15.413,31.316,21.123,26.284,24.705,6.965,17.595
18.661,15.858,31.674,20.625,27.06,23.468,10.108,16.294
18.253,16.252,28.62,19.068,24.179,20.87,5.709,12.778
17.971,16.013,25.324,18.554,21.241,19.649,1.132,11.772
20.081,18.002,28.649,22.695,25.334,23.139,8.328,16.105
25.24,23.152,37.729,30.024,35.135,29.597,23.56,22.819
30.256,27.558,44.78,34.868,42.376,33.855,31.83,26.546
32.212,28.065,45.869,34.824,43.243,33.813,27.845,25.39
31.636,26.443,44.103,32.867,41.36,31.578,21.701,22.794
30.196,25.289,43.212,31.932,40.636,29.59,23.314,22.404
28.646,24.759,43.466,31.908,41.077,28.95,30.422,23.052
26.956,23.973,42.636,30.682,40.091,28.712,32.904,21.607
25.135,22.758,39.161,26.87,35.981,26.892,25.866,18.632
24.672,22.557,35.402,22.674,31.383,24.1,16.749,17.101
27.12,24.603,34.514,21.02,29.761,22.399,13.924,16.47
30.805,27.274,34.886,21.423,29.586,22.041,13.807,14.637
32.336,27.968,33.846,22.53,28.407,22.834,10.703,14.121
31.286,26.754,33.192,24.585,28.211,24.873,8.604,17.569
29.348,25.071,33.926,26.237,29.505,26.289,10.637,20.789
25.957,22.172,32.02,23.945,27.5,24.026,11.128,18.304
20.517,17.34,26.122,17.702,20.946,18.316,6.614,11.577
16.313,13.656,21.395,12.499,15.757,13.55,1.007,6.212
15.772,13.909,20.616,11.442,14.991,12.93,-2.826,5.426
17.145,16.593,21.106,13.146,15.603,15.484,-5.572,9.717
20.455,20.817,23.21,16.788,17.516,19.455,-6.125,17.483
27.121,27.424,29.147,21.847,22.949,23.59,-3.16,23.803
32.466,32.761,34.12,24.45,27.524,25.125,0.158,24.461
30.769,31.914,32.257,22.129,25.575,22.144,0.091,20.921
24.863,27.187,27.037,18.426,20.248,17.089,-2.137,17.781
21.392,24.907,25.815,17.961,18.676,14.736,-2.303,17.959
21.841,26.783,29.554,20.76,21.946,16.868,0.485,20.867
22.645,28.719,32.971,22.897,24.827,19.749,2.178,23.26
21.438,27.307,32.431,22.002,23.775,19.702,0.809,22.99
20.252,24.427,30.475,20.505,21.612,18.862,0.454,21.384
20.981,22.852,30.776,20.903,22.081,20.029,4.146,20.386
22.486,22.085,33.108,22.059,24.539,21.572,9.146,20.431
24.117,21.426,35.949,23.032,27.002,22.163,12.472,22.185
26.335,21.729,38.793,25.061,29.179,23.697,14.558,25.819
28.431,23.11,40.996,28.604,31.013,27.403,15.305,28.715
28.912,24.084,41.494,31.913,31.5,31.629,12.45,27.862
27.028,23.036,39.632,32.85,29.775,33.839,6.448,24.155
24.202,20.345,36.63,31.392,27.114,33.168,2.156,21.697
23.541,18.656,35.481,29.963,26.396,31.358,2.733,22.469
26.41,20.02,37.504,31.114,28.748,31.352,5.777,24.316
30.359,22.925,40.6,34.493,32.384,33.611,7.589,25.025
32.087,23.937,42.341,37.015,35.036,35.171,7.853,25.167
31.712,22.49,42.469,37.425,35.944,34.575,8.579,25.861
31.063,20.64,41.469,37.141,35.33,33.456,10.126,26.244
29.937,19.188,39.775,36.177,33.763,32.141,9.707,24.782
28.16,18.134,38.971,34.09,32.868,30.049,5.438,22.336
27.639,18.22,40.487,32.847,34.419,28.809,0.313,21.848
28.986,19.253,43.07,33.464,37.578,29.15,-1.57,23.854
30.159,20.042,44.338,33.602,39.566,28.593,-0.48,24.839
30.163,20.537,43.988,31.469,39.576,25.685,0.476,22.487
30.031,21.258,43.334,28.332,39.267,22.187,-0.002,19.069
29.903,21.57,43.075,26.073,39.82,20.082,-0.741,17.345
28.998,20.75,42.972,24.984,40.688,19.593,-1.164,16.991
27.96,19.602,42.456,24.299,40.71,19.914,-2.308,16.523
28.829,20.072,41.471,24.067,39.962,20.825,-4.33,16.027
33.098,23.672,41.673,25.975,40.605,23.648,-5.209,17.149
39.43,29.473,44.693,30.868,44.214,29.165,-3.385,20.697
43.599,33.979,48.383,35.892,48.207,34.664,-1.008,24.376
43.061,34.828,48.612,37.178,48.443,36.211,-1.872,24.84
40.26,33.619,45.187,35.235,45.181,34.09,-6.146,22.211
38.9,33.338,41.938,34.128,42.334,32.616,-10.075,19.865
39.407,34.635,41.405,35.744,42.018,34.272,-10.416,20.058
40.251,36.169,42.816,38.284,43.511,37.214,-7.838,21.972
41.137,37.143,44.593,40.113,45.753,39.29,-5.496,23.966
42.678,37.731,46.537,41.787,48.496,41.063,-4.186,25.983
44.328,37.528,48.774,43.565,51.409,42.957,-2.188,28.364
44.781,35.918,50.28,44.295,53.366,43.438,0.593,30.372
44.638,34.302,51.057,44.321,54.421,42.547,3.083,31.893
45.96,35.032,53.107,45.642,56.481,42.793,5.165,33.463
47.839,37.187,55.991,47.745,59.306,44.247,6.315,34.143
46.856,37.082,56.109,47.517,59.76,43.353,5.618,32.812
43.578,34.415,53.067,44.488,57.375,39.173,3.697,30.334
42.092,32.691,50.725,41.865,55.47,35.88,2.042,28.221
42.683,32.292,50.787,41.124,55.644,35.66,1.137,26.901
42.836,30.964,51.25,40.413,56.314,35.641,0.81,26.474
43.475,30.434,50.724,39.262,56.311,34.655,1.18,27.15
46.196,32.984,49.712,39.167,55.855,34.84,1.539,27.737
48.074,34.729,48.485,39.431,54.892,35.869,0.468,26.366
45.953,31.338,46.649,38.01,53.143,35.19,-1.212,23.878
42.276,26.338,45.164,35.943,51.857,33.268,-0.861,23.216
40.902,25.337,45.485,35.545,52.442,32.594,1.31,24.495
39.508,25.193,44.86,34.558,51.954,31.662,1.366,23.832
33.526,19.475,38.837,29.105,46.044,26.692,-2.968,18.972
25.531,11.076,29.301,21.255,36.729,19.301,-9.572,12.853
20.744,6.272,21.541,15.038,29.099,13.838,-16.162,8.435
17.486,3.07,16.549,9.757,23.95,9.846,-21.879,4.709
12.185,-2.338,12.498,4.036,19.737,4.956,-25.481,0.238
7.453,-6.777,8.807,-0.164,16.21,0.51,-27.264,-4.123
6.134,-7.057,5.601,-1.215,13.209,-0.974,-29.275,-6.922
3.807,-7.736,1.754,-1.611,9.183,-1.078,-32.196,-8.531
-3.519,-13.612,-3.55,-4.599,3.451,-3.488,-35.347,-10.602
-10.872,-20.63,-8.303,-8.553,-1.523,-7.736,-38.085,-13.279
-12.471,-22.422,-10.433,-9.995,-3.548,-10.577,-39.744,-15.401
-10.575,-19.957,-10.669,-9.588,-3.703,-11.635,-40.03,-16.879
-9.621,-18.355,-10.342,-9.93,-3.494,-12.58,-39.667,-18.259
-10.072,-20.14,-10.248,-11.695,-3.461,-14.237,-39.956,-19.627
-11.339,-24.635,-11.401,-14.591,-4.661,-16.933,-41.651,-21.426
-13.043,-28.863,-13.212,-17.454,-6.738,-19.67,-43.471,-23.523
-13.607,-29.968,-13.296,-18.184,-7.026,-20.233,-43.129,-24.301
-12.843,-29.422,-11.447,-16.905,-5.064,-18.85,-41.25,-23.583
-13.083,-30.881,-10.531,-16.087,-4.081,-18.027,-41.159,-23.597
-15.385,-34.248,-12.421,-16.87,-6.225,-18.772,-44.078,-25.532
-17.434,-35.863,-15.22,-17.856,-9.286,-19.79,-47.522,-27.709
-16.369,-33.648,-15.242,-17.047,-9.403,-19.28,-48.451,-27.956
-12.436,-29.907,-11.435,-14.376,-5.878,-17.263,-45.713,-26.138
-7.91,-27.508,-6.211,-11.391,-1.195,-15.191,-39.701,-22.99
-3.411,-25.248,-1.605,-8.526,3.093,-12.864,-32.276,-18.687
1.701,-20.916,2.714,-5.147,7.462,-9.363,-25.783,-13.746
5.648,-16.759,6.286,-2.195,11.218,-6.616,-20.862,-9.378
4.105,-17.514,5.797,-2.342,11.051,-7.76,-17.699,-6.975
-4.789,-24.133,-1.078,-7.039,4.526,-12.97,-18.439,-7.974
-19.012,-34.415,-13.657,-16.068,-8.094,-21.055,-26.552,-14.109
-35.529,-47.16,-29.561,-28.147,-24.277,-31.623,-41.973,-25.191
-48.945,-58.864,-42.91,-38.392,-37.442,-41.137,-56.79,-35.833
-52.979,-62.734,-47.281,-40.79,-41.143,-43.712,-62.494,-39.937
-47.579,-56.874,-43.069,-35.268,-36.608,-38.66,-59.976,-37.622
-38.736,-47.298,-35.746,-27.307,-29.685,-31.049,-55.233,-33.04
-32.016,-41.02,-29.699,-21.867,-24.195,-25.357,-50.79,-29.029
-28.864,-39.263,-26.786,-19.929,-21.559,-22.216,-46.98,-26.407
-27.112,-38.222,-26.861,-19.834,-21.798,-20.619,-45.864,-25.491
-24.561,-35.184,-28.046,-20.5,-23.186,-20.361,-48.557,-26.192
-21.128,-30.708,-27.79,-21.213,-22.953,-20.553,-51.369,-26.645
-17.173,-25.357,-24.725,-20.088,-19.437,-19.05,-49.303,-24.247
-12.719,-18.851,-19.711,-16.176,-13.808,-15.76,-43.019,-19.328
-9.529,-13.357,-15.952,-12.351,-9.961,-13.913,-38.902,-15.938
-10.064,-12.841,-16.561,-12.801,-10.925,-16.147,-40.407,-17.357
-12.265,-16.323,-19.131,-16.298,-13.705,-20.031,-42.397,-21.139
-11.03,-17.651,-17.899,-17.093,-12.457,-20.809,-38.872,-21.846
-6.28,-14.606,-13.194,-14.2,-7.763,-18.487,-32.252,-18.904
-2.874,-11.406,-10.641,-12.359,-5.402,-17.125,-29.013,-16.861
-3.095,-11.469,-11.942,-13.446,-6.976,-18.199,-30.546,-17.955
-4.789,-13.335,-13.546,-14.219,-8.738,-19.176,-32.775,-19.208
-5.834,-14.077,-12.814,-12.688,-8.154,-18.042,-32.379,-17.771
-5.93,-13.027,-10.445,-10.376,-6,-15.625,-29.978,-14.804
-3.974,-10.644,-7.048,-7.549,-2.547,-12.526,-27.022,-11.858
1.578,-6.76,-1.592,-2.56,3.247,-7.836,-23.375,-8.178
8.644,-2.188,5.375,3.312,10.34,-2.671,-19.372,-3.887
12.247,0.154,10.339,5.932,15.251,-0.823,-17.104,-1.638
10.582,-1.8,10.802,3.912,15.876,-3.637,-17.849,-3.076
7.423,-5.642,8.733,0.687,13.972,-7.422,-19.712,-5.973
7.335,-6.673,7.934,-0.035,13.004,-8.443,-20.06,-6.972
10.179,-4.327,8.875,1.057,13.626,-7.777,-19.437,-6.166
12.013,-2.821,8.785,0.849,13.391,-8.229,-20.186,-6.078
11.039,-4.577,7.027,-1.002,11.729,-9.35,-22.176,-6.915
9.948,-6.77,6.526,-2.108,11.274,-9.108,-23.057,-6.455
11.654,-5.34,9.157,-0.939,13.646,-7.152,-21.273,-3.53
15.961,0.146,13.764,2.715,17.953,-3.565,-16.647,1.169
21.103,6.34,18.244,8,22.475,1.672,-10.652,6.005
25.477,10.059,20.916,12.41,25.398,6.865,-6.416,9.086
27.337,10.895,20.942,13.759,25.475,9.536,-5.834,9.286
25.118,9.356,18.351,12.178,22.77,8.782,-8.03,6.968
19.958,5.928,14.378,9.711,18.901,6.143,-10.354,4.485
16.184,2.904,11.84,9.05,16.564,4.651,-9.686,4.706
15.183,1.635,11.486,10.053,16.054,4.869,-6.273,6.792
12.583,-0.743,9.813,8.925,13.999,3.481,-4.539,6.501
7.44,-5.125,5.901,5.051,9.862,-0.455,-6.115,2.828
5.766,-6.476,4.031,3.016,7.874,-2.982,-7.655,-0.418
9.78,-2.06,5.538,4.814,9.151,-1.925,-7.404,-0.682
14.303,3.62,6.913,7.147,10.072,0.033,-7.047,0.425
15.235,5.233,6.096,6.552,8.788,-0.452,-7.621,0.099
13.481,2.94,3.92,2.725,6.557,-3.737,-8.622,-2.416
11.693,0.919,1.814,-1.56,4.673,-7.025,-9.428,-5.128
10.889,0.87,1.123,-3.596,3.798,-8.1,-9.432,-6.154
9.565,-0.545,1.757,-4.491,3.766,-8.585,-8.874,-6.863
5.899,-5.867,1.203,-6.572,2.87,-10.353,-9.146,-9.163
0.485,-12.476,-2.381,-8.951,-0.312,-11.865,-10.59,-11.71
-4.53,-17.057,-7.504,-10.166,-5.001,-12.101,-12.291,-12.988
-8.761,-20.259,-12.252,-11.53,-9.959,-13.326,-14.502,-14.586
-12.827,-23.356,-16.156,-13.612,-14.299,-15.929,-16.975,-17.012
-14.63,-24.005,-17.683,-13.417,-15.807,-15.829,-16.325,-16.787
-12.668,-21.017,-16.357,-9.881,-14.063,-11.797,-11.429,-12.748
-10.175,-18.511,-15.445,-7.087,-12.843,-8.914,-7.082,-9.463
-9.14,-19.019,-16.446,-7.305,-13.88,-9.998,-6.407,-9.793
-7.357,-19.814,-17.189,-8.125,-14.689,-11.904,-6.874,-11.264
-4.184,-18.972,-16.89,-8.433,-14.131,-12.605,-6.398,-11.879
-1.632,-17.729,-16.443,-9.402,-13.11,-13.617,-6.06,-12.466
-0.795,-17.071,-15.965,-10.533,-11.733,-15.279,-6.39,-13.121
-0.662,-16.313,-15.075,-10.454,-9.614,-15.888,-5.769,-12.673
0.214,-15.06,-13.844,-9.958,-7.326,-15.438,-3.46,-11.396
1.394,-14.24,-12.841,-10.28,-5.94,-15.344,-0.97,-10.531
1.467,-14.37,-12.216,-10.428,-5.349,-15.076,0.588,-10.137
0.503,-15.06,-11.964,-9.801,-5.108,-13.883,1.134,-10.199
-0.553,-16.311,-13.053,-10.149,-6.183,-13.309,0.161,-11.454
-0.984,-17.291,-15.059,-11.005,-8.143,-13.094,-1.813,-12.942
0.677,-15.051,-14.002,-7.813,-6.946,-9.26,-1.529,-11.56
4.755,-9.382,-8.597,-0.326,-1.611,-2.136,2.604,-7.212
6.762,-6.926,-5.865,2.699,0.685,0.075,5.679,-5.55
3.157,-11.956,-10.703,-3.356,-4.498,-5.862,3.409,-9.502
-0.755,-17.455,-15.901,-9.355,-9.763,-11.019,0.372,-12.827
1.039,-16.245,-14.465,-7.698,-8.638,-9.183,1.949,-10.273
5.663,-11.917,-10.604,-3.905,-5.544,-5.791,5.873,-6.134
8.644,-9.738,-9.06,-3.556,-4.654,-5.459,8.607,-5.397
10.979,-8.286,-7.375,-3.469,-3.064,-5.12,10.939,-5.787
14.736,-4.777,-3.293,-1.016,1.143,-3.097,13.743,-4.426
19.256,-0.111,0.856,0.803,5.125,-2.928,15.723,-3.503
22.646,3.126,3,0.194,6.798,-5.489,17.427,-4.01
24.35,4.377,4.635,0.035,7.86,-6.236,21.149,-2.475
25.359,5.367,7.375,2.478,9.993,-2.936,25.544,1.698
25.352,6.457,9.283,5.108,11.36,0.392,26.201,3.778
23.164,5.949,8.165,5.114,9.933,0.012,22.441,1.446
20.244,3.721,6.079,4.141,7.724,-1.72,18.731,-1.573
18.273,1.058,5.822,5.244,7.121,-0.71,18.198,-1.466
16.222,-1.535,6.478,7.813,6.981,2.493,19.386,1.076
13.763,-3.142,6.359,9.541,6.183,5.01,20.823,3.836
12.307,-2.956,5.919,10.356,5.694,6.636,23.15,6.535
12.065,-1.635,6.194,11.669,5.995,8.879,26.086,9.785
12.544,0.704,7.462,14.047,6.762,11.994,28.438,13.413
13.176,3.592,8.605,15.968,7.216,14.247,29.673,15.922
11.787,3.57,7.189,14.708,5.429,13.081,28.843,14.823
7.334,-1.051,3.006,10.259,1.171,8.539,25.928,10.316
4.008,-4.939,0.312,6.954,-1.555,4.922,24.292,7.478
7.026,-1.923,2.471,8.524,0.571,6.175,26.748,9.96
14.209,5.59,6.314,12.746,4.473,10.466,30.543,14.204
18.117,10.107,6.887,14.806,5.188,13.008,31.473,15.507
17.383,10.525,5.431,14.854,3.948,13.376,30.963,15.137
17.592,12.047,6.374,16.403,5.285,14.603,32.867,16.116
20.569,16.113,9.577,19.525,8.964,16.835,36.28,17.973
22.456,18.989,11.88,21.844,11.529,18.131,38.543,19.303
21.725,18.794,12.405,23.124,12.02,18.965,40.577,20.764
20.728,17.261,12.056,24.175,11.317,20.553,42.86,22.557
19.616,14.876,10.607,23.635,9.259,20.898,41.918,21.598
16.405,10.425,8.062,20.598,6.372,18.236,37.373,17.223
13.238,6.082,7.545,18.041,5.974,15.454,35.978,15.208
13.459,4.935,10.673,17.56,9.089,14.431,40.937,17.887
15.227,5.675,13.704,16.677,11.708,13.176,46.119,20.098
16.112,6.762,14.493,15.55,12.064,12.553,46.989,19.855
16.982,8.958,15.408,16.972,12.837,15.25,46.404,20.354
17.852,11.183,16.928,19.971,14.636,19.283,47.285,22.253
17.468,11.475,17.025,21.47,15.226,21.192,48.588,24.047
16.308,10.497,15.536,20.594,13.897,20.461,48.411,24.575
15.183,9.25,13.361,17.813,11.585,17.706,46.559,22.155
14.282,7.875,11.273,14.823,9.519,14.874,44.993,18.596
14.914,7.896,11.027,14.005,9.345,14.465,45.665,18.163
17.426,10.241,13.071,15.006,11.303,15.5,47.618,19.83
19.166,12.88,15.043,15.793,13.197,15.822,48.782,20.691
18.243,13.995,15.064,15.838,13.208,15.706,48.773,21.596
16.305,14.994,13.989,15.441,12.088,15.696,47.942,22.685
15.032,17.533,13.363,14.732,11.251,15.453,46.806,22.14
13.223,19.742,12.931,13.872,10.292,15.093,46.737,20.777
10.397,19.693,12.176,13.201,8.812,15.43,48.794,21.498
9.035,19.283,12.222,13.212,8.184,16.836,52.004,24.594
10.44,20.729,13.644,14.046,9.11,18.458,54.448,27.106
12.765,23.221,15.27,15.063,10.433,19.216,55.34,26.724
14.386,25.107,16.084,15.323,10.93,18.988,54.589,24.192
15.742,26.673,15.873,15.022,10.261,18.798,52.759,22.273
17.146,28.785,14.955,15.574,9.038,19.941,52.256,23.335
17.558,30.57,14.267,17.27,8.453,21.951,54.836,26.556
16.464,30.681,13.917,18.208,8.301,22.355,57.755,27.692
15.232,29.767,13.233,17.36,7.483,20.435,57.152,24.638
15.371,29.736,13.27,16.782,7.184,19.179,54.487,21.217
16.064,30.303,15.141,18.052,8.836,20.546,53.848,21.284
14.833,28.316,16.825,19.353,10.332,22.171,55.441,23.162
10.954,22.665,15.852,18.661,9.123,21.493,56.518,23.346
7.63,17.878,13.688,17.396,6.937,19.945,56.263,21.921
8.835,18.786,14.099,18.624,7.621,20.823,57.335,22.104
13.86,23.911,17.813,22.57,11.534,24.582,62.426,25.792
18.416,28.389,21.687,26.187,15.297,28.423,70.055,31.107
19.916,29.722,22.535,26.7,15.942,29.661,75.321,34.321
17.673,27.281,18.461,23.055,11.862,27.14,73.69,32.693
10.304,19.881,7.769,14.535,1.509,20.221,63.377,25.574
-1.994,7.73,-8.227,1.768,-13.929,9.28,47.057,14.657
-14.213,-4.65,-22.846,-11.055,-28.323,-2.594,31.513,3.552
-20.451,-11.529,-29.973,-19.131,-35.758,-10.957,22.844,-3.958
-20.013,-11.598,-30.097,-21.61,-36.078,-13.837,21.564,-6.465
-16.655,-7.871,-27.379,-20.409,-32.99,-12.928,23.474,-5.936
-13.721,-3.788,-24.345,-17.007,-29.445,-10.763,25.268,-4.992
-13.062,-2.068,-22.551,-13.418,-27.482,-8.82,26.491,-4.45
-15.941,-4.302,-24.218,-12.802,-29.118,-8.451,26.458,-4.789
-20.808,-8.55,-28.497,-15.362,-33.082,-10.256,24.495,-6.73
-23.354,-10.686,-30.574,-17.258,-34.642,-12.483,22.505,-9.092
-21.802,-9.81,-28.491,-16.49,-32.159,-13.401,22.368,-10.08
-18.973,-8.896,-26.117,-15.891,-29.546,-14.206,22.123,-10.679
-18.219,-10.089,-26.864,-17.957,-30.104,-16.513,19.195,-12.693
-20.262,-13.136,-29.404,-21.281,-32.544,-19.487,15.232,-15.418
-24.221,-17.721,-31.452,-23.851,-34.711,-21.794,13.349,-17.179
-28.892,-23.252,-33.083,-25.442,-36.566,-23.286,13.035,-17.778
-32.747,-27.413,-35.123,-26.233,-38.607,-23.901,11.273,-18.377
-34.418,-28.24,-37.4,-25.941,-40.598,-23.108,7.281,-19.683
-33.784,-26.551,-39.25,-24.596,-42.224,-21.031,4.061,-20.442
-32.71,-25.053,-40.816,-23.694,-43.857,-19.544,4.595,-19.309
-33.714,-25.92,-43.092,-25.255,-46.215,-20.82,7.278,-18.039
-36.825,-28.795,-45.893,-28.718,-48.905,-24.153,7.661,-19.339
-39.389,-30.904,-46.941,-30.832,-49.984,-26.097,4.885,-21.857
-40.125,-30.778,-44.68,-30.05,-48.282,-24.977,2.689,-22.166
-40.697,-30.361,-40.891,-28.71,-45.415,-23.118,3.615,-20.68
-41.913,-30.845,-38.741,-29.365,-43.92,-23.202,5.801,-20.426
-41.994,-30.103,-39.087,-31.503,-44.326,-25.023,6.063,-21.93
-39.734,-26.6,-39.711,-32.758,-44.817,-26.509,4.437,-23.236
-35.225,-20.635,-37.366,-30.455,-42.48,-24.824,4.776,-22.288
-28.273,-12.055,-31.116,-23.269,-36.179,-18.043,9.238,-18.253
-21.467,-3.629,-25.574,-15.486,-30.528,-10.026,13.221,-13.921
-21.03,-2.318,-27.67,-14.918,-32.67,-8.624,10.561,-14.132
-27.727,-8.961,-36.394,-21.338,-41.459,-14.094,3.193,-18.461
-34.005,-15.2,-42.668,-25.626,-47.632,-17.946,-1.123,-20.966
-35.523,-16.455,-42.579,-23.776,-47.354,-15.997,-0.17,-18.9
-35.657,-16.579,-40.833,-20.936,-45.425,-12.598,1.285,-16.236
-36.314,-17.546,-40.529,-20.832,-44.945,-11.903,0.554,-17.38
-34.87,-16.072,-39.81,-21.083,-44.038,-12.744,0.21,-20.206
-32.178,-12.495,-39.008,-20.678,-43.04,-13.572,0.754,-20.597
-32.694,-11.636,-40.843,-22.335,-44.67,-15.509,-1.456,-20.103
-35.31,-12.963,-42.851,-24.879,-46.476,-17.535,-5.515,-20.593
-35.347,-11.462,-40.091,-23.913,-43.594,-16.699,-5.427,-19.514
-32.748,-6.645,-33.29,-19.545,-36.694,-13.347,0.143,-15.915
-30.663,-2.658,-27.767,-16.564,-30.919,-11.28,4.674,-14.008
-30.429,-2.09,-27.402,-18.519,-30.263,-13.56,2.338,-17.249
-30.368,-2.931,-31.002,-23.273,-33.783,-18.362,-3.27,-22.319
-29.038,-2.687,-35.013,-26.328,-37.843,-21.236,-5.705,-24.402
-28.15,-2.707,-38.53,-27.121,-41.293,-21.257,-5.872,-23.863
-28.942,-4.347,-41.687,-27.755,-44.404,-20.971,-6.98,-23.593
-28.754,-4.812,-42.475,-28.059,-45.503,-21.298,-7.725,-24.392
-25.586,-1.402,-39.633,-25.987,-43.186,-19.891,-6.472,-23.695
-22.304,3.512,-35.616,-21.885,-39.481,-15.786,-5.114,-19.849
-22.259,5.807,-33.698,-19.101,-37.631,-12.658,-5.764,-17.024
-24.488,5.31,-34.312,-19.107,-38.31,-13.346,-7.39,-18.864
-25.969,5.272,-35.357,-18.843,-39.398,-14.545,-7.294,-21.057
-24.951,8.27,-34.18,-15.151,-38.1,-12.026,-4.338,-18.806
-21.579,13.533,-30.067,-9.341,-33.8,-7.172,-0.058,-14.34
-18.239,17.035,-25.807,-5.263,-29.375,-4.149,2.432,-11.449
-17.333,15.846,-23.933,-4.25,-27.297,-3.885,1.738,-9.923
-18.326,11.686,-23.185,-4.305,-26.435,-4.084,0.171,-7.908
-20.237,7.108,-22.568,-4.603,-25.866,-4.299,-0.314,-6.681
-23.032,2.671,-22.997,-6.107,-26.223,-5.857,-0.204,-8.629
-24.867,-0.19,-23.082,-7.002,-25.961,-6.422,1.328,-10.064
-24.702,-0.857,-21.629,-5.568,-24.159,-3.843,4.185,-6.916
-24.389,-1.573,-21.11,-4.999,-23.511,-2.449,3.95,-5.157
-23.42,-2.003,-21.805,-6.494,-24.14,-4.624,-0.161,-9.755
-19.517,0.687,-20.413,-5.662,-22.655,-5.091,-2.126,-13.123
-14.575,5.115,-17.569,-2.247,-19.851,-2.109,-0.229,-10.076
-11.782,7.756,-17.254,-1.801,-19.67,-1.376,0.572,-7.925
-10.591,8.612,-19.224,-5.161,-21.604,-4.537,-0.967,-10.768
-9.355,9.128,-20.151,-8.079,-22.271,-7.329,-1.867,-12.942
-7.755,9.674,-19.257,-9.779,-21.231,-8.798,-2.506,-12.349
-5.724,10.787,-17.913,-11.972,-20.097,-10.792,-4.597,-12.29
-4.056,12.266,-17.263,-13.716,-19.589,-12.258,-5.739,-12.117
-4.496,12.251,-18.038,-14.174,-20.005,-12.197,-3.757,-10.002
-6.522,10.741,-19.83,-14.529,-21.19,-11.883,-1.269,-8.256
-6.678,11.084,-20.265,-13.927,-21.147,-10.673,-0.829,-8.202
-3.745,14.415,-17.884,-10.638,-18.596,-7.339,-1.954,-8.563
-0.743,17.407,-14.811,-6.007,-15.712,-3.437,-3.462,-8.529
0.104,17.973,-13.267,-2.519,-14.481,-0.773,-3.981,-8.117
-0.411,17.068,-12.602,-1.777,-14.041,-0.678,-3.346,-9.387
-0.919,15.567,-11.472,-2.95,-13.065,-2.692,-2.741,-12.331
-0.816,13.821,-9.579,-2.856,-11.182,-3.532,-2.01,-12.726
-0.635,12.231,-7.173,-1.083,-8.643,-2.619,-0.679,-10.531
-0.981,11.436,-4.263,0.602,-5.625,-1.548,1.201,-8.429
-1.654,11.269,-1.525,2.209,-2.785,0.228,3.563,-5.525
-2.69,9.903,-0.558,3.504,-1.541,2.397,5.204,-2.296
-3.629,7.305,-1.043,3.972,-1.554,3.49,5.628,-1.397
-3.438,6.039,-1.423,4.34,-1.519,3.722,5.777,-2.557
-2.578,6.682,-2.288,4.7,-2.229,3.811,5.369,-3.336
-2.223,7.284,-4.646,4.322,-4.5,3.65,3.839,-3.061
-3.194,6.292,-7.725,2.635,-7.457,2.377,1.518,-4.147
-6.121,3.793,-10.304,-0.032,-10.158,0.105,-0.995,-7.47
-9.514,1.714,-11.229,-1.757,-11.465,-0.99,-2.409,-9.476
-11.231,0.877,-10.365,-2.336,-10.92,-1.06,-2.934,-9.043
-12.631,-1.369,-9.628,-4.851,-10.406,-3.789,-4.716,-10.185
-14.851,-5.583,-9.473,-9.303,-10.543,-8.664,-6.429,-13.013
-14.342,-6.853,-7.171,-10.961,-8.512,-9.932,-3.912,-11.974
-9.428,-3.308,-2.459,-8.978,-3.943,-6.861,1.533,-6.908
-5.231,-0.837,0.489,-8.369,-1.214,-5.515,3.122,-4.72
-5.709,-3.393,-0.06,-11.173,-2.315,-8.393,-0.899,-7.447
-8.025,-6.989,-1.065,-13.769,-4.141,-11.559,-4.229,-9.718
-9.186,-8.071,-1.107,-14.002,-4.903,-12.557,-2.994,-9.105
-10.486,-8.802,-2.036,-13.452,-6.058,-12.701,-0.797,-8.599
-12.62,-10.441,-3.378,-12.134,-6.987,-11.803,-0.408,-9.11
-14.482,-11.301,-3.106,-8.853,-5.902,-8.75,-0.136,-8.149
-16.911,-12.333,-2.851,-6.128,-5.057,-6.103,0.291,-5.573
-20.069,-15.041,-4.191,-6.729,-6.478,-6.869,-0.517,-4.386
-21.154,-17.125,-4.527,-8.128,-7.206,-8.951,-0.997,-4.83
-19.569,-16.667,-2.337,-6.462,-5.168,-7.935,1.6,-2.909
-17.601,-14.865,0.419,-2.003,-2.43,-3.076,6.517,2.708
-15.92,-13.213,2.136,1.925,-0.905,1.868,9.833,7.608
-14.805,-13.134,1.876,1.926,-1.358,2.235,8.762,7.244
-15.464,-15.293,-0.695,-2.033,-3.675,-2.028,5.448,2.988
-15.669,-16.091,-2.235,-4.646,-4.606,-4.82,4.928,0.984
-11.641,-11.372,0.879,-1.965,-1.302,-2.27,7.47,3.157
-6.372,-4.842,5.373,2.107,2.785,1.499,8.121,5.098
-6.045,-3.561,5.653,2.727,2.998,2.576,5.71,5.521
-9.763,-7.217,2.578,0.62,0.63,2.38,3.481,6.395
-13.176,-11.44,-0.467,-3.408,-1.851,0.659,1.223,4.469
-15.99,-14.977,-3.528,-9.814,-5.084,-4.394,-2.982,-3.416
-18.682,-17.545,-7.011,-15.387,-8.745,-9.432,-6.968,-11.499
-19.359,-18.112,-9.251,-16.875,-10.58,-10.532,-7.966,-13.056
-16.788,-16.702,-8.867,-15.895,-9.694,-9.42,-6.616,-9.622
-12.818,-14.759,-7.124,-15.467,-7.895,-9.356,-5.279,-6.509
-11.201,-14.708,-7.253,-16.743,-8.288,-11.021,-6.052,-6.349
-13.769,-18.14,-10.52,-19.475,-11.672,-13.68,-8.96,-8.217
-17.764,-23.072,-13.581,-21.991,-14.422,-16.185,-11.139,-9.477
-19.194,-25.716,-12.452,-22.283,-12.754,-17.283,-10.45,-9.004
-18.569,-25.905,-8.67,-21.102,-8.485,-17.391,-8.68,-8.449
-19.119,-26.298,-6.761,-20.994,-6.043,-18.321,-8.129,-9.336
-20.252,-26.413,-6.812,-21.466,-5.467,-19.398,-7.596,-10.253
-18.47,-23.823,-5.431,-19.323,-3.749,-17.503,-5.128,-8.841
-14.096,-20.31,-2.756,-14.805,-1.297,-13.08,-2.475,-6.372
-11.553,-20.342,-2.425,-12.288,-1.439,-10.822,-2.746,-6.237
-11.586,-23.219,-3.892,-12.295,-3.104,-11.277,-4.225,-6.75
-9.428,-22.916,-1.644,-9.61,-0.662,-8.96,-2.103,-2.963
-4.019,-17.605,5.434,-2.962,6.695,-2.443,3.347,3.604
-0.758,-12.503,11.523,2.217,13.055,2.688,6.988,6.712
-1.674,-11.042,13.304,3.311,15.289,3.664,7.585,6.063
-2.04,-10.642,14.362,3.741,16.77,3.923,9.274,6.94
0.808,-8.891,17.757,5.577,20.088,5.473,13.547,10.566
3.507,-7.035,21.332,6.914,23.098,6.523,17.471,13.261
3.148,-6.426,22.55,6.672,23.537,6.427,19.569,13.889
0.31,-7.704,20.744,4.889,20.968,5.062,18.718,13.237
-5.066,-12.772,13.962,-0.537,13.77,-0.474,10.938,8.64
-12.71,-20.736,2.059,-10.228,1.872,-10.791,-3.283,-1.479
-17.672,-25.01,-8.288,-18.733,-8.537,-19.498,-14.936,-11.506
-15.704,-21.752,-10.425,-20.374,-11.169,-20.561,-17.281,-14.443
-9.988,-15.139,-6.412,-16.688,-7.665,-16.133,-13.31,-10.52
-5.41,-9.496,-2.236,-12.775,-3.52,-11.819,-8.78,-5.45
-2.828,-5.35,-0.472,-11.061,-1.556,-9.937,-6.137,-3.43
-2.347,-3.868,-1.176,-11.943,-2.265,-10.666,-6.419,-4.971
-3.961,-5.563,-3.262,-14.416,-4.422,-13.04,-9.247,-7.852
-5.117,-7.252,-4.345,-15.598,-5.337,-14.195,-11.449,-8.976
-3.126,-6.28,-3.002,-13.951,-3.753,-12.294,-10.621,-7.6
0.646,-4.54,-1.1,-11.705,-1.697,-9.425,-8.653,-6.121
1.742,-5.48,-2.409,-12.31,-2.669,-9.456,-9.567,-7.295
-0.339,-7.978,-6.914,-15.039,-6.629,-12.091,-13.962,-10.768
-0.724,-7.502,-9.725,-15.19,-9.049,-12.591,-17.566,-13.175
1.83,-4.579,-8.741,-11.972,-7.861,-9.835,-17.189,-12.532
3.386,-3.753,-6.7,-9.308,-5.595,-7.561,-14.438,-10.039
2.859,-4.951,-5.422,-8.708,-4.065,-7.594,-12.126,-7.96
2.28,-5.197,-4.815,-8.898,-3.232,-8.99,-11.322,-7.723
2.301,-4.436,-4.303,-9.025,-2.466,-10.45,-11.38,-8.537
2.318,-4.174,-3.228,-8.839,-0.955,-11.013,-11.152,-8.861
2.033,-4.492,-2.109,-8.71,0.71,-11.288,-11.094,-9.409
1.883,-4.361,-1.596,-8.968,1.423,-12.309,-12.24,-11.158
1.922,-4.021,-1.677,-9.396,1.134,-13.435,-13.529,-12.318
0.94,-4.995,-2.924,-9.968,-0.185,-13.805,-13.544,-11.54
-2.071,-7.459,-5.643,-10.65,-2.753,-14.003,-13.617,-11.379
-6.094,-9.864,-8.394,-10.419,-5.593,-13.927,-15.292,-13.293
-8.698,-10.874,-9.508,-8.344,-6.938,-11.997,-16.472,-13.816
-9.284,-11.026,-9.848,-6.39,-7.158,-9.232,-14.982,-11.532
-9.109,-11.348,-10.775,-6.892,-7.814,-8.489,-12.421,-9.489
-7.308,-10.405,-10.119,-7.406,-7.203,-8.323,-10.098,-7.785
-3.103,-7.817,-6.47,-5.659,-3.74,-6.156,-7.68,-4.757
-0.83,-8.696,-4.767,-6.452,-1.93,-6.01,-8.116,-4.285
-4.431,-16.217,-9.648,-14.052,-6.366,-12.742,-14.904,-10.667
-10.055,-23.902,-17.102,-22.886,-13.288,-21.593,-23.998,-19.106
-11.699,-24.21,-20.003,-24.795,-15.728,-23.742,-27.532,-21.351
-10.403,-20.104,-18.179,-20.697,-13.407,-19.353,-25.071,-17.935
-10.89,-19.202,-16.281,-16.978,-10.9,-15.385,-22.429,-15.16
-12.4,-21.046,-15.182,-14.619,-9.279,-13.464,-21.196,-13.758
-11.116,-20.601,-12.797,-11.079,-6.666,-10.637,-19.064,-11.18
-8.698,-19.461,-9.965,-8.502,-3.877,-8.504,-16.936,-9.341
-9.789,-22.308,-8.859,-10.261,-2.847,-10.792,-16.764,-10.632
-13.687,-26.81,-8.467,-13.742,-2.422,-15.392,-17.314,-13.007
-15.57,-27.119,-6.581,-14.662,-0.653,-17.617,-17.593,-14.364
-13.555,-23.053,-3.715,-13.657,1.927,-17.473,-18.5,-15.217
-9.155,-17.839,-1.288,-12.585,4.516,-17.005,-18.956,-15.359
-4.128,-12.66,0.999,-10.36,7.414,-15.605,-16.768,-13.633
-0.327,-8.199,3.399,-6.397,9.961,-12.668,-13.372,-11.036
0.6,-5.648,4.643,-2.931,10.742,-10.006,-12.485,-10.201
-1.364,-5.116,3.873,-1.898,9.63,-9.088,-14.435,-11.455
-4.1,-5.284,2.645,-2.159,8.225,-8.817,-15.496,-11.814
-5.136,-4.71,2.477,-1.852,7.637,-8.029,-13.526,-9.623
-4.834,-4.106,1.637,-2.13,6.384,-8.356,-11.05,-7.758
-5.265,-5.351,-1.848,-5.131,2.867,-11.507,-11.168,-9.353
-6.116,-7.809,-6.506,-9.49,-1.724,-15.496,-13.334,-12.568
-5.509,-8.773,-10.137,-12.248,-5.575,-17.623,-15.375,-13.833
-3.457,-7.349,-12.849,-13.52,-8.594,-18.752,-16.945,-13.822
-1.526,-5.408,-15.208,-14.776,-10.939,-20.324,-18.149,-14.371
-0.952,-4.96,-16.7,-15.319,-12.25,-20.87,-18.253,-13.845
-2.437,-6.446,-17.276,-14.692,-13.007,-19.598,-17.739,-11.373
-5.827,-9.424,-17.725,-14.873,-13.943,-19.052,-17.812,-9.813
-9.554,-12.892,-17.968,-16.866,-14.298,-20.823,-18.032,-10.591
-12.057,-15.43,-17.195,-18.965,-13.013,-23.231,-17.728,-11.828
-13.613,-16.865,-15.689,-19.708,-10.781,-24.834,-17.644,-12.582
-15.863,-18.861,-14.673,-19.575,-9.188,-26.032,-18.219,-13.377
-20.156,-22.772,-15.41,-20.203,-9.669,-27.603,-19.333,-14.293
-25.128,-26.706,-17.844,-21.719,-12.246,-28.951,-20.675,-14.892
-26.719,-26.631,-19.153,-21.388,-13.803,-27.869,-20.528,-14.347
-24.182,-22.946,-17.217,-18.339,-11.877,-24.438,-18.062,-12.828
-22.051,-21.181,-14.38,-16.191,-8.899,-22.497,-15.934,-12.321
-22.436,-22.849,-13.438,-16.849,-7.873,-23.525,-16.589,-13.611
-21.176,-22.387,-12.706,-16.399,-7.085,-23.102,-18.154,-13.725
-15.229,-16.581,-9.431,-11.533,-3.643,-17.711,-17.455,-10.058
-8.965,-10.341,-5.54,-6.127,0.446,-11.506,-15.113,-5.769
-7.501,-8.48,-4.541,-5.523,1.366,-10.291,-13.591,-5.257
-8.712,-8.747,-5.706,-8.364,-0.181,-12.937,-13.148,-7.386
-8.63,-8.011,-6.772,-10.405,-1.552,-15.198,-13.569,-9.18
-7.924,-7.116,-7.921,-10.8,-2.724,-15.907,-15.35,-10.214
-8.517,-7.449,-10.483,-11.111,-5.253,-15.908,-17.719,-10.557
-9.965,-8.878,-14.777,-12.626,-9.651,-16.438,-19.641,-10.74
-10.63,-10.494,-18.917,-15.067,-13.891,-18.392,-21.44,-12.676
-10.451,-12.075,-21,-17.197,-15.916,-21.38,-23.833,-16.454
-10.927,-14.16,-21.863,-18.612,-16.771,-24.259,-26.845,-19.352
-11.564,-15.775,-22,-19.206,-17.247,-25.644,-29.123,-19.679
-10.893,-16.054,-20.414,-18.664,-16.066,-25.05,-29.296,-18.626
-10.926,-17.259,-18.81,-17.668,-14.376,-24.015,-28.665,-18.278
-14.161,-21.05,-19.625,-17.179,-14.831,-23.855,-28.961,-18.926
-18.402,-24.856,-20.874,-17.022,-16.099,-23.928,-28.535,-18.681
-19.759,-25.322,-19.008,-15.992,-14.509,-23.034,-24.957,-16.126
-18.093,-22.482,-14.097,-12.925,-9.524,-20.281,-19.508,-12.186
-17.361,-20.037,-10.002,-9.405,-4.848,-16.497,-16.139,-9.312
-20.704,-21.571,-10.004,-8.808,-4.056,-14.234,-16.11,-8.344
-25.752,-25.819,-12.139,-10.616,-5.643,-14.049,-16.359,-7.217
-28.43,-29.182,-12.613,-11.851,-5.969,-15.043,-15.687,-6.127
-28.793,-31.131,-11.913,-12.576,-5.122,-17.25,-16.68,-8
-28.35,-32.149,-12.005,-13.947,-4.855,-19.479,-19.076,-11.463
-26.559,-30.725,-12.053,-15.239,-4.665,-20.012,-20.011,-12.782
-22.428,-25.718,-10.138,-14.944,-2.729,-18.762,-19.033,-11.85
-16.49,-18.6,-5.825,-12.206,1.549,-15.771,-16.269,-9.594
-11.268,-12.589,-0.749,-8.14,6.355,-11.722,-11.715,-6.045
-9.238,-9.932,2.928,-5.126,9.554,-8.989,-8.063,-2.928
-10.264,-10.491,4.171,-4.597,10.562,-9.195,-8.374,-2.925
-12.526,-13.006,2.483,-6.599,8.906,-11.498,-12,-6.019
-14.444,-15.991,-2.004,-9.909,4.399,-13.973,-15.916,-9.191
-15.063,-18.015,-7.486,-12.864,-1.207,-15.96,-18.368,-10.319
-13.477,-17.896,-10.998,-14.424,-4.915,-17.456,-18.724,-9.529
-9.029,-14.788,-10.724,-13.981,-4.89,-17.292,-16.515,-7.448
-3.349,-9.926,-8.55,-12.148,-2.971,-15.446,-13.529,-5.875
0.693,-6.129,-7.991,-10.625,-2.674,-14.051,-12.554,-6.345
3.623,-3.115,-8.851,-9.236,-3.77,-13.213,-12.751,-6.335
8.857,2.515,-7.87,-6.017,-2.996,-10.818,-11.28,-3.22
15.918,10.043,-5.173,-2.066,-0.614,-8.06,-9.525,-0.87
19.596,13.829,-4.316,-0.791,-0.137,-8.13,-11.188,-3.626
18.665,12.856,-4.309,-0.472,-0.325,-8.552,-13.876,-6.545
17.524,12.034,-0.539,3.433,3.462,-4.184,-12.069,-2.843
17.841,13.021,5.932,9.686,9.895,3.743,-7.259,4.513
17.197,12.884,10.228,14.188,14.035,10.313,-4.258,9.297
13.967,9.545,11.173,15.868,14.989,13.422,-2.765,11.354
8.857,3.876,10.333,14.97,14.317,13.11,-0.873,12.577
4.552,-0.899,9.378,12.392,13.325,10.688,0.593,12.752
3.544,-2.068,10.068,10.47,13.803,8.699,0.837,12.083
5.208,-0.481,12.647,9.91,16.29,7.519,0.451,11.148
7.226,1.415,15.315,9.298,18.974,5.427,0.188,9.764
8.906,3.444,17.029,8.994,20.615,3.51,0.845,9.02
11.19,7.12,18.709,10.774,22.103,4.738,2.678,10.345
14.708,12.281,21.11,14.041,24.438,8.454,4.879,12.611
18.024,15.822,22.824,15.482,26.23,10.498,5.969,13.261
18.471,14.996,21.641,12.82,24.836,8.854,4.756,11.583
16.451,11.862,18.423,8.452,21.168,6.462,2.543,9.799
15.318,10.553,16.402,6.5,19.036,6.395,2.006,9.899
15.745,11.042,15.843,7.025,18.661,7.631,3.121,11.343
15.517,10.817,14.358,7.608,17.249,8.564,4.286,13.467
14.202,9.973,11.825,7.951,14.764,9.78,5.252,16.124
13.498,10.044,9.905,8.792,13.041,11.284,5.356,17.596
14.233,10.84,8.436,9.248,11.773,11.56,2.81,16.21
15.245,10.897,5.93,7.77,9.204,9.714,-1.949,12.85
15.606,10.284,2.741,4.945,5.569,6.836,-5.266,9.928
17.424,12.323,2.238,4.635,4.518,6.615,-3.761,10.558
22.629,18.862,6.453,9.047,8.513,11.319,1.415,15.453
27.398,24.727,10.786,13.019,12.904,15.69,4.309,18.27
27.017,24.594,9.8,10.894,11.887,13.193,1.577,13.379
25.343,23.038,7.907,7.815,9.892,8.648,-1.1,7.538
29.812,28.082,13.978,13.081,16.041,12.492,3.314,10.631
38.764,37.766,26.586,24.612,28.811,23.572,12.782,19.881
44.143,43.659,36.671,33.011,38.86,32.081,21.284,26.935
43.749,44.016,41.849,36.731,43.85,36.065,28.271,31.899
40.936,42.523,45.731,39.914,47.713,40.096,35.574,38.297
36.4,38.927,47.369,41.304,49.556,42.89,40.37,42.863
28.363,30.83,42.334,36.938,44.703,39.406,37.144,39.911
17.925,20.154,31.411,28.405,33.938,30.665,25.338,30.461
9.99,11.992,21.605,21.298,24.389,22.92,12.379,21.18
8.465,9.402,18.584,18.795,21.485,19.953,6.492,17.01
11.436,10.664,20.887,19.272,23.521,20.14,7.752,17.243
14.539,11.998,23.998,19.762,26.303,20.446,11.192,18.28
16.949,12.145,26.414,19.896,28.766,20.599,15.172,19.008
18.926,11.669,27.711,20.146,30.323,21.429,19.804,20.781
18.946,10.45,26.646,19.541,29.236,22.18,22.386,22.95
17.052,8.497,23.502,17.137,25.718,21.4,20.277,22.467
14.826,6.333,19.5,12.851,21.331,18.434,15.004,18.388
12.74,4.884,15.85,8.193,17.493,14.851,11.11,14.229
11.252,5.601,14.151,5.897,15.685,13.268,10.586,13.045
10.891,8.266,14.039,6.373,15.355,13.631,10.523,13.414
11.432,10.913,13.583,7.667,14.641,14.296,8.912,13.585
13.148,13.056,13.181,8.689,14.17,14.935,7.495,13.548
16.593,15.782,15.323,10.163,16.414,16.298,7.742,13.66
21.462,19.768,21.83,14.048,23.012,19.864,10.332,15.718
26.515,24.558,31.642,21.033,33.008,25.928,15.743,20.32
29.633,28.48,40.067,28.422,41.974,31.756,21.683,24.454
29.602,30.518,43.669,33.418,46.278,35.068,25.118,26.463
27.95,31.718,44.655,36.794,47.692,37.374,27.03,28.402
26.535,32.331,45.678,39.931,48.993,40.411,29.71,30.977
24.964,30.756,45.252,41.215,48.974,42.226,31.554,31.692
23.068,28.091,43.091,39.893,47.055,41.321,30.844,30.48
22.928,28.501,42.736,39.508,46.607,40.857,30.833,31.528
25.473,32.442,45.201,42.382,49.039,43.306,34.31,36.072
28.351,35.552,47.216,45.586,51.129,45.91,38.082,39.651
29.198,35.354,47.039,46.126,50.603,45.989,38.09,39.656
28.405,33.472,46.056,45.041,48.808,45.001,35.316,38.577
27.743,31.961,45.515,44.52,47.589,44.887,33.409,38.648
27.906,31.532,45.497,45.043,47.252,45.59,33.906,39.849
28.322,32.329,45.488,45.812,47.056,46.429,35.545,41.554
28.767,34.185,44.539,45.656,45.982,46.574,36.206,42.128
29.82,36.49,42.482,44.285,43.946,45.552,35.216,40.462
31.226,38.429,40.307,43.128,41.838,44.33,34.176,38.557
31.866,39.61,38.492,43.452,39.834,44.292,34.795,38.94
32.232,40.825,37.135,44.767,37.953,45.718,36.905,41.256
33.625,42.779,36.917,46.039,37.23,47.817,39.152,43.848
34.674,43.831,37.676,46.524,37.745,49.06,40.598,45.92
33.432,42.326,38.653,45.685,38.535,48.195,41.542,46.67
32.065,40.7,40.763,44.653,40.307,46.588,42.739,46.038
33.712,42.398,44.998,46.003,44.237,47.47,44.528,46.736
36.676,45.971,49.523,49.537,48.724,50.666,47.008,50.396
37.465,47.339,51.579,51.233,50.889,51.658,49.188,53.193
36.805,46.147,51.349,49.15,50.639,48.429,49.727,51.788
37.479,45.048,51.54,46.665,50.563,44.725,49.772,49.627
39.351,44.756,53.573,47.008,52.232,44.095,51.226,50.651
40.601,44.211,56.046,48.997,54.477,45.677,53.211,52.874
40.973,43.816,57.018,50.7,55.428,47.876,54.206,53.787
41.251,45.053,56.906,52.776,55.429,51.268,54.997,55.022
41.052,47.053,57.331,55.641,55.908,55.498,56.423,57.628
38.993,46.718,57.948,57.357,56.208,57.759,57.44,59.621
35.401,43.48,57.618,56.723,55.204,56.958,57.419,60.124
32.164,39.641,56.386,54.572,53.425,54.834,56.756,59.596
29.557,35.734,54.314,51.086,51.098,52.016,54.777,56.826
27.011,31.286,51.775,46.471,48.27,48.37,51.137,51.637
25.848,28.399,50.416,43.393,46.625,45.991,48.25,47.871
26.636,28.412,50.521,43.292,46.798,46.142,47.849,47.903
26.764,28.56,50.116,43.238,46.608,46.415,47.803,48.634
24.682,26.405,48.234,40.947,44.562,44.986,45.827,47.267
21.831,22.859,45.22,37.671,41.031,42.738,42.078,44.567
19.259,19.758,41.518,34.908,36.836,40.514,37.637,41.541
17.844,19.12,39.532,34.29,34.581,39.614,35.209,39.429
19.304,22.547,41.935,37.765,37.022,42,38.008,40.152
22.547,28.066,46.213,43.033,41.446,45.998,43.839,42.628
24.762,32.207,47.742,45.216,42.857,47.584,46.739,43.821
26.836,35.108,47.289,44.439,42.196,46.981,46.101,43.89
31.247,38.644,48.489,44.436,43.331,47.36,46.071,44.916
37.732,43.289,51.776,46.454,46.343,49.592,47.73,47.026
44.617,48.763,55.336,49.336,49.374,52.486,49.228,49.153
50.622,53.792,57.918,51.536,51.739,54.489,50.346,50.631
55.12,56.738,59.032,51.743,53.147,54.301,51.722,50.787
59.076,58.469,59.304,50.612,53.749,52.625,52.352,49.35
64.4,61.787,60.488,50.923,54.906,52.252,51.311,47.809
70.802,67.087,63.001,53.835,57.338,54.669,49.909,48.344
75.98,71.916,65.53,57.608,60.073,58.612,49.956,51.129
79.568,75.264,68.006,60.908,62.64,62.433,51.399,53.902
82.764,78.258,71.266,63.543,65.455,65.151,52.983,54.432
84.438,80.442,73.756,64.523,67.328,65.869,53.729,53.036
82.408,79.79,72.452,62.502,65.763,63.988,52.4,51.175
78.689,77.394,68.029,57.997,61.335,59.959,48.194,48.368
78.198,77.266,65.394,53.856,58.518,56.101,43.562,44.289
81.139,79.633,66.407,51.9,59.042,54.526,41.769,41.46
83.644,81.194,67.639,50.879,59.767,54.237,41.966,41.471
85.582,82.485,67.81,50.364,59.689,54.101,42.148,42.686
88.762,86.017,68.955,51.958,60.756,55.391,42.682,43.424
90.32,89.239,69.355,54.19,61.117,57.407,42.686,42.958
86.316,87.798,64.935,52.546,56.776,56.336,39.699,40.414
78.916,82.896,58.246,47.2,50.213,52.002,35.203,36.548
74.373,79.789,57.253,44.895,49.117,50.179,34.528,35.328
74.407,80.026,63.038,48.817,54.584,53.698,39.338,38.907
73.335,78.934,66.765,52.238,58.123,56.44,44.054,42.387
66.497,72.829,62.632,48.839,54.114,52.742,43.034,40.585
58.307,65.535,56.351,42.871,48.062,46.712,38.537,36.417
56.398,63.406,56.087,41.666,47.73,44.959,36.868,35.431
60.774,66.598,61.161,45.037,52.376,47.11,39.22,37.588
64.662,69.885,64.404,48.003,55.336,48.926,40.982,39.093
63.85,69.975,62.058,48.247,53.152,48.655,38.469,37.633
61.02,68.543,57.807,47.773,49.091,47.964,33.767,34.949
60.253,68.294,56.747,48.986,47.935,48.809,31.772,34.64
60.275,68.314,57.752,50.213,48.851,49.749,32.797,35.925
57.935,66.288,56.658,48.549,47.786,48.376,32.709,35.026
54.957,63.611,54.541,45.967,45.641,46.557,30.935,33.116
53.854,62.69,54.486,45.661,45.663,46.89,30.944,33.713
51.433,61.147,53.489,44.948,44.858,46.58,31.878,34.285
44.77,56.015,47.732,40.211,39.012,42.547,29.082,30.572
38.369,50.514,40.914,34.647,31.922,38.224,23.669,25.609
37.711,49.375,38.543,33.435,29.469,38.303,22.012,25.525
42.141,52.24,40.813,36.411,31.631,42.101,26.517,30.95
46.695,54.961,43.611,38.388,34.061,44.335,32.023,35.939
46.036,53.426,41.839,34.289,31.943,40.111,31.248,33.753
40.263,48.199,35.805,26.28,25.759,31.823,24.699,26.053
35.6,44.262,31.47,21.258,21.309,26.372,19.143,19.973
34.912,43.109,30.637,20.336,20.293,24.795,15.977,16.765
35.491,42.067,30.326,20.407,19.878,24.424,13.075,15.04
36.085,40.803,30.356,21.222,20.029,25.56,12.518,16.603
36.12,39.592,31.692,22.069,21.558,27.129,15.405,20.08
32.901,36.281,32.211,19.909,22.175,25.548,17.656,20.513
26.838,31.363,30.379,15.478,20.463,21.921,16.661,17.745
22.506,28.66,27.927,13.086,18.26,20.736,14.527,15.974
21.994,29.064,26.438,13.869,17.146,22.157,13.318,16.504
23.568,30.141,25.492,15.319,16.679,22.785,12.483,16.598
24.811,29.81,23.655,15.667,15.239,21.354,10.68,14.418
23.165,26.9,19.248,14.648,11.017,18.993,7.113,11.339
18.563,22.422,13.357,12.698,5.212,16.664,2.8,8.789
15.553,20.272,10.704,11.904,2.524,15.637,0.835,7.223
17.336,22.657,13.143,14.448,4.741,17.579,2.41,8.34
21.234,27.097,16.92,18.726,8.216,21.359,5.023,12.341
23.166,29.351,18.253,19.873,9.148,22.325,6.24,14.333
22.114,27.423,16.311,15.713,6.72,18.05,5.415,10.434
19.727,23.713,12.472,10.472,2.65,13.049,3.239,5.44
18.179,22.257,9.36,9.211,-0.268,12.803,1.761,5.949
17.838,22.74,7.986,10.42,-1.362,15.277,2.065,9.229
17.041,21.651,6.846,9.553,-2.607,14.992,2.892,9.123
15.216,19.278,5.173,7.015,-4.791,12.45,3.12,7.332
13.785,18.657,3.834,5.905,-6.509,11.697,2.828,7.871
12.538,18.593,2.494,4.917,-7.804,11.426,1.345,7.443
10.33,16.152,0.332,1.449,-9.863,8,-1.837,2.717
8.995,13.173,-0.872,-1.803,-11.158,4.095,-4.271,-1.241
9.887,11.958,0.598,-1.638,-9.639,4.167,-3.465,0.07
10.764,10.77,3.34,0.07,-6.583,6.693,-0.164,3.804
11.007,9.519,6.348,1.681,-3.379,8.797,4.859,7.394
13.223,11.437,10.679,5.102,0.966,11.603,11.513,12.2
17.181,16.042,14.952,9.749,5.326,15.25,16.407,17.137
17.657,17.236,13.65,9.877,4.2,14.75,14.131,16.563
10.561,10.6,3.15,2.109,-5.983,6.802,3.266,8.309
-0.618,-0.26,-11.899,-8.821,-20.55,-4.062,-11.364,-2.494
-8.461,-8.004,-23.175,-16.406,-31.485,-11.874,-23.231,-11.393
-11.385,-11.219,-28.785,-20.163,-37.013,-16.188,-30.277,-18.406
-12.797,-13.276,-31.154,-22.013,-39.4,-18.175,-33.676,-22.356
-12.959,-14.123,-29.401,-20.699,-37.769,-16.537,-32.566,-19.994
-10.986,-12.499,-23.569,-16.347,-32.018,-12.213,-27.178,-13.484
-10.411,-11.952,-19.636,-14.398,-27.79,-10.921,-23.122,-11.802
-14.294,-15.771,-22.089,-18.149,-29.575,-15.261,-24.357,-18.136
-19.358,-20.827,-27.253,-23.528,-34.07,-20.622,-28.085,-24.855
-21.378,-23.169,-29.298,-26.467,-35.968,-23.47,-31.078,-27.408
-21.58,-23.952,-28.034,-27.7,-35.182,-24.887,-33.046,-28.708
-22.582,-25.097,-26.556,-28.121,-34.082,-25.189,-33.937,-29.312
-23.636,-25.626,-25.888,-27.481,-33.111,-24.12,-34.215,-28.025
-23.406,-25.056,-25.341,-26.623,-31.903,-23.04,-34.589,-26.511
-23.37,-25.814,-25.788,-27.536,-31.824,-23.801,-35.577,-27.445
-26.125,-30.133,-29.487,-32.032,-35.173,-27.87,-39.133,-32.254
-31.219,-35.771,-35.531,-37.971,-40.817,-32.842,-44.579,-37.249
-35.173,-38.485,-39.81,-39.962,-44.525,-33.464,-46.763,-36.56
-36.254,-38.861,-41.395,-37.929,-45.452,-30.894,-44.628,-33.329
-36.162,-40.753,-43.378,-37.72,-46.72,-31.737,-43.28,-35.619
-35.597,-43.074,-46.158,-40.29,-48.893,-35.718,-44.816,-41.148
-33.322,-41.934,-46.926,-41.002,-49.527,-36.695,-46.659,-41.999
-31.12,-39.629,-46.379,-40.061,-49.034,-35.049,-48.154,-39.486
-31.961,-40.658,-47.641,-41.343,-49.817,-35.959,-50.13,-39.518
-34.776,-43.898,-50.519,-44.84,-51.823,-40.075,-51.512,-42.477
-37.008,-46.457,-52.928,-48.207,-53.592,-44.498,-51.479,-45.622
-37.633,-47.397,-53.722,-49.667,-53.999,-46.87,-50.65,-46.961
-37.455,-46.5,-53.325,-48.705,-53.184,-46.743,-50.481,-46.79
-39.396,-45.075,-54.241,-47.209,-53.603,-45.862,-53.18,-47.679
-43.888,-45.05,-57.379,-47.014,-56.306,-45.609,-58.116,-49.699
-46.192,-45.875,-59.53,-47.583,-58.175,-45.766,-60.879,-50.175
-44.389,-46.294,-59.473,-48.969,-57.821,-47.385,-60.555,-50.195
-43.19,-47.599,-60.84,-52.689,-58.629,-52.276,-61.643,-53.546
-44.93,-50.532,-64.629,-57.651,-61.681,-58.675,-65.563,-59.658
-45.802,-52.083,-66.24,-59.769,-62.715,-61.757,-67.617,-63.52
-44.652,-50.871,-63.971,-57.939,-60.213,-60.066,-65.587,-62.567
-46.298,-51.444,-63.05,-56.51,-59.235,-58.143,-64.13,-60.401
-51.349,-55.881,-65.61,-57.567,-61.672,-58.832,-65.668,-60.06
-53.673,-58.863,-66.925,-57.861,-62.779,-59.084,-66.639,-59.741
-52.55,-58.303,-66.275,-57.224,-61.872,-57.824,-66.403,-59.238
-53.013,-58.296,-67.2,-58.494,-62.532,-57.778,-67.915,-60.843
-54.966,-59.987,-68.544,-60.638,-63.851,-59.067,-70.971,-63.84
-55.82,-62.351,-68.876,-62.497,-64.496,-60.833,-73.971,-66.475
-57.3,-66.635,-71.789,-66.233,-67.738,-64.621,-77.45,-69.819
-60.945,-72.192,-78.134,-71.051,-74.084,-69.456,-80.894,-73.58
-64.713,-76.119,-82.925,-72.919,-78.561,-71.423,-81.961,-74.589
-67.233,-78.715,-83.766,-72.358,-79.163,-71.029,-81.258,-73.695
-68.699,-81.527,-83.097,-72.881,-78.517,-71.55,-81.285,-74.414
-68.994,-83.357,-82.78,-74.448,-78.176,-73.032,-82.185,-76.351
-69.502,-83.848,-83.689,-75.829,-78.845,-74.958,-83.939,-78.299
-72.395,-85.137,-86.798,-77.595,-81.748,-77.748,-87.344,-80.774
-77.178,-88.292,-91.474,-80.352,-86.412,-80.844,-91.473,-83.729
-81.86,-92.362,-95.603,-83.519,-90.59,-83.535,-94.425,-86.242
-84.509,-94.882,-96.835,-84.828,-91.859,-84.471,-95.17,-86.312
-83.01,-93.15,-94.305,-82.868,-89.382,-82.561,-94.365,-83.536
