EEG 1,EEG 2,EEG 3,EEG 4,EEG 5,EEG 6,EEG 7,EEG 8
14.914,18.738,-10.548,-32.542,3.785,-1.47,-31.976,-49.694
12.394,43.826,-4.98,-29.395,2.761,-1.473,-31.544,-48.707
17.074,93.022,28.351,12.733,7.598,3.135,5.937,-7.57
19.588,100.013,41.034,38,10.729,5.513,30.548,19.536
15.407,58.515,27.229,31.035,8.273,2.177,31.086,19.165
11.651,37.472,36.723,46.545,5.672,-0.952,54.432,41.97
13.586,79.198,88.807,107.539,7.458,1.778,113.667,102.859
16.155,141.878,134.919,154.934,9.524,6.184,153.739,143.532
12.18,170.626,122.82,142.419,5.635,4.753,135.819,125.596
4.174,166.765,67.998,104.808,-1.481,-0.753,93.939,86.901
2.135,153.936,37.737,96.78,-2.116,-1.288,84.369,80.593
8.469,130.914,65.787,119.921,6.183,5.39,114.819,108.493
13.191,90.933,109.937,132.947,13.549,10.657,140.597,128.358
9.892,50.745,106.295,115.037,12.339,8.322,128.45,113.591
6.156,38.03,60.527,94.217,8.81,4.77,102.718,89.948
9.599,62.841,37.652,97.953,11.279,8.149,99.384,90.322
15.048,99.609,58.933,108.287,16.159,14.501,107.608,101.602
13.946,104.832,78.995,95.422,15.496,14.564,97.801,93.179
8.329,76.436,64.093,69.954,10.702,9.236,75.836,70.048
7.782,67.277,42.986,70.35,10.558,8.733,74.384,66.692
13.599,95.73,50.783,97.24,16.872,15.783,96.028,88.317
15.918,99.641,65.937,102.325,20.841,20.05,102.046,93.921
9.921,46.59,56.616,67.252,17.228,15.104,75.022,64.822
4.168,8.242,37.401,41.706,12.644,9.286,51.837,43.344
7.88,35.052,41.76,66.649,15.027,11.992,70.546,67.959
15.747,58.05,62.152,101.749,21.195,18.467,105.789,104.856
15.027,20.723,58.019,86.341,21.415,18.122,100.21,94.7
6.293,-14.434,28.687,40.619,14.706,11.985,58.517,48.582
2.862,16.539,19.775,34.921,11.216,10.376,44.515,32.507
9.102,70.433,45.917,73.846,15.795,15.352,73.479,60.624
13.815,69.648,56.826,82.981,18.732,16.754,80.842,68.941
9.679,14.981,18.727,32.122,12.732,9.846,33.113,24.175
4.839,-24.456,-17.684,-9.423,6.937,4.685,-7.945,-12.666
7.323,-10.479,-0.704,10.683,10.735,9.235,11.37,9.104
11.606,16.874,33.513,39.431,17.046,15.656,42.871,38.238
8.943,3.237,17.697,6.305,14.354,12.803,14.155,4.446
2.277,-39.031,-43.263,-61.232,5.563,3.825,-51.546,-65.256
1.898,-60.652,-75.892,-82.445,3.122,1.112,-72.915,-87.959
7.61,-64.799,-50.307,-56.051,8.511,6.045,-45.628,-58.308
7.274,-96.725,-21.215,-61.01,9.865,6.831,-47.071,-55.192
-2.711,-157.538,-41.37,-122.714,2.426,-1.041,-105.274,-110.118
-10.133,-192.847,-94.62,-169.503,-3.382,-6.793,-155.369,-157.506
-7.298,-175.909,-125.239,-153.979,-0.228,-2.901,-148.669,-147.658
-3.829,-151.741,-114.225,-127.908,3.716,1.812,-123.621,-124.571
-10.174,-150.26,-84.294,-135.124,-1.551,-3.423,-121.069,-131.35
-20.954,-125.779,-50.858,-128.901,-12.476,-14.574,-111.541,-128.127
-23.526,-61.051,-22.119,-69.921,-16.998,-19.242,-63.274,-75.874
-17.359,-29.787,-11.294,-13.821,-12.271,-15.187,-13.975,-21.343
-15.292,-74.395,-26.608,-29.359,-10.053,-13.362,-22.202,-30.494
-23.256,-122.855,-47.703,-83.824,-17.97,-19.881,-69.039,-78.944
-31.271,-95.94,-36.578,-82.467,-26.924,-26.802,-70.413,-78.572
-30.386,-22.971,1.341,-13.491,-27.001,-26.482,-8.837,-13.623
-26.497,4.382,16.514,26.825,-23.643,-24.259,27.442,26.524
-29.373,-41.087,-13.594,-17.213,-27.108,-28.648,-16.293,-15.425
-36.428,-91.192,-51.615,-78.513,-34.656,-35.925,-75.503,-77.202
-37.885,-83.576,-58.122,-81.622,-36.223,-36.476,-78.429,-82.263
-33.431,-49.917,-50.382,-53.763,-32.263,-31.846,-53.141,-55.632
-32.942,-64.049,-64.269,-66.653,-32.52,-32.503,-64.823,-68.759
-39.916,-129.946,-96.826,-121.262,-38.865,-40.165,-112.211,-121.485
-44.79,-177.738,-110.656,-152.054,-41.722,-44.226,-138.028,-148.144
-40.986,-169.754,-93.19,-133.77,-36.332,-39.643,-119.797,-125.372
-36.342,-151.461,-87.685,-121.333,-31.379,-36.011,-105.617,-110.252
-39.932,-170.236,-122.904,-160.318,-35.392,-41.321,-139.525,-149.603
-47.846,-201.642,-162.205,-212.915,-43.88,-49.582,-187.956,-203.232
-50.771,-192.253,-153.268,-210.549,-47.55,-52.073,-182.675,-199.315
-49.239,-145.533,-105.577,-154.992,-46.99,-50.925,-126.952,-142.307
-51.289,-128.292,-88.666,-125.131,-49.38,-53.634,-101.716,-113.48
-57.973,-167.72,-126.484,-162.908,-55.329,-60.256,-142.574,-150.815
-61.563,-199.95,-161.274,-209.248,-58.724,-64.089,-186.242,-194.805
-58.06,-174.903,-143.296,-197.932,-56.722,-62.153,-171.882,-183.611
-54.659,-134.623,-101.552,-152.379,-54.937,-60.189,-128.386,-140.55
-59.019,-138.93,-100.07,-140.763,-59.691,-64.255,-123.621,-130.996
-66.535,-175.091,-136.823,-171.676,-67.532,-70.723,-161.325,-163.459
-67.939,-181.522,-152.998,-187.691,-70.041,-71.713,-181.703,-182.684
-63.991,-144.123,-127.722,-159.774,-66.647,-67.53,-156.718,-159.882
-63.751,-120.581,-102.436,-129.97,-65.437,-66.541,-127.996,-133.385
-70.134,-145.94,-115.159,-139.966,-70.654,-72.09,-137.502,-142.644
-75.614,-174.291,-139.367,-164.996,-76.381,-77.526,-161.842,-165.103
-74.082,-158.373,-132.412,-157.506,-75.941,-76.875,-154.201,-155.597
-69.71,-123.644,-107.998,-128.514,-72.111,-73.127,-125.748,-126.165
-70.345,-115.967,-107.409,-126.23,-73.075,-73.423,-125.491,-125.912
-75.313,-133.847,-130.006,-150.707,-78.739,-78.081,-152.986,-152.517
-76.451,-139.027,-129.964,-152.05,-80.032,-79.655,-154.493,-152.626
-71.911,-115.232,-99.64,-117.361,-74.756,-75.711,-117.619,-116.445
-69.718,-104.438,-89.7,-101.451,-71.681,-73.554,-100.79,-101.728
-75.072,-142.734,-120.798,-138.701,-76.151,-78.257,-137.415,-139.401
-81.768,-186.314,-152.905,-183.609,-81.862,-83.899,-180.81,-183.324
-81.045,-173.32,-144.196,-178.412,-80.59,-82.245,-174.112,-178.862
-75.633,-126.864,-112.992,-140.311,-75.294,-76.439,-135.185,-142.524
-76.461,-117.208,-105.252,-130.377,-75.877,-76.838,-124.144,-132.274
-85.248,-141.971,-112.973,-146.563,-83.271,-84.28,-139.063,-146.527
-90.697,-132.924,-95.823,-128.286,-87.329,-88.002,-122.875,-128.149
-86.498,-76.94,-55.583,-70.436,-83.291,-83.246,-69.324,-72.388
-81.347,-45.008,-41.68,-43.411,-80.002,-79.702,-43.259,-46.775
-83.059,-77.803,-71.832,-78.781,-84.227,-84.275,-76.062,-81.462
-86.301,-109.767,-92.178,-108.384,-89.208,-89.196,-104.933,-110.153
-83.288,-68.465,-62.245,-70.064,-86.833,-85.989,-70.942,-73.926
-77.223,5.386,-17.613,-10.147,-81.282,-79.714,-16.314,-18.564
-77.604,20.415,-18.043,-6.127,-82.343,-80.892,-13.312,-16.496
-83.862,-29.257,-62.336,-49.528,-88.654,-88.118,-53.774,-55.778
-84.539,-69.646,-91.309,-75.117,-88.704,-89.206,-76.233,-74.516
-76.529,-62.512,-76.986,-63.464,-79.978,-80.685,-63.052,-59.309
-72.161,-44.013,-53.163,-54.636,-74.918,-74.79,-52.756,-50.248
-78.204,-50.889,-61.176,-73.972,-80.825,-79.783,-72.092,-69.369
-82.924,-68.968,-90.473,-95.527,-86.431,-85.453,-96.644,-90.369
-76.791,-71.731,-98.99,-91.015,-81.032,-80.875,-94.016,-85.467
-68.939,-70.792,-89.531,-83.187,-72.956,-73.067,-84.168,-76.979
-71.392,-90.589,-97.872,-108.298,-75.093,-74.382,-106.09,-101.197
-80.445,-114.862,-125.631,-145.161,-83.893,-82.079,-143.865,-138.902
-82.461,-103.679,-131.205,-138.807,-85.053,-82.559,-143.644,-137.379
-74.807,-65.381,-97.146,-90.247,-76.302,-73.579,-100.717,-95.019
-70.432,-59.872,-73.663,-67.451,-70.983,-68.293,-78.625,-74.093
-76.697,-98.435,-92.968,-97.35,-76.131,-73.32,-106.656,-101.704
-83.247,-119.065,-113.676,-117.252,-81.9,-78.375,-127.621,-120.477
-79.354,-94.357,-96.738,-85.303,-78.317,-73.801,-99.333,-89.031
-71.676,-71.264,-70.126,-53.588,-71.543,-66.54,-68.388,-55.656
-72.345,-85.718,-83.642,-77.494,-73.305,-68.123,-90.835,-77.124
-78.273,-105.688,-117.913,-119.444,-80.848,-75.104,-134.632,-121.059
-76.987,-84.349,-112.429,-105.961,-81.443,-75.202,-127.52,-113.72
-68.03,-42.988,-71.898,-53.299,-73.702,-67.743,-79.343,-64.751
-64.7,-49.726,-65.155,-51.442,-70.299,-64.776,-74.102,-59.548
-71.884,-108.38,-117.671,-118.532,-76.74,-70.753,-135.073,-120.232
-77.567,-139.987,-160.944,-165.889,-82.31,-75.327,-181.622,-166.348
-73.336,-105.951,-137.416,-134.906,-78.309,-71.32,-153.559,-139.805
-67.416,-63.514,-85.431,-78.501,-71.523,-65.802,-96.545,-85.228
-69.986,-59.095,-65.962,-61.406,-72.523,-67.852,-74.934,-64.975
-76.662,-63.257,-74.94,-67.035,-78.576,-74.091,-77.894,-69.332
-76.384,-35.822,-62.101,-45.913,-78.617,-74.357,-56.345,-51.306
-69.542,8.246,-26.669,-3.407,-71.993,-68.153,-15.012,-11.199
-65.889,17.851,-24.793,2.523,-68.439,-64.57,-13.708,-4.325
-68.595,-15.096,-62.445,-40.335,-71.313,-67.396,-60.758,-46.857
-70.528,-40.669,-78.545,-65.519,-73.028,-69.847,-84.202,-74.235
-66.462,-23.56,-40.057,-27.414,-68.322,-65.804,-41.789,-36.507
-62.261,10.893,1.445,26.885,-63.458,-60.219,11.073,19.566
-64.801,12.581,-11.925,25.492,-65.477,-61.044,4.579,17.702
-69.251,-13.706,-45.509,-16.157,-69.855,-65.4,-36.753,-26.274
-66.283,-7.041,-31.335,-15.776,-67.29,-63.223,-33.497,-27.432
-57.586,46.379,22.886,43.851,-58.576,-53.782,22.61,31.06
-54.189,78.915,45.279,84.019,-54.488,-48.811,55.562,71.362
-59.31,48.927,11.532,56.241,-59.471,-54.358,27.028,47.641
-63.995,16.067,-12.778,23.987,-65.296,-61.126,0.156,19.479
-60.365,50.411,23.544,60.003,-63.376,-58.919,36.957,52.585
-52.386,117.316,82.592,128.085,-56.514,-51.523,100.254,114.398
-50.694,132.588,92.832,144.123,-54.821,-50.216,114.161,129.022
-56.014,95.474,43.979,100.104,-60.148,-55.548,69.788,85.991
-57.04,77.033,-1.527,61.298,-62.371,-56.32,26.405,44.724
-48.99,94.936,3.641,66.237,-55.317,-48.219,27.291,47.508
-42.152,96.689,35.23,82.117,-47.757,-41.605,47.956,66.932
-45.138,62.331,36.973,67.929,-49.58,-44.448,41.153,57.472
-50.13,33.299,3.706,37.55,-54.172,-48.382,10.68,26.968
-45.832,39.107,-13.262,31.432,-49.392,-43.069,1.541,18.358
-36.488,52.706,1.85,45.724,-38.973,-33.963,18.576,32.867
-34.988,36.766,9.364,37.687,-36.342,-33.132,17.44,28.695
-42.032,5.52,-13.093,4.131,-42.577,-39.908,-12.742,-0.309
-44.214,7.038,-30.283,-4.044,-44.594,-41.413,-23.102,-7.187
-35.349,49.451,-7.45,33.567,-36.374,-32.49,11.47,27.84
-27.063,75.646,18.645,60.981,-28.855,-24.274,38.186,52.628
-29.68,46.277,4.034,36.012,-31.416,-26.215,13.93,28.021
-35.357,11.595,-22.453,8.618,-36.367,-30.796,-14.924,0.857
-30.843,33.195,-10.082,37.643,-31.53,-25.659,9.826,25.729
-19.915,78.833,28.089,86.909,-21.04,-14.773,56.931,69.479
-17.936,73.17,31.861,80.886,-19.482,-13.108,53.688,63.24
-25.144,25.206,0.561,33.17,-26.697,-20.867,10.782,21.132
-25.715,19.36,-2.8,31.037,-27.548,-22.361,9.572,23.796
-15.051,72.312,34.594,86.106,-17.803,-12.258,60.091,78.303
-7.276,99.301,50.062,107.164,-10.935,-3.833,77.898,96.955
-10.794,60.397,10.364,55.315,-14.763,-6.07,28.697,45.709
-15.13,29.932,-23.241,14.387,-19.004,-9.866,-8.182,7.348
-9.417,65.767,6.929,52.104,-13.495,-5.024,29.522,46.157
0.621,111.581,57.673,107.76,-4.074,3.231,84.154,101.436
2.656,97.956,59.356,97.677,-2.231,3.801,77.87,91.501
-2.302,58.668,26.227,54.99,-6.911,-1.555,39.825,49.264
-1.521,70.892,31.869,69.633,-6.311,-0.769,53.021,62.197
7.714,127.657,83.383,136.332,2.825,8.064,115.292,125.29
13.555,148.349,105.044,160.587,10.269,13.977,140.301,149.792
10.654,110.27,72.825,114.839,10.003,12.14,101.38,110.171
9.169,86.274,54.407,84.204,9.552,10.867,76.435,84.357
16.329,128.34,94.29,126.41,15.571,16.719,118.98,127.247
23.797,183.115,138.908,182.142,21.89,23.858,171.396,185.803
23.082,168.86,123.444,167.562,21.594,25.078,151.954,176.312
19.883,98.907,75.338,96.027,19.67,23.796,76.95,103.8
23.312,64.744,58.953,58.696,23.874,27.184,40.236,56.107
31.712,100.796,81.175,92.834,32.204,34.549,77.713,76.4
36.722,141.812,98.891,132.06,36.399,38.564,119.604,106.412
36.227,138.926,94.909,126.923,34.247,36.432,115.405,100.962
35.86,132.728,106.28,129.161,32.051,33.855,116.778,109.744
39.577,169.797,152.946,187.888,35.166,36.703,170.895,174.467
44.455,222.176,197.809,253.108,40.92,42.998,229.33,241.269
45.369,239.869,199.666,259.721,42.746,45.848,232.78,247.175
43.406,230.123,165.625,228.071,40.306,44.249,201.891,212.943
45.094,232.287,139.619,216.088,40.486,45.004,190.118,198.064
52.068,247.533,148.641,231.606,46.837,51.327,206.98,216.074
57.691,242.876,174.815,238.203,53.683,57.193,219.118,229.121
57.138,211.492,176.944,220.121,54.7,57.4,203.101,212.115
55.448,184.578,145.765,200.808,53.203,56.348,177.621,188.615
59.775,186.343,121.122,199.449,56.473,60.607,171.884,187.298
67.786,203.268,126.572,201.217,63.062,67.527,177.808,193.63
71.027,199.146,134.578,180.631,65.274,69.052,164.214,174.489
67.852,166.73,119.029,145.768,62.276,64.956,132.215,136.633
66.172,148.399,102.863,136.121,61.883,63.826,121.092,124.398
70.907,166.515,114.963,158.217,67.908,69.413,142.591,147.77
75.871,176.794,126.662,164.268,73.584,74.792,151.301,157.67
74.677,144.448,103.302,128.019,72.557,73.993,117.516,124.149
71.87,107.775,74.555,94.514,69.452,71.464,83.886,90.581
75.27,117.392,89.081,115.711,72.689,74.869,104.433,110.239
82.36,153.562,130.575,164.159,80.274,82.431,152.612,157.783
83.717,155.135,132.366,165.893,82.212,84.995,151.926,159.509
78.626,115.26,86.58,114.732,77.297,80.9,97.681,108.406
76.793,95.264,63.492,86.727,75.833,79.325,70.466,80.22
82.677,129.543,98.963,123.132,82.844,85.674,110.073,116.133
87.857,161.332,136.872,161.922,89.555,92.205,151.247,155.648
85.391,131.012,116.565,138.175,88.039,90.656,130.791,135.857
82.18,81.16,71.124,90.201,84.55,86.727,87.911,92.904
87.312,89.776,73.359,93.684,88.828,90.854,93.879,96.806
96.088,141.391,118.519,139.404,97.33,99.819,137.403,137.731
96.846,150.195,134.531,149.442,98.382,101.007,145.88,144.857
90.274,101.569,94.282,104.313,91.655,93.815,102.679,102.188
89.32,76.918,61.228,75.513,89.566,91.512,74.699,75.642
98.328,111.701,86.683,104.563,97.092,99.074,101.771,102.595
105.51,137.367,126.125,134.571,103.433,104.891,132.163,130.934
101.592,107.066,120.404,112.345,99.628,100.261,114.376,112.91
94.266,75.895,88.304,80.553,93.076,93.766,84.237,86.237
95.733,104.008,88.523,100.813,95.52,97.107,99.294,104.578
103.494,151.317,120.943,143.507,104.125,105.896,137.344,141.801
105.02,143.908,132.975,139.827,106.432,107.216,137.916,138.028
98.546,103.365,121.79,105.969,100.891,100.914,112.725,108.213
95.919,111.469,133.233,119.398,99.363,99.513,127.264,120.919
102.267,164.152,169.709,179.812,106.845,106.994,181.248,176.041
107.215,176.655,181.391,201.703,112.61,111.933,202.083,197.302
103.339,140.865,156.933,168.563,108.756,107.233,176.232,168.393
98.153,146.213,156.02,169.215,102.681,101.225,179.943,168.902
100.716,223.357,211.228,243.317,103.841,103.069,246.079,237.002
106.947,285.359,266.24,307.135,108.994,108.741,300.952,297.325
106.215,263.74,256.118,286.428,108.212,108.011,280.11,278.675
99.268,215.083,201.709,232.817,101.633,101.144,230.046,225.611
97.426,226.438,179.537,235.589,99.413,98.496,231.854,223.575
103.672,279.42,214.812,284.873,104.581,103.162,278.32,269.304
107.962,287.802,252.55,298.783,107.914,106.16,295.133,287.509
103.964,236.667,236.884,256.481,103.507,102.039,259.797,252.735
98.655,202.239,187.961,226.797,98.436,97.793,231.164,224.11
100.398,231.902,173.187,254.977,100.74,100.784,252.478,246.509
106.376,276.486,208.277,293.256,106.685,106.654,285.825,280.924
107.401,268.012,235.936,276.801,106.845,105.817,273.481,267.926
101.857,219.227,213.915,222.635,100.762,98.503,226.341,219.173
98.591,199.245,177.603,203.891,98.017,95.108,207.65,199.83
102.506,223.648,177.908,235.5,102.805,99.421,234.072,227.296
106.218,238.829,199.938,254.093,107.134,103.066,250.059,244.925
102.825,216.681,199.662,223.707,104.337,100.237,220.21,215.707
97.005,188.173,177.717,188.334,99.101,95.887,185.172,180.335
96.847,185.945,171.561,199.754,99.116,96.75,195.833,190.874
100.353,196.648,188.98,236.93,102.635,100.662,231.556,226.774
98.553,181.376,191.763,235.739,101.46,99.763,230.014,224.974
90.977,142.324,162.976,187.778,94.79,93.491,184.537,179.107
87.203,131.59,139.153,155.289,90.945,90.322,153.952,149.035
91.655,169.725,151.205,175.923,94.453,94.612,172.03,168.222
96.241,199.446,170.933,203.303,98.584,98.943,196.465,193.066
93.091,169.844,155.293,183.264,95.746,95.64,178.038,174.087
86.973,123.902,120.06,140.388,89.587,89.289,138.704,133.462
87.083,131.5,113.951,133.582,88.7,88.839,132.664,125.54
92.21,171.53,138.751,161.212,92.753,93.142,158.332,150.265
92.329,162.772,143.994,163.24,92.705,92.808,159.734,153.119
84.348,98.032,107.209,119.49,85.213,85.001,118.999,114.757
77.962,58.861,76.545,86.917,79.129,78.717,90.209,87.043
80.522,86.109,92.146,103.679,81.248,80.499,108.036,104.771
84.826,120.803,116.792,121.74,84.316,83.236,126.032,122.449
80.911,101.018,96.224,86.62,79.203,78.046,93.112,88.662
72.646,51.068,46.116,30.724,70.871,69.381,40.313,34.002
71.399,34.105,29.893,23.929,70.526,68.139,33.788,25.994
76.247,51.462,57.055,56.512,76.294,73.461,64.337,57.042
74.72,46.254,69.536,51.469,75.65,73.42,59.565,53.615
64.567,1.719,39.081,-6.291,66.648,65.255,5.962,0.241
58.698,-28.622,4.988,-41.375,61.848,60.898,-26.867,-32.383
63.132,-14.065,2.603,-16.228,67.008,66.103,-5.478,-9.327
66.207,-6.042,10.103,1.11,70.444,69.235,8.894,6.205
59.004,-46.647,2.167,-42.959,62.99,61.269,-29.545,-34.355
50.427,-88.109,-2.177,-91.034,53.701,51.484,-68.897,-77.706
51.428,-73.768,8.588,-71.379,54.184,51.929,-50.22,-57.005
56.521,-37.914,7.864,-21.964,59.224,57.605,-10.852,-7.595
53.315,-52.287,-19.522,-33.148,55.865,54.756,-25.823,-19.282
43.951,-104.885,-43.557,-97.764,45.494,44.103,-82.143,-86.333
41.149,-116.015,-34.979,-123.273,41.087,39.126,-98.647,-112.86
46.143,-73.093,-19.775,-86.894,45.014,42.869,-61.536,-76.173
47.048,-55.551,-39.78,-69.783,45.798,43.762,-47.367,-62.203
39.037,-102.166,-85.237,-119.377,38.028,35.212,-96.059,-118.88
31.915,-149.705,-105.948,-174.134,31.346,26.16,-146.624,-178.854
33.79,-141.245,-82.406,-168.283,34.002,26.7,-139.41,-171.583
38.599,-111.883,-61.346,-134.435,39.127,31.97,-110.527,-133.008
36.229,-124.77,-87.283,-143.021,36.101,30.495,-125.239,-137.315
27.881,-173.485,-130.56,-188.409,27.547,23.138,-169.745,-176.414
23.576,-195.41,-131.074,-204.534,24.594,20.674,-180.056,-184.199
25.623,-174.628,-95.088,-181.071,28.207,24.242,-153.599,-156.396
25.338,-170.51,-94.907,-180.925,28.361,23.656,-152.399,-158.682
18.995,-216.896,-151.069,-229.131,21.937,16.011,-196.28,-209.62
13.94,-263.78,-193.453,-272.252,16.789,10.287,-234.376,-249.024
16.046,-257.551,-168.114,-266.601,18.241,12.624,-228.859,-236.651
20.463,-224.921,-118.906,-242.656,21.635,17.442,-208.377,-211.23
18.92,-228.647,-130.296,-252.269,19.569,15.924,-219.325,-226.455
12.247,-270.114,-196.689,-287.943,13.068,9.101,-254.409,-268.063
8.849,-295.656,-224.45,-300.224,10.496,6.389,-267.612,-279.058
11.977,-282.531,-176.751,-278.115,14.731,11.461,-247.902,-250.114
15.033,-266.292,-127.847,-265.889,17.825,16.125,-237.489,-234.962
11.917,-280.071,-155.581,-292.49,13.037,12.369,-264.791,-266.383
6.763,-305.117,-225.851,-326.945,5.957,4.981,-298.184,-305.786
7.492,-302.133,-242.082,-324.564,6.129,4.3,-293.231,-301.918
12.791,-263.861,-186.262,-282.265,11.97,9.714,-249.188,-256.013
13.082,-217.294,-129.399,-233.866,12.679,10.341,-201.748,-209.312
6.099,-190.044,-122.286,-208.829,5.718,3.383,-181.503,-191.717
1.734,-178.474,-132.861,-199.568,1.523,-0.738,-178.316,-188.446
5.855,-159.123,-116.186,-180.189,5.897,3.622,-160.562,-167.63
11.013,-144.24,-96.158,-163.683,10.942,8.184,-140.765,-144.563
9.219,-171.529,-113.56,-189.292,8.97,4.987,-161.792,-163.757
4.086,-218.876,-150.145,-238.294,3.857,-1.187,-206.85,-209.511
4.541,-217.34,-152.22,-241.113,3.941,-0.347,-209.04,-213.939
10.45,-171.047,-115.51,-192.066,9.13,6.848,-164.272,-169.811
12.123,-161.49,-95.568,-168.778,10.917,9.534,-145.126,-149.573
5.833,-207.176,-110.198,-202.171,5.939,4.237,-177.548,-182.496
0.809,-224.253,-114.279,-218.187,2.548,0.983,-192.152,-199.479
4.918,-167.277,-82.919,-166.008,7.68,6.905,-145.403,-152.737
11.293,-109.82,-55.387,-112.005,14.008,13.796,-100.72,-104.408
9.201,-118.347,-69.397,-122.187,11.276,11.088,-115.022,-115.87
1.889,-138.791,-84.759,-142.031,3.404,2.97,-133.684,-135.006
1.206,-93.507,-43.759,-90.879,2.206,1.776,-84.757,-86.72
7.279,-17.808,26.712,-6.789,8.094,8.196,-6.189,-6.931
8.088,-2.841,44.333,11.83,9.284,9.936,12.948,12.955
0.858,-43.142,-8.745,-29.254,2.087,2.765,-22.719,-23.433
-2.592,-45.631,-49.037,-33.224,-2.303,-1.701,-26.769,-27.669
4.005,16.7,-9.647,24.176,3.054,3.732,25.374,25.246
10.535,61.169,60.891,60.935,8.911,9.007,61.981,62.087
7.099,29.688,66.831,30.067,5.427,4.329,36.334,36.635
0.596,-24.938,-1.35,-13.51,-1.047,-2.299,-7.376,-4.995
3.557,-29.989,-54.291,-14.06,1.753,1.836,-14.865,-9.785
13.125,-2.228,-36.244,2.286,11.458,12.152,0.06,4.62
14.823,-10.279,1.13,-18.445,14.203,13.09,-9.597,-9.063
6.479,-55.703,-8.072,-64.857,7.337,3.672,-44.026,-46.495
2.826,-69.729,-44.24,-75.564,4.162,-0.326,-56.31,-57.526
10.609,-41.524,-51.901,-46.512,10.965,7.181,-36.621,-34.672
17.038,-43.519,-39.934,-43.419,16.498,13.316,-35.023,-32.509
12.514,-94.752,-46.923,-86.14,12.684,9.676,-71.833,-71.95
6.127,-121.143,-62.964,-112.741,7.785,5.306,-97.698,-99.948
8.844,-84.093,-56.613,-84.798,10.961,9.438,-76.7,-77.853
15.977,-47.058,-36.762,-53.288,17.553,16.37,-49.514,-47.944
16.573,-74.053,-43.521,-76.813,18.018,15.944,-68.299,-65.643
11.222,-127.484,-73.941,-124.721,13.234,10.124,-108.649,-107.444
9.611,-128.52,-78.401,-126.176,11.848,9.003,-109.021,-110.152
14.646,-81.495,-46.076,-83.58,16.568,14.8,-71.33,-73.563
18.788,-64.364,-25.008,-67.497,20.705,19.307,-57.874,-59.576
16.971,-101.511,-49.665,-102.873,19.052,17.528,-91.394,-92.313
14.416,-129.642,-84.636,-132.551,15.993,15.053,-120.32,-121.067
17.853,-106.267,-75.61,-111.073,18.597,18.287,-100.878,-102.103
24.802,-71.013,-35.444,-71.481,25.435,24.601,-62.34,-64.633
26.459,-77.148,-22.346,-72.366,27.887,26.387,-61.953,-64.64
21.328,-112.386,-53.296,-109.665,23.69,22.451,-97.794,-98.815
18.648,-118.322,-78.064,-123.295,21.175,20.178,-111.158,-110.197
23.536,-77.576,-57.169,-90.984,25.144,23.605,-79.625,-79.262
28.501,-41.495,-25.32,-61.356,28.79,26.462,-50.78,-52.467
26.292,-55.725,-27.55,-76.686,25.902,22.956,-64.945,-66.937
21.803,-93.276,-51.746,-107.862,21.5,18.27,-93.717,-94.36
23.864,-94.503,-52.297,-97.963,23.866,21.115,-84.339,-84.007
30.731,-57.807,-20.182,-51.386,31.38,29.518,-41.975,-41.73
32.194,-38,0.997,-29.186,34.286,32.528,-22.543,-23.544
25.802,-53.415,-6.056,-49.817,29.369,26.989,-41.534,-44.839
22.061,-54.633,-6.09,-55.654,25.565,23.09,-46.02,-51.326
28.233,-7.707,23.511,-8.708,30.139,28.06,-1.858,-7.623
35.611,40.31,53.53,42.033,36.427,34.016,46.76,40.753
33.115,36.411,48.269,45.879,34.5,31.21,53.996,45.561
24.841,21.734,36.816,41.791,27.096,23.961,53.491,41.605
22.998,69.247,74.583,91.553,24.959,23.18,98.925,87.102
28.89,151.552,144.912,166.232,29.864,28.915,165.274,157.665
31.55,176.864,169.935,184.607,31.773,30.525,180.658,176.677
26.345,141.556,122.457,145.99,25.921,24.604,141.875,138.931
22.989,132.016,76.501,132.551,21.762,21.048,124.563,122.428
28.662,178.258,106.229,179.51,26.971,26.391,168.536,167.526
35.037,212.111,177.194,224.248,33.662,32.402,217.99,216.375
32.173,185.819,193.228,210.216,31.465,29.421,211.86,207.401
25.561,146.908,134.236,174.561,25.147,22.427,178.504,171.474
26.631,160.339,88.932,181.813,26.207,22.813,182.165,175.575
33.254,209.755,122.092,219.272,33.112,29.261,216.797,212.2
33.466,224.4,178.356,220.454,33.769,29.636,221.592,214.838
25.793,190.247,174.933,178.22,25.99,21.532,187.669,173.014
22.366,172.288,129.832,164.927,22.096,17.439,176.811,157.689
29.134,204.028,121.744,212.951,29.097,24.507,215.394,203.38
35.6,231.21,159.823,254.005,36.795,32.408,246.061,244.844
31.366,208.229,183.781,231.11,34.022,29.943,223.767,225.811
22.3,177.177,168.837,192.64,25.737,22.4,188.812,189.397
21.107,202.429,153.571,211.46,24.154,22.313,201.571,201.749
27.201,264.999,164.019,264.076,29.022,28.814,245.21,243.612
28.334,283.586,175.249,271.439,28.991,29.582,251.587,246.099
21.897,239.903,171.551,233.331,21.949,22.757,214.668,210.092
19.08,208.004,175.232,225.528,18.768,20.126,200.515,205.1
25.186,234.872,196.409,271.863,24.32,26.434,238.522,250.764
30.172,265.888,207.73,305.234,28.825,31.024,272.935,281.623
25.319,244.118,188.809,275.526,23.962,25.557,251.093,251.649
17.407,210.571,167.022,228.87,16.371,17.431,208.559,207.238
17.012,230.448,179.402,235.6,16.458,17.192,214.217,215.444
21.73,280.784,210.872,281.525,21.751,22.082,260.292,261.331
21.25,288.031,212.294,290.343,21.568,21.623,274.16,271.202
15.076,248.768,180.97,248.504,15.278,14.943,239.541,232.07
13.537,234.662,172.514,228.161,13.508,11.969,222.908,214.126
20.074,273.609,208.216,264.727,19.535,16.985,256.861,250.864
24.971,302.725,237.446,299.294,23.604,21.447,287.518,283.596
21.184,271.323,222.6,279.56,19.595,17.738,269.664,264.233
15.143,226.374,196.145,244.533,14.276,11.484,238.176,232.819
15.684,239.78,206.138,257.992,15.863,12.478,248.391,246.937
20.447,293.301,242.194,305.258,22.042,18.98,288.634,289.321
20.633,308.125,255.459,319.744,23.813,20.834,299.932,299.392
14.868,269.898,236.117,289.94,18.352,15.689,271.367,270.49
10.903,248.453,223.946,275.001,13.378,12.177,257.92,258.242
13.6,284.115,244.126,307.43,15.49,15.678,289.949,289.954
17.243,322.982,266.545,338.991,19.312,19.621,321.246,318.94
14.627,306.905,256.576,320.913,16.981,16.751,304.708,300.284
8.905,267.497,234.381,283.758,11.801,11.091,269.781,264.039
9.506,272.885,241.925,289.864,12.879,11.55,277.629,270.73
17.324,317.521,275.357,335.122,20.151,18.022,324.894,317.659
21.768,332.234,287.142,351.98,23.302,20.859,344.271,337.805
17.429,302.256,264.333,319.648,17.998,15.849,311.84,306.723
13.064,290.305,253.624,299.392,13.233,11.017,287.626,284.641
16.381,325.868,281.081,331.742,16.515,13.457,317.285,316.096
21.381,357.627,308.281,370.155,21.805,18.257,358.523,356.333
19.237,340.264,294.734,357.497,19.883,16.883,350.962,345.686
13.373,306.724,265.48,318.976,13.667,10.953,314.189,307.704
14.072,318.813,276.886,323.952,13.697,10.177,316.684,312.135
21.289,370.984,322.765,374.373,20.44,16.649,363.954,360.806
23.423,391.5,336.06,395.407,22.242,19.774,385.482,380.498
15.969,351.733,295.921,355.089,14.689,13.392,348.975,342.426
10.036,316.565,268.383,322.587,9.391,7.767,317.213,313.737
14.371,341.903,302.739,354.97,15.106,12.776,344.646,345.637
20.817,383.598,346.997,400.731,23.029,20.712,385.44,386.559
18.477,373.341,333.349,388.542,21.425,19.485,372.885,371.472
11.745,330.376,290.229,346.599,14.427,12.703,333.331,330.903
12.526,328.862,296.137,355.025,14.769,13.209,342.289,339.876
19.924,376.074,351.025,411.131,22.243,21.232,395.313,392.972
21.607,398.93,373.266,432.253,24.098,24.128,413.343,412.262
15.188,368.121,335.79,395.045,17.504,18.582,376.596,377.593
12.074,348.006,308.196,372.238,13.906,15.674,354.432,356.221
18.052,386.888,338.95,409.669,19.071,21.318,387.267,388.262
24.46,435.123,381.963,452.747,24.565,27.052,423.237,423.743
22.853,426.8,376.333,439.375,22.426,24.474,407.817,409.412
17.562,388.377,344.909,401.368,16.893,17.963,374.149,377.639
17.727,394.583,354.071,411.918,16.996,17.487,388.831,393.044
22.95,443.277,403.144,467.08,22.939,23.523,443.276,446.186
23.755,457.795,425.5,489.536,25.078,25.785,464.778,465.915
17.397,422.114,401.182,456.953,19.321,19.901,435.173,435.66
13.869,414.534,392.503,440.192,15.221,15.448,420.749,421.098
19.391,470.875,432.635,479.597,19.712,19.155,457.913,457.751
25.534,519.731,465.382,519.079,24.538,23.304,494.413,493.905
23.53,501.563,448.288,507.458,21.213,20.368,483.959,483.7
18.671,461.699,428.561,483.3,16.218,16.129,463.499,463.954
20.718,473.341,463.593,507.125,19.469,19.139,488.472,490.03
27.03,525.392,521.954,561.227,27.177,26.063,539.11,541.592
27.218,548.861,530.587,579.918,28.433,27.069,551.933,554.356
20.978,529.952,495.641,555.694,22.742,21.688,524.159,525.078
18.027,523.3,490.426,546.087,19.328,18.983,515.191,513.887
21.822,553.901,536.023,576.341,22.078,22.676,546.91,545.501
24.812,576.659,570.44,602.494,24.87,25.921,572.995,574.677
21.393,555.186,549.761,591.157,22.716,23.385,561.451,565.695
16.583,524.37,518.867,573.746,19.387,19.646,543.952,547.946
17.773,537.29,539.45,591.335,20.487,21.175,559.205,563.471
23.31,581.016,594.418,626.088,24.283,25.778,590.497,597.16
25.064,597.102,613.307,628.71,24.316,25.948,593.366,600.231
21.327,577.16,579.951,602.085,20.259,21.382,570.527,573.775
18.911,569.463,557.006,596.618,18.73,19.545,568.019,568.698
21.538,594.859,586.643,625.265,22.049,23.148,597.589,599.172
24.888,619.074,631.841,645.85,24.83,26.417,618.091,620.632
24.419,610.721,636.993,630.646,23.184,24.811,602.272,603.877
21.824,587.612,604.006,606.368,20.296,21.217,578.065,579.585
21.786,586.818,585.796,609.147,20.983,20.799,583.159,586.743
24.586,606.224,608.473,629.539,24.287,23.285,607.267,611.991
25.127,608.619,635.495,628.649,24.302,23.405,608.724,612.55
21.022,584.321,626.358,600.343,19.065,19.464,579.15,583.091
17.269,569.566,597.006,584.405,14.711,16.817,558.647,564.604
18.182,586.992,592.55,604.544,16.3,19.339,574.037,581.128
19.689,606.562,615.156,628.11,19.315,22.694,595.19,601.327
16.17,590.488,625.051,614.596,16.988,20.861,582.916,587.627
10.337,550.593,606.27,576.746,11.356,15.173,551.222,555.017
9.614,534.103,588.703,563.017,10.167,12.716,545.76,548.539
14.459,553.774,597.142,584.107,14.481,15.876,570.663,572.857
17.106,567.152,608.221,593.695,16.531,18.005,577.959,582.065
13.644,545.391,593.758,562.406,12.275,14.181,543.435,551.643
9.763,518.025,572.303,526.522,7.886,9.899,506.311,517.318
11.098,520.847,572.834,528.115,9.295,11.645,506.981,517.398
14.199,534.427,580.879,543.874,12.572,15.038,524.066,531.928
12.227,513.417,563.23,523.664,10.624,11.734,510.31,516.171
6.194,464.654,531.362,477.402,4.709,3.963,469.671,475.923
4.255,448.229,530.833,463.605,2.55,1.792,453.965,462.398
8.975,484.579,563.257,494.004,6.075,6.918,478.926,488.244
11.991,512.089,575.13,510.225,7.862,9.285,493.863,501.569
7.34,482.613,544.844,479.298,3.456,3.353,467.486,472.902
1.934,441.658,523.864,449.24,-0.638,-2.242,443.634,447.028
3.714,451.169,551.616,466.357,1.931,1.237,462.704,464.104
8.416,486.268,585.056,496.181,6.338,7.808,489.512,490.671
7.303,479.567,568.224,482.014,4.444,6.414,473.503,477.913
1.449,434.281,523.194,439.714,-1.672,-0.644,433.56,441.905
-0.453,414.669,514.713,429.845,-2.65,-1.693,426.24,434.993
3.266,434.57,548.824,456.551,2.604,4.406,453.183,459.211
4.589,440.929,565.64,463.357,4.671,6.725,459.861,463.456
-0.024,414.144,538.428,429.582,-0.571,0.992,426.79,430.443
-3.804,401.283,514.388,404.291,-5.24,-4.049,401.4,408.217
-1.966,427.446,531.825,422.038,-3.075,-1.784,417.421,427.76
0.378,444.421,557.561,442.354,0.402,1.582,438.202,446.257
-2.544,409.68,545.4,416.557,-2.369,-2.267,418.165,420.041
-7.866,361.558,509.998,368.921,-8.81,-9.7,375.983,378.383
-8.642,363.435,499.687,359.767,-10.431,-10.722,365.465,372.981
-4.391,403.407,520.023,389.947,-5.952,-5.154,392.62,397.393
-2.497,409.163,528.265,398.395,-3.527,-3.074,405.259,402.504
-6.91,362.244,506.767,361.241,-7.994,-8.611,375.771,371.417
-11.439,325.488,490.879,329.337,-13.218,-13.813,344.083,340.152
-9.909,341.393,504.036,343.84,-12.408,-12.108,352.721,344.425
-6.768,372.126,515.481,370.89,-9.629,-8.948,379.94,368.694
-9.781,365.314,494.443,357.054,-12.931,-12.479,373.826,368.917
-16.926,332.234,465.72,312.793,-20.65,-20.215,332.539,338.128
-19.915,322.299,467.687,291.549,-24.291,-23.765,303.902,312.415
-17.827,339.038,482.94,303.472,-22.402,-22.439,307.385,309.972
-17.702,335.794,465.993,305.571,-22.187,-23.096,307.768,306.536
-22.468,299.294,427.849,278.791,-27.138,-28.225,283.326,286.032
-27.064,272.832,423.532,256.733,-32.118,-32.487,264.821,271.871
-27.988,280.478,452.884,261.781,-33.384,-32.378,274.183,281.131
-29.196,284.18,447.475,262.964,-34.524,-31.978,277.485,322.863
-34.174,222.74,352.741,204.628,-38.249,-34.948,217.472,478.728
-37.867,58.745,162.838,44.544,-39.915,-37.001,56.05,745.312
-33.522,-176.803,-76.843,-193.545,-34.241,-32.202,-175.682,767.069
-25.262,-377.387,-274.184,-399.209,-25.251,-23.708,-367.82,262.227
-24.069,-468.454,-377.928,-490.607,-23.022,-21.396,-452.666,-382.82
-31.662,-484.04,-422.791,-505.108,-29.958,-28.612,-474.802,-655.789
-39.406,-473.197,-428.088,-498.831,-38.032,-37.624,-477.425,-640.725
-41.43,-432.1,-370.307,-466.416,-40.35,-39.739,-445.805,-597.6
-41.073,-388.813,-299.806,-426.62,-39.724,-37.025,-406.303,-508.083
-44.903,-417.316,-325.581,-447.917,-43.606,-39.204,-432.124,-396.75
-53.022,-507.126,-438.334,-528.868,-52.57,-48.86,-514.615,-450.496
-58.249,-548.461,-494.911,-573.127,-58.956,-57.351,-553.962,-648.084
-56.862,-499.628,-432.343,-536.607,-58.605,-57.91,-511.903,-726.137
-55.616,-459.26,-373.558,-505.695,-58.09,-56.378,-477.706,-597.391
-61.237,-511.854,-439.265,-562.062,-64.277,-61.605,-530.753,-485.231
-68.725,-599.339,-561.853,-651.172,-72.261,-70.094,-616.707,-570.894
-70.039,-621.081,-593.404,-671.22,-73.111,-72.272,-634.606,-740.028
-68.123,-587.826,-527.624,-631.655,-69.472,-69.879,-591.651,-780.882
-72.094,-593.349,-500.001,-631.245,-72.26,-73.172,-586.591,-686.471
-81.622,-663.454,-580.645,-701.529,-82.504,-82.657,-656.324,-628.477
-86.184,-718.479,-675.73,-761.478,-88.335,-87.032,-723.059,-697.34
-82.775,-704.96,-682.233,-751.871,-84.601,-82.402,-721.851,-806.18
-82.336,-683.188,-644.012,-730.362,-82.379,-80.281,-701.641,-845.188
-90.897,-728.223,-664.859,-770.802,-89.508,-88.114,-736.341,-816.568
-98.195,-809.345,-741.48,-841.081,-96.279,-95.46,-802.529,-794.075
-94.868,-842.005,-786.153,-861.954,-92.718,-91.46,-825.898,-821.912
-89.121,-823.676,-775.949,-840.304,-86.871,-84.47,-808.9,-885.059
-94.136,-830.734,-777.387,-853.636,-91.718,-89.281,-822.818,-940.146
-106.646,-889.024,-828.293,-919.75,-103.494,-102.621,-885.703,-955.576
-111.252,-936.007,-881.68,-969.466,-107.164,-107.762,-933.694,-939.51
-104.015,-931.576,-895.553,-964.355,-99.949,-100.58,-930.84,-938.594
-99.063,-927.411,-908.321,-962.398,-96.297,-95.406,-932.173,-992.84
-105.911,-974.117,-961.605,-1015.266,-104.67,-101.608,-985.67,-1073.241
-114.001,-1033.032,-1017.495,-1077.757,-113.583,-109.575,-1046.135,-1103.99
-111.274,-1046.523,-1028.385,-1088.489,-111.24,-108.205,-1055.717,-1073.244
-104.329,-1039.619,-1027.51,-1076.758,-104.653,-103.025,-1045.262,-1063.217
-106.412,-1078.242,-1073.765,-1112.515,-106.649,-105.71,-1081.525,-1132.248
-115.255,-1151.053,-1145.811,-1185.47,-114.768,-114.098,-1152.187,-1221.048
-117.485,-1181.301,-1173.453,-1220.354,-116.385,-115.867,-1184.604,-1237.019
-111.301,-1160.984,-1160.452,-1206.203,-109.955,-109.391,-1169.485,-1197.779
-109.599,-1173.253,-1186.669,-1218.21,-107.601,-106.858,-1179.832,-1207.091
-118.34,-1252.03,-1274.22,-1290.24,-115.08,-114.059,-1248.828,-1292.565
-126.349,-1320.298,-1342.257,-1354.951,-122.008,-120.608,-1311.756,-1362.887
-123.482,-1317.575,-1335.564,-1354.535,-118.641,-116.957,-1312.209,-1353.791
-116.98,-1298.553,-1317.258,-1335.728,-111.964,-109.864,-1296.049,-1326.475
-119.35,-1341.139,-1369.707,-1373.667,-114.377,-111.32,-1336.342,-1365.415
-128.417,-1423.121,-1464.029,-1453.891,-123.471,-119.889,-1416.134,-1449.352
-131.459,-1461.051,-1506.183,-1498.265,-126.132,-123.767,-1457.528,-1493.605
-125.997,-1444.805,-1487.593,-1490.443,-120.629,-120.058,-1447.024,-1484.381
-123.29,-1451.722,-1498.201,-1499.734,-119.388,-119.145,-1455.388,-1492.955
-129.185,-1516.546,-1575.895,-1561.884,-127.402,-126.589,-1517.776,-1552.655
-135.359,-1579.79,-1648.009,-1621.839,-134.351,-133.736,-1578.213,-1608.177
-133.983,-1589.664,-1655.355,-1630.184,-132.374,-132.379,-1586.546,-1614.307
-130.058,-1578.108,-1641.958,-1620.714,-128.185,-127.796,-1577.318,-1608.885
-132.259,-1602.162,-1676.21,-1648.811,-130.852,-129.399,-1608.498,-1644.177
-138.443,-1655.034,-1744.914,-1704.755,-137.063,-135.745,-1669.783,-1700.88
-139.636,-1682.535,-1783.519,-1737.101,-137.968,-137.9,-1704.486,-1725.411
-134.916,-1675.612,-1779.792,-1736.609,-133.788,-134.065,-1700.453,-1718.296
-132.72,-1687.821,-1786.944,-1747.792,-132.335,-132.221,-1705.341,-1730.473
-137.079,-1742.096,-1834.981,-1791.831,-136.535,-136.777,-1746.988,-1777.178
-141.159,-1787.568,-1885.356,-1829.81,-140.863,-140.782,-1789.686,-1812.023
-137.966,-1783.468,-1895.457,-1829.32,-139.844,-137.516,-1795.023,-1806.624
-131.687,-1763.332,-1884.264,-1818.722,-135.965,-132.327,-1784.387,-1797.029
-131.888,-1778.129,-1899.902,-1839.692,-136.193,-134.037,-1801.383,-1824.921
-138.713,-1819.075,-1944.87,-1880.204,-141.091,-140.579,-1839.737,-1873.734
-142.913,-1837.468,-1971.515,-1893.626,-143.532,-142.818,-1854.718,-1885.838
-140.539,-1824.841,-1957.833,-1874.179,-140.221,-139.132,-1837.754,-1850.981
-138.052,-1826.01,-1945.393,-1869.939,-137.13,-137.169,-1832.412,-1839.591
-141.355,-1863.468,-1972.65,-1906.924,-140.031,-141.339,-1864.815,-1894.1
-146.875,-1897.964,-2014.262,-1944.718,-145.491,-146.09,-1900.806,-1950.876
-147.265,-1885.605,-2019.925,-1935.481,-146.141,-144.594,-1896.476,-1935.377
-143.311,-1844.763,-1991.818,-1898.083,-142.643,-139.565,-1866.858,-1875.279
-142.902,-1835.828,-1981.413,-1891.97,-142.744,-139.306,-1864.013,-1855.949
-147.551,-1874.143,-2005.015,-1925.201,-147.571,-144.473,-1892.798,-1895.942
-149.24,-1899.962,-2017.624,-1939.578,-148.464,-146.455,-1901.564,-1926.973
-143.677,-1867.797,-1989.823,-1903.539,-141.551,-141.177,-1867.922,-1898.641
-138.082,-1826.032,-1960.601,-1868.592,-136.144,-136.622,-1839.761,-1852.265
-139.686,-1839.073,-1972.536,-1886.631,-140.062,-139.699,-1857.078,-1852.766
-144.362,-1874.93,-1995.522,-1920.574,-146.277,-144.482,-1884.314,-1886.729
-144.022,-1859.308,-1977.322,-1902.993,-144.607,-142.376,-1865.983,-1886.254
-139.466,-1804.024,-1935.322,-1849.081,-137.79,-136.288,-1816.21,-1838.419
-138.996,-1787.28,-1930.624,-1835.941,-136.613,-136.156,-1802.203,-1807.416
-144.423,-1820.248,-1963.987,-1875.16,-142.826,-142.658,-1837.114,-1828.461
-145.85,-1828.62,-1966.348,-1889.248,-145.578,-144.817,-1850.852,-1847.149
-137.987,-1780.717,-1915.68,-1839.672,-139.025,-138.007,-1803.865,-1814.203
-131.503,-1742.667,-1882.002,-1792.486,-133.272,-132.503,-1757.712,-1770.972
-135.54,-1765.766,-1907.707,-1805.25,-137.413,-135.881,-1770.824,-1771.451
-142.008,-1796.656,-1930.124,-1829.964,-143.674,-140.09,-1798.808,-1787.144
-139.839,-1762.684,-1884.537,-1797.342,-140.898,-135.73,-1772.561,-1763.951
-132.708,-1694.315,-1817.042,-1734.448,-132.984,-128.025,-1714.643,-1718.043
-131.611,-1679.42,-1813.317,-1719.727,-131.462,-127.988,-1698.536,-1705.385
-136.807,-1720.872,-1856.457,-1754.215,-136.193,-134.267,-1726.491,-1726.983
-137.343,-1732.25,-1849.953,-1759.193,-135.694,-134.781,-1726.98,-1724.713
-129.644,-1678.819,-1773.895,-1705.8,-127.213,-126.656,-1674.406,-1678.103
-125.047,-1629.686,-1723.581,-1662.264,-122.889,-122.093,-1632.743,-1643.739
-130.612,-1636.963,-1753.247,-1675.162,-129.011,-127.815,-1645.396,-1655.589
-136.195,-1653.15,-1783.065,-1690.976,-134.423,-133.228,-1660.969,-1661.139
-131.32,-1618.378,-1730.26,-1650.559,-128.586,-128.298,-1621.783,-1613.776
-122.656,-1559.712,-1642.884,-1589.649,-118.626,-119.967,-1560.916,-1557.055
-122.908,-1541.886,-1622.986,-1576.482,-118.226,-120.181,-1545.08,-1551.407
-129.991,-1559.409,-1663.835,-1597.327,-125.898,-126.662,-1562.873,-1570.143
-130.837,-1549.244,-1662.893,-1582.952,-127.414,-127.503,-1546.176,-1544.176
-122.877,-1495.927,-1588.028,-1523.522,-119.346,-120.597,-1484.489,-1476.827
-117.478,-1451.929,-1520.484,-1480.048,-114.21,-116.456,-1440.276,-1437.34
-120.822,-1446.542,-1519.027,-1480.521,-118.605,-120.621,-1442.615,-1447.218
-124.738,-1441.132,-1534.023,-1476.848,-122.818,-124.785,-1441.165,-1446.651
-120.856,-1397.556,-1495.522,-1428.226,-118.003,-120.615,-1394.011,-1393.244
-113.628,-1340.397,-1423.889,-1367.705,-110.484,-112.91,-1335.777,-1329.368
-112.687,-1316.55,-1388.544,-1347.447,-111.21,-111.691,-1317.912,-1312.945
-117.366,-1318.949,-1396.183,-1354.806,-118.155,-116.648,-1326.075,-1326.74
-117.533,-1295.545,-1386.392,-1332.109,-119.423,-117.694,-1304.278,-1306.805
-110.52,-1234.771,-1331.859,-1270.077,-112.753,-111.307,-1244.77,-1243.799
-105.994,-1187.859,-1278.285,-1223.853,-108.539,-106.499,-1200.448,-1195.831
-109.356,-1184.037,-1260.785,-1222.087,-111.491,-109.275,-1198.045,-1193.236
-112.884,-1182.847,-1251.946,-1221.412,-113.98,-112.892,-1196.666,-1194.138
-108.951,-1142.92,-1215.533,-1179.028,-109.618,-110.183,-1156.039,-1154.483
-101.972,-1087.918,-1162.272,-1120.65,-102.848,-104.992,-1099.727,-1095.901
-100.47,-1063.66,-1129.272,-1096.406,-101.806,-104.467,-1074.493,-1068.761
-103.618,-1063.27,-1118.919,-1100.388,-106.415,-107.462,-1075.174,-1071.261
-103.448,-1038.239,-1096.139,-1080.47,-108.444,-107.412,-1054.72,-1053.188
-97.873,-974.16,-1045.528,-1019.734,-103.666,-102.64,-999.282,-996.327
-94.206,-917.31,-996.366,-964.341,-98.588,-98.728,-951.33,-944.511
-96.897,-905.21,-975.788,-952.062,-99.732,-100.221,-941.546,-933.589
-99.601,-908.064,-962.205,-953.319,-102.626,-103.254,-936.82,-931.871
-95.586,-876.992,-920.094,-916.68,-99.53,-100.733,-890.768,-887.696
-88.66,-820.671,-858.805,-849.398,-92.188,-93.634,-817.595,-811.514
-87.459,-788.673,-820.012,-808.093,-89.015,-90.272,-774.225,-763.828
-92.368,-786.721,-811.623,-806.431,-92.055,-93.08,-773.125,-764.203
-94.168,-762.724,-788.873,-790.579,-93.292,-94.206,-761.359,-764.126
-87.679,-695.948,-728.375,-729.899,-87.022,-88.035,-708.065,-723.845
-80.644,-641.3,-673.047,-669.373,-80.339,-80.727,-654.991,-667.324
-81.605,-640.094,-660.131,-652.865,-81.806,-80.329,-641.398,-637.332
-85.399,-646.129,-657.614,-649.946,-86.119,-83.276,-636.585,-627.573
-82.071,-600.986,-615.296,-608.707,-83.176,-80.492,-592.3,-593.403
-74.118,-529.981,-547.838,-542.964,-75.485,-73.048,-527,-531.504
-72.168,-498.844,-514.471,-511.89,-73.653,-70.468,-503.539,-498.303
-77.331,-509.87,-524.854,-525.095,-78.817,-74.545,-525.889,-515.179
-79.195,-500.905,-518.952,-520.645,-80.057,-75.528,-522.538,-515.081
-72.76,-445.096,-456.985,-459.838,-71.425,-67.7,-456.512,-447.788
-66.842,-394.077,-387.862,-394.765,-62.461,-59.906,-385.622,-374.095
-69.03,-390.366,-371.999,-385.561,-63.401,-62.024,-369.911,-366.023
-73.383,-395.05,-380.006,-398.731,-69.117,-68.735,-378.585,-384.663
-70.65,-350.068,-343.455,-361.385,-67.995,-67.957,-344.003,-347.433
-62.629,-273.731,-268.26,-283.504,-60.152,-59.873,-272.794,-263.739
-58.845,-236.002,-223.358,-241.78,-55.946,-55.433,-233.491,-217.127
-61.085,-244.306,-223.241,-249.633,-57.985,-57.589,-237.681,-227.084
-60.471,-227.794,-204.641,-235.975,-57.162,-57.286,-219.095,-220.189
-52.699,-157.512,-139.638,-169.144,-49.267,-50.376,-151.743,-155.796
-46.137,-98.774,-82.652,-110.39,-42.878,-45.022,-98.044,-91.515
-47.96,-99.376,-72.456,-105.414,-44.444,-47.108,-98.793,-80.016
-51.521,-108.551,-65.032,-107.055,-46.948,-49.883,-101.148,-81.109
-47.218,-64.497,-12.017,-57.174,-42.125,-44.857,-48.172,-36.806
-38.756,4.114,53.912,17.309,-34.564,-35.786,26.162,30.894
-36.969,29.004,74.05,47.628,-34.02,-33.135,51.112,59.327
-41.626,16.419,61.815,34.045,-39.203,-37.08,32.848,48.208
-41.863,36.889,83.597,46.884,-39.228,-36.902,45.224,61.96
-34.54,104.987,149.636,109.652,-31.261,-28.94,108.713,122.199
-29.197,151.359,192.482,158.257,-25.408,-22.853,157.286,168.233
-31.072,140.692,181.687,151.731,-27.445,-24.927,152.108,161.764
-32.497,131.076,175.825,141.726,-29.547,-27.62,143.697,151.579
-26.511,175.473,223.971,182.206,-24.37,-22.897,182.316,188.852
-18.471,236.431,287.615,239.795,-17.144,-15.858,236.746,244.546
-17.445,249.597,304.328,253.258,-16.325,-15.628,250.175,261.422
-21.877,225.643,286.21,233.417,-19.515,-19.868,233.232,246.163
-22.099,227.85,295.213,240.113,-17.732,-19.103,242.547,252.832
-15.58,269.785,343.524,282.995,-10.434,-12.46,286.255,293.185
-10.786,300.038,378.561,308.655,-6.51,-8.755,313.669,320.508
-12.97,291.579,369.256,292.209,-9.466,-11.618,301.312,310.42
-15.952,281.645,352.968,276.446,-12.098,-14.421,288.337,301.175
-13.131,305.367,372.776,300.312,-8.603,-11.871,311.331,327.553
-7.316,341.297,414.587,340.753,-2.847,-6.744,350.058,365.213
-5.012,348.555,433.342,350.403,-1.559,-4.596,361.227,372.338
-6.541,333.374,421.255,329.783,-4.256,-6.343,345.286,351.766
-6.11,339.611,417.447,326.745,-4.422,-6.617,345.034,345.199
-1.153,374.713,443.566,362.343,0.166,-1.439,376.814,375.01
3.544,396.953,474.387,398.606,4.304,4.723,404.403,409.682
3.602,383.991,481.986,398.154,3.988,5.634,396.95,409.659
1.735,366.193,474.74,380.324,2.329,3.569,377.975,391.99
3.57,382.683,482.987,389.417,4.343,5.486,390.562,403.082
9.171,426.162,511.562,425.617,9.232,11.207,429.803,439.285
12.335,450.391,532.273,445.104,11.506,13.443,448.581,453.207
9.787,437.719,531.969,431.087,9.374,10.03,433.483,436.402
7.31,428.367,540.685,423.983,8.338,8.39,429.572,435.662
11.269,456.169,583.616,454.587,12.988,13.432,466.652,474.173
17.266,490.03,620.283,488.064,18.164,18.35,505.913,510.847
17.139,487.658,605.453,482.881,16.629,16.082,502.425,505.515
13.5,470.773,580.427,462.981,12.019,11.583,477.607,481.486
15.857,489.403,619.207,478.986,14.141,13.686,486.494,492.221
24.35,535.911,710.536,524.223,23.282,21.324,532.318,538.326
28.315,552.352,749.31,541.19,28.58,25.232,555.025,559.107
23.772,524.876,690.196,514.097,25.053,22.055,526.953,531.345
21.182,513.008,641.593,499.392,22.296,19.324,507.161,515.48
28.04,568.012,710.05,548.262,27.959,22.886,558.11,567.319
34.949,667.109,845.898,643.943,33.281,26.761,659.395,664.875
31.27,743.465,918.401,725.053,28.456,23.354,737.132,742.81
23.843,768.476,899.168,759.571,21.071,17.816,761.252,770.934
25.275,783.956,889.443,783.506,23.414,20.666,780.074,785.642
32.539,828.541,947.702,835.402,31.504,29.431,833.028,826.952
32.15,881.594,1020.109,895.625,31.407,30.805,891.938,881.172
22.506,917.736,1052.713,936.051,21.724,21.66,926.441,921.661
17.098,954.897,1068.003,972.432,16.497,15.37,957.951,959.377
22.986,1008.305,1105.446,1024.674,22.666,21.415,1009.865,1011.838
29.806,1048.86,1142.796,1069.019,28.864,30.313,1054.198,1056.07
27.264,1061.836,1156.682,1086.19,24.827,29.284,1066.961,1072.301
21.248,1087.131,1179.026,1109.677,17.669,22.255,1082.123,1093.639
23.199,1150.007,1232.464,1168.032,19.077,21.784,1132.169,1151.112
30.447,1211.637,1284.151,1229.188,26.044,27.609,1190.656,1212.585
30.426,1225.176,1289.177,1247.848,26.776,28.303,1214.259,1228.567
22.732,1215.111,1275.086,1245.675,21.21,22.441,1218.984,1221.916
20.037,1248.188,1311.153,1284.983,20.301,20.826,1259.963,1260.262
26.732,1325.477,1392.639,1362.701,26.836,27.228,1333.569,1339.175
32.791,1379.392,1444.858,1411.099,31.554,31.859,1375.414,1385.079
30.875,1380.037,1426.432,1405.593,28.763,27.26,1363.576,1374.087
26.498,1374.087,1391.272,1398.67,24.232,20.208,1354.989,1364.365
27.703,1406.212,1415.292,1435.032,25.575,21.203,1395.309,1400.89
32.47,1454.116,1488.711,1487.084,31.16,28.005,1451.936,1454.673
31.758,1470.319,1535.335,1505.341,32.043,29.13,1472.921,1478.2
24.787,1448.734,1510.762,1487.918,26.199,22.95,1454.403,1466.884
22.785,1425.22,1461.88,1471.431,23.817,21.27,1429.273,1449.332
31.331,1426.733,1456.969,1476.597,30.82,29.636,1423.826,1446.219
39.602,1438.777,1488.393,1485.424,37.667,37.44,1433.648,1451.413
36.793,1437.939,1502.418,1480.029,34.744,35.216,1439.199,1448.756
28.866,1433.759,1482.733,1478.449,27.82,29.203,1439.354,1441.057
28.168,1457.076,1478.645,1512.284,27.921,29.683,1461.976,1460.407
34.106,1505.546,1522.827,1568.645,33.927,34.482,1512.968,1513.255
35.688,1533.425,1569.061,1591.652,35.575,34.37,1543.981,1545.198
29.921,1526.122,1571.383,1573.005,30.2,28.708,1531.294,1530.459
26.603,1527.638,1548.004,1572.575,26.503,26.128,1523.668,1522.901
32.045,1565.068,1547.908,1619.565,30.13,30.763,1560.067,1562.242
37.702,1600.929,1579.991,1663.435,34.495,35.335,1602.933,1607.106
33.997,1594.289,1607.83,1656.926,32.213,32.854,1604.184,1609.983
26.574,1572.917,1614.255,1636.049,27.583,27.94,1589.753,1599.888
27.531,1587.817,1610.228,1657.303,29.781,29.558,1608.215,1624.012
36.204,1623.778,1607.319,1697.349,37.967,37.285,1639.437,1655.802
40.334,1622.871,1603.276,1690.383,41.556,41.117,1627.996,1636.913
35.992,1585.846,1598.693,1642.359,37.07,36.05,1585.117,1585.517
33.217,1581.841,1613.746,1633.072,34.368,30.239,1585.509,1584.986
38.483,1634.563,1640.851,1688.609,40.128,32.762,1643.845,1648.555
44.12,1674.099,1642.792,1731.356,46.479,39.355,1679.767,1686.603
41.576,1647.973,1616.395,1703.167,44.392,40.016,1646.708,1650.156
36.264,1608.127,1606.414,1661.419,39.02,36.597,1609.231,1610.253
39.111,1630.204,1643.223,1690.131,41.233,39.389,1639.974,1642.508
47.984,1686.475,1679.056,1759.324,49.292,48.083,1697.728,1703.946
50.571,1684.029,1655.497,1765.037,51.36,51.325,1691.2,1701.023
45.027,1621.145,1602.788,1700.552,45.351,46.543,1629.352,1638.664
43.475,1597.584,1598.956,1671.863,42.995,45.111,1609.17,1613.125
51.205,1652.885,1652.713,1726.219,50.006,52.458,1664.179,1664.683
57.537,1700.058,1679.914,1776.15,56.336,58.505,1711.254,1714.118
54.121,1670.679,1641.397,1746.711,53.858,55.622,1684.592,1691.223
48.245,1623.094,1606.337,1695.226,49.628,51.312,1638.866,1648.023
51.107,1638.095,1631.808,1710.126,53.608,55.764,1654.759,1665.051
60.656,1693.164,1679.949,1772.876,62.649,65.896,1711.875,1719.42
64.666,1707.945,1677.513,1795.336,65.513,69.386,1726.966,1731.793
60.362,1679.348,1636.747,1765.176,60.986,63.266,1695.627,1703.747
59.179,1688.293,1642.172,1765.068,59.911,59.223,1698.846,1710.327
67.179,1756.696,1707.773,1825.198,66.864,65.074,1758.199,1766.394
74.039,1804.361,1751.098,1868.924,72.238,71.484,1799.413,1802.668
71.231,1779.589,1711.647,1842.486,69.05,68.369,1772.379,1775.982
66.789,1728.079,1637.425,1790.004,64.912,62.611,1717.016,1723.411
70.629,1709.311,1614.884,1771.923,69.16,65.624,1696.296,1700.86
78.332,1718.82,1650.56,1784.164,77.967,74.289,1712.908,1714.126
79.531,1714.479,1677.109,1783.511,80.818,77.297,1718.129,1722.264
74.987,1676.855,1645.652,1749.385,77.525,74.365,1681.995,1692.889
75.716,1619.859,1583.558,1694.706,78.452,76.42,1623.965,1637.746
85.32,1565.221,1538.679,1641.544,87.119,86.745,1576.589,1587.698
93.56,1524.133,1512.468,1601.767,94.258,94.77,1546.945,1554.529
92.169,1496.153,1488.701,1573.54,92.814,92.937,1524.96,1531.45
87.242,1483.389,1470.027,1557.896,88.865,88.639,1512.043,1516.459
89.388,1497.957,1477.016,1568.792,92.046,92.522,1522.371,1523.594
97.827,1527.953,1499.599,1596.615,100.516,102.28,1541.467,1547.955
102.775,1527.732,1489.611,1594.829,104.011,107.019,1525.182,1544.786
101.317,1487.333,1445.65,1552.195,100.477,103.998,1474.701,1498.412
101.024,1460.141,1421.195,1525.595,99.167,101.857,1451.087,1465.402
106.659,1484.293,1444.112,1554.988,105.214,106.687,1485.908,1491.733
112.007,1519.755,1471.17,1592.578,111.043,112.37,1525.233,1531.936
110.433,1505.004,1449.31,1571.48,109.316,111.118,1506.21,1516.259
106.699,1453.757,1403.435,1514.213,105.364,107.157,1455.856,1463.75
110.174,1435.419,1390.971,1498.119,108.805,109.992,1445.467,1449.268
119.577,1464.456,1414.399,1531.462,118.475,118.016,1477.979,1482.279
124.022,1478.357,1422.977,1543.325,123.439,120.283,1487.643,1494.972
120.51,1443.091,1390.988,1500.539,119.337,115.208,1446.338,1455.282
118.602,1409.665,1361.174,1461.402,115.546,113.858,1410.354,1422.144
124.215,1423.08,1365.493,1474.451,120.709,121.015,1425.722,1441.964
130.442,1443.775,1373.353,1495.845,128.564,127.236,1451.677,1462.957
129.062,1416.152,1348.694,1468.885,128.134,124.703,1430.609,1427.533
123.912,1364.012,1310.412,1420.218,122.886,119.46,1381.233,1372.399
125.896,1356.918,1307.778,1414.255,125.397,121.995,1369.324,1359.558
135.939,1393.607,1330.035,1444.396,135.512,131.829,1395.729,1374.45
142.541,1394.432,1318.473,1438.039,140.291,138.084,1387.383,1358.906
139.456,1332.5,1265.245,1376.827,135.497,135.301,1323.875,1306.919
135.436,1282.629,1226.838,1332.655,131.967,131.985,1276.906,1276.145
139.382,1296.644,1237.902,1349.721,137.307,136.909,1289.045,1297.621
145.552,1318.344,1252.535,1370.732,143.838,144.326,1305.095,1318.517
144.266,1285.88,1227.46,1337.785,142.49,144.28,1273.049,1287.547
138.987,1235.391,1191.895,1288.632,138.095,139.621,1231.708,1242.084
140.325,1231.675,1184.948,1286.58,140.504,140.809,1238.533,1241.779
147.433,1258.355,1194.891,1314.006,147.501,148.044,1269.688,1267.767
149.598,1249.984,1180.63,1304.697,148.926,150.74,1259.326,1257.929
145.358,1211.916,1150.838,1264.329,144.601,145.953,1218.408,1220.261
144.69,1215.779,1156.727,1267.814,144.651,143.693,1221.02,1223.143
151.67,1267.224,1196.114,1321.646,152.243,149.474,1270.52,1271.03
157.736,1288.097,1210.725,1342.65,157.792,154.69,1289.449,1291.093
155.925,1243.63,1167.115,1294.104,154.478,151.743,1244.443,1249.926
152.091,1187.347,1104.586,1234.654,149.708,147.137,1189.001,1196.518
155.247,1169.886,1081.565,1218.713,153.713,150.566,1175.039,1180.139
163.273,1173.841,1095.618,1225.022,163.615,159.138,1183.15,1184.054
166.257,1154.895,1097.314,1203.229,167.337,161.742,1163.249,1162.647
162.855,1105.55,1057.66,1146.739,162.412,157.312,1106.294,1108.975
162.872,1052.502,1003.32,1088.664,160.061,157.469,1046.51,1053.803
170.462,1011.176,964.223,1048.595,166.61,167.186,1008.617,1015.666
177.282,972.512,928.274,1014.38,173.866,176.208,979.431,982
176.442,929.653,885.13,971.301,173.154,175.604,937.477,938.035
172.607,897.483,852.782,932.618,168.194,170.837,895.025,898.275
174.004,899.537,856.556,929.202,168.51,171.988,887.822,894.45
179.615,921.149,876.863,951.354,174.662,178.117,907.493,915.544
181.22,907.596,855.542,940.935,177.856,180.249,895.713,903.244
176.833,847.522,794.348,882.452,174.237,176.508,840.195,844.725
173.291,801.864,758.336,838.27,170.506,173.67,802.799,803.667
174.703,816.474,779.675,855.476,172.121,175.054,825.307,825.264
176.449,850.738,808.176,890.228,174.348,176.051,862.12,863.503
173.919,834.717,782.707,871.231,171.907,173.114,844.725,846.758
170.025,775.876,728.144,809.923,168.622,169.635,785.351,786.411
170.442,745.365,706.994,780.248,170.541,170.496,755.15,756.023
175.14,766.457,724.767,801.769,176.012,174.816,774.148,776.315
177.821,782.297,729.255,813.237,177.604,176.396,784.033,786.785
175.201,748.678,691.761,773.693,173.27,172.525,743.775,745.913
172.037,703.251,655.49,727.996,169.76,168.691,697.346,699.075
173.17,696.261,654.027,726.314,171.789,170.343,694.085,696.491
175.292,703.59,656.038,736.327,174.369,173.517,701.734,705.857
171.884,671.806,622.163,701.075,170.496,170.542,666.412,672.108
165.082,611.396,566.621,637.218,162.922,163.774,607.002,612.067
164.116,583.484,543.419,610.89,161.667,163.084,584.892,588.033
169.473,600.283,557.842,631.113,167.855,168.978,602.017,605.706
170.17,603.952,556.147,633.886,169.522,170.518,598.468,604.051
161.814,562.036,512.324,585.102,160.548,162.876,549.443,555.035
155.307,518.41,465.512,533.489,152.12,156.024,502.954,507.442
159.085,515.882,460.25,528.664,154.453,158.698,503.969,505.716
164.476,521.195,471.136,538.283,159.859,163.525,518.798,516.276
160.373,487.194,453.51,508.543,156.454,159.626,492.467,488.199
151.462,438.909,418.989,459.378,147.349,150.609,443.343,440.712
149.963,429.025,401.361,445.56,144.82,148.125,425.902,425.644
155.529,446.132,401.078,459.275,150.14,152.76,435.463,436.971
155.582,430.829,384.731,441.914,151.062,152.986,419.276,420.256
145.47,386.069,354.605,397.3,141.58,143.735,381.885,377.922
135.461,384.158,355.771,399.334,131.334,133.993,386.996,377.844
134.232,433.338,388.155,452.814,129.852,131.79,434.232,426.227
135.59,449.922,396.772,467.828,131.62,131.702,445.878,442.07
129.34,390.677,346.535,402.46,126.109,124.979,386.55,382.987
118.433,317.085,276.566,324.526,115.614,114.745,312.677,308.524
113.564,298.447,247.662,305.849,110.688,110.809,287.686,292.156
114.933,311.461,253.38,320.934,111.86,113.108,294.112,314.277
112.169,286.435,241.541,294.885,108.711,110.816,270.629,292.682
102.576,215.816,192.451,218.408,98.334,100.403,207.695,210.508
95.963,155.063,143.606,154.081,91.377,92.956,155.923,142.534
97.545,131.523,119.76,133.675,93.632,95.322,140.626,127.147
99.489,114.936,93.559,118.037,95.635,97.574,121.882,106.223
94.033,81.022,52.725,75.694,88.688,89.999,68.452,43.162
85.185,49.381,21.745,34.481,78.865,79.184,14.833,-11.314
81.698,56.429,26.154,40.347,75.87,76.045,15.046,-4.804
82.131,97.844,53.56,85.76,76.539,77.528,60.798,40.929
76.743,113.209,56.331,102.662,70.823,72.627,82.701,60.554
64.721,73.514,21.025,62.329,58.972,61.477,51.017,34.976
56.952,28.302,-19.695,18.905,51.34,54.855,9.417,7.001
58.674,16.626,-36.921,10.633,52.342,56.157,-6.686,1.431
60.732,7.092,-42.611,1.775,53.862,56.327,-19.432,-14.274
54.117,-33.6,-67.117,-42.323,48.259,48.477,-56.46,-62.958
43.562,-77.889,-101.342,-90.822,39.41,37.992,-94.093,-104.641
39.44,-87.015,-117.006,-100.927,35.629,34.039,-98.317,-103.478
41.443,-76.462,-114.454,-88.972,36.987,35.732,-86.189,-90.292
39.003,-90.258,-123.23,-102.218,35.181,33.746,-98.673,-110.127
29.355,-131.056,-156.26,-143.761,27.226,25.917,-137.234,-153.549
22.681,-154.284,-179.683,-168.231,20.977,20.274,-164.166,-172.789
24.641,-143.321,-177.097,-157.897,21.763,21.14,-163.888,-156.266
27.233,-142.054,-180.018,-154.211,23.215,23.259,-163.345,-147.811
22.499,-183.08,-211.938,-190.47,18.316,20.521,-186.058,-178.935
15.433,-232.405,-251.368,-238.865,11.38,14.415,-219.451,-224.288
15.057,-238.415,-258.881,-249.377,10.375,12.05,-231.83,-239.283
18.75,-214.129,-245.556,-227.607,13.488,15.282,-223.253,-224.245
16.551,-221.877,-256.664,-231.369,12.423,16.63,-232.577,-219.365
8.179,-274.95,-296.444,-278.287,6.265,11.271,-271.215,-243.073
4.775,-314.465,-322.657,-315.343,3.756,5.936,-299.908,-277.781
11.173,-299.149,-307.334,-301.319,8.986,7.964,-293.38,-298.259
17.085,-270.882,-289.499,-275.735,13.919,12.569,-282.559,-303.816
13.929,-285.688,-310.393,-296.61,11.64,11.134,-302.41,-320.712
7.906,-325.17,-344.285,-343.551,6.75,6.364,-335.932,-348.808
8.334,-334.773,-351.04,-352.77,6.854,7.851,-343.014,-347.672
14.136,-309.082,-333.955,-320.851,11.13,15.059,-324.255,-315.417
17.312,-296.765,-332.784,-309.786,12.841,17.428,-323.49,-312.276
15.125,-317.795,-354.9,-340.555,10.392,12.219,-352.194,-353.544
13.723,-324.474,-357.637,-352.349,9.316,8.853,-362.493,-367.56
17.716,-289.732,-325.066,-311.385,13.341,13.592,-325.015,-313.459
22.165,-260.756,-296.075,-273.842,18.58,19.788,-278.787,-256.166
21.681,-280.199,-314.868,-295.141,19.691,18.468,-281.151,-273.082
20.648,-323.07,-365.36,-349.26,19.156,13.256,-329.808,-342.166
26.189,-340.282,-385.74,-372.701,24.337,15.635,-362.135,-379.849
35.599,-327.284,-358.849,-353.023,34.685,27.069,-343.749,-356.748
38.394,-325.15,-335.119,-338.454,39.601,35.681,-314.133,-318.783
33.048,-362.489,-362.348,-367.055,35.506,34.702,-324.467,-318.429
32.762,-412.358,-414.076,-417.692,34.533,33.888,-373.158,-364.601
45.232,-427.373,-435.695,-444.595,44.999,42.819,-421.294,-425.292
58.212,-415.079,-432.733,-445.376,56.444,54.326,-445.759,-463.815
57.89,-426.237,-443.835,-457.923,56.441,56.167,-457.341,-474.596
50.205,-467.781,-474.751,-490.331,50.381,51.02,-470.287,-475.128
50.735,-490.719,-488.754,-503.816,52.35,52.544,-472.779,-468.923
60.754,-478.534,-473.78,-488.104,63.109,62.86,-460.677,-459.195
67.558,-478.879,-475.035,-491.459,70.24,69.763,-469.31,-474.814
65.774,-513.102,-509.46,-531.815,68.347,68.324,-511.455,-519.475
64.308,-534.517,-533.184,-556.786,66.39,67.635,-536.811,-543.234
70.639,-512.162,-512.756,-533.824,72.137,73.572,-510.375,-516.408
78.511,-488.659,-485.186,-509.853,79.413,79.353,-480.457,-485.922
78.501,-514.271,-507.009,-538.02,79.228,78.086,-506.182,-508.51
74.122,-560.26,-552.442,-587.584,75.427,74.349,-555.443,-556.452
76.475,-558.419,-554.611,-588.042,78.313,76.793,-555.841,-558.428
85.738,-515.604,-515.718,-547.994,87.189,83.92,-517.361,-519.377
89.79,-512.454,-506.9,-549.992,90.369,85.255,-519.099,-517.587
84.02,-571.779,-557.598,-613.032,84.346,78.838,-577.045,-574.066
79.29,-614.802,-598.974,-653.787,80.098,75.705,-613.13,-613.391
83.637,-586.976,-578.562,-620.698,84.538,81.831,-583.408,-587.431
89.427,-538.324,-539.89,-570.657,89.079,88.479,-542.837,-546.362
87.008,-537.92,-544.853,-573.569,84.708,86.365,-551.636,-550.755
80.684,-574.249,-583.461,-612.906,77.559,80.062,-589.28,-584.72
80.59,-583.149,-591.771,-620.708,78.659,80.08,-593.378,-589.861
85.14,-556.166,-562.833,-588.464,85.202,85.724,-561.625,-561.648
84.325,-551.21,-554.171,-577.944,85.224,86.778,-553.101,-555.049
77.357,-584.832,-583.006,-610.266,77.68,80.604,-584.205,-585.502
73.805,-604.546,-603.905,-632.479,73.706,75.943,-604.525,-603.643
77.386,-583.101,-585.563,-613.139,77.755,77.811,-585.326,-583.938
80.558,-565.45,-566.485,-596.302,81.047,79.643,-568.472,-569.667
77.115,-592.337,-586.601,-626.597,76.444,75.26,-595.986,-599.806
70.901,-631.826,-620.638,-673.461,68.721,68.752,-640.007,-643.767
69.497,-632.383,-628.903,-680.048,66.72,67.197,-647.754,-650.443
72.335,-606.367,-614.051,-653.264,70.15,69.18,-623.128,-626.748
70.799,-608.718,-613.489,-649.418,69.829,67.139,-618.531,-624.481
62.438,-637.61,-629.03,-672.414,62.462,59.832,-638.835,-647.403
55.165,-627.714,-616.865,-659.358,55.616,54.089,-623.938,-634.649
54.621,-566.308,-571.421,-596.17,55.184,54.208,-561.971,-572.115
55.949,-526.175,-540.677,-555.29,56.633,55.3,-523.881,-531.865
51.326,-555.14,-564.096,-584.06,52.212,50.037,-553.368,-560.94
41.502,-613.802,-619.348,-641.429,42.734,39.882,-607.262,-616.125
34.871,-642.134,-648.896,-667.325,36.825,33.537,-628.1,-637.6
35.137,-635.045,-636.753,-658.539,37.827,34.105,-618.831,-627.834
35.155,-633.096,-619.793,-657.533,37.796,34.135,-622.919,-631.724
28.508,-664.031,-637.115,-691.459,30.555,27.976,-662.908,-670.604
20.899,-710.779,-676.723,-740.4,22.821,21.877,-714.734,-718.7
19.988,-737.1,-701.788,-766.458,22.244,22.485,-739.736,-740.741
21.894,-739.94,-712.623,-768.44,23.996,24.238,-739.037,-741.233
17.65,-752.737,-730.333,-782.927,19.199,18.528,-751.126,-756.227
7.029,-785.784,-757.643,-819.286,8.723,7.579,-786.052,-792.613
-1.421,-797.64,-765.457,-831.922,1.23,0.72,-798.895,-805.451
-4.044,-770.083,-744.378,-802.212,-0.67,-0.584,-771.232,-776.282
-7.896,-760.996,-745.014,-793.21,-4.8,-4.859,-763.824,-766.887
-17.85,-807.502,-790.919,-845.008,-15.884,-15.48,-814.025,-817.54
-27.47,-849.993,-829.239,-893.323,-26.705,-24.77,-859.708,-865.811
-30.025,-823.969,-808.285,-868.019,-29.848,-27.433,-834.185,-841.938
-30.607,-766.222,-759.77,-806.016,-30.522,-29.567,-774.343,-779.997
-37.888,-761.257,-756.591,-797.098,-37.981,-38.489,-767.47,-768.156
-49.422,-808.628,-796.134,-845.966,-50.004,-50.865,-816.006,-815.285
-55.262,-830.935,-816.298,-872.696,-56.144,-57.238,-842.161,-845.297
-53.936,-805.949,-797.703,-849.775,-54.245,-55.95,-820.183,-826.5
-55.643,-794.643,-787.848,-841.436,-54.807,-56.829,-810.859,-817.623
-65.829,-832.021,-820.709,-885.082,-64.265,-66.573,-849.39,-857.293
-75.586,-871.735,-850.738,-923.749,-73.946,-77.497,-882.062,-892.495
-76.661,-866.92,-834.166,-903.614,-74.95,-79.957,-860.257,-871.972
-75.755,-844.949,-803.739,-864.584,-73.443,-78.608,-823.45,-835.33
-83.555,-857.204,-810.896,-872.064,-80.297,-84.732,-832.219,-844.484
-97.053,-892.324,-845.895,-911.136,-92.913,-96.938,-871.815,-883.927
-104.486,-892.551,-850.434,-913.565,-99.681,-103.494,-877.554,-888.685
-104.382,-853.978,-821.245,-874.44,-99.434,-102.518,-843.305,-852.975
-107.457,-840.478,-815.656,-862.042,-103.052,-104.852,-832.134,-840.774
-118.893,-876.282,-848.038,-898.399,-114.887,-115.514,-866.189,-874.592
-129.698,-904.128,-869.359,-922.576,-125.213,-125.303,-889.765,-897.612
-131.165,-877.815,-845.783,-895.098,-126.279,-126.513,-864.165,-871.227
-129.061,-838.692,-818.679,-864.515,-125.081,-126.135,-834.684,-841.711
-134.141,-851.719,-834.07,-887.188,-131.51,-133.657,-854.228,-863.059
-145.01,-899.653,-863.727,-932.329,-142.528,-145.29,-892.493,-904.833
-150.585,-912.21,-861.156,-932.689,-147.634,-150.322,-890.748,-903.668
-148.913,-882.889,-835.698,-895.916,-146.409,-148.519,-861.941,-865.443
-151.234,-876.314,-836.697,-891.559,-149.441,-151.12,-864.383,-853.011
-162.247,-907.38,-863.382,-928.839,-159.871,-162.686,-893.798,-881.977
-171.494,-909.458,-860.739,-936.256,-167.816,-173.703,-889.328,-896.873
-170.799,-858.686,-821.745,-890.773,-167.213,-176.056,-847.749,-875.988
-167.754,-824.802,-800.013,-863.777,-165.849,-175.624,-833.682,-871.202
-173.132,-859.251,-828.89,-902.676,-171.901,-181.538,-875.608,-911.067
-182.796,-915.43,-869.871,-955.997,-180.236,-190.54,-923.825,-948.804
-185.378,-923.843,-871.452,-955.5,-182.103,-193.27,-922.427,-933.875
-182.26,-897.811,-849.111,-917.872,-180.494,-190.009,-885.793,-884.405
-184.846,-900.248,-846.653,-910.607,-184.896,-190.023,-872.031,-862.597
-194.341,-933.83,-869.713,-945.721,-194.534,-197.412,-898.666,-897.879
-199.851,-944.88,-885.192,-971.035,-199.141,-204.811,-925.611,-947.455
-197.42,-923.832,-879.851,-961.126,-196.325,-204.877,-924.491,-953.583
-195.331,-919.295,-882.169,-954.049,-194.478,-201.689,-919.081,-933.59
-199.932,-952.638,-903.25,-980.452,-198.784,-203.46,-937.004,-942.816
-206.982,-987.844,-922.201,-1013.685,-204.774,-209.302,-963.794,-973.818
-208.014,-979.112,-911.465,-1005.386,-205.349,-210.897,-956.855,-969.679
-202.849,-929.59,-873.56,-953.958,-200.758,-206.254,-909.796,-922.323
-200.456,-902.295,-856.12,-923.473,-198.64,-203.5,-883.779,-895.677
-205.154,-933.059,-880.069,-953.248,-202.854,-207.637,-915.992,-922.401
-209.914,-969.894,-906.297,-991.163,-207.427,-211.748,-952.435,-947.956
-206.939,-951.729,-890.367,-974.791,-205.166,-207.894,-933.18,-923.389
-199.442,-900.998,-849.289,-928.52,-198.578,-200.795,-885.951,-886.907
-196.742,-887.035,-843.068,-922.494,-195.537,-200.309,-879.007,-899.446
-200.236,-917.103,-872.444,-958.082,-197.117,-205.176,-910.252,-941.128
-201.353,-929.918,-880.064,-967.33,-196.639,-205.176,-915.052,-942.714
-194.842,-899.199,-843.581,-926.424,-190.484,-196.966,-875.804,-894.292
-188.01,-872.516,-810.928,-892.548,-184.987,-189.651,-850.482,-856.818
-188.6,-886.65,-825.682,-908.859,-185.895,-190.767,-874.723,-870.912
-190.577,-902.014,-847.669,-933.508,-187.087,-193.883,-900.439,-899.445
-184.54,-871.39,-826.896,-910.873,-181.01,-188.946,-877.608,-887.917
-175.212,-825.783,-786.881,-864.705,-172.837,-179.104,-831.582,-845.819
-174.412,-824.895,-779.506,-855.191,-172.338,-175.55,-816.525,-824.641
-180.38,-858.016,-804.836,-879.486,-176.986,-178.402,-834.217,-836.566
-179.648,-857.042,-804.342,-875.127,-175.412,-176.93,-830.262,-834.893
-169.187,-808.096,-761.904,-824.833,-165.619,-167.862,-785.969,-795.073
-161.489,-778.912,-733.964,-792.317,-158.401,-160.26,-758.98,-764.549
-164.448,-806.41,-753.295,-816.892,-160.614,-160.715,-785.695,-781.172
-168.647,-834.805,-779.359,-845.706,-163.842,-162.274,-814.106,-803.151
-162.564,-801.375,-757.021,-815.645,-157.742,-155.204,-782.984,-774.221
-150.957,-737.384,-708.443,-755.893,-147.154,-143.775,-724.344,-719.778
-146.779,-722.373,-693.296,-742.215,-143.583,-140.086,-711.874,-707.709
-150.613,-755.391,-705.667,-770.926,-146.056,-144.18,-738.432,-734.62
-149.91,-760.441,-696.65,-769.405,-143.123,-143.256,-735.624,-734.452
-140.428,-714.562,-657.564,-719.029,-133.227,-132.861,-685.956,-683.849
-133.594,-681.854,-636.623,-684.256,-127.941,-124.907,-649.644,-640.064
-134.299,-692.708,-647.767,-699.512,-130.173,-127.145,-662.503,-652.84
-131.988,-683.724,-637.161,-703.492,-129.139,-130.372,-668.158,-674.342
-121.062,-616.883,-583.019,-646.753,-120.056,-124.339,-617.327,-636.397
-110.879,-555.348,-532.832,-583.266,-111.097,-114.36,-558.109,-576.744
-110.522,-566.1,-537.762,-586.199,-109.793,-111.637,-561.825,-577.453
-114.832,-621.429,-579.844,-636.37,-112.414,-113.722,-613.148,-623.445
-112.607,-641.962,-596.86,-654.414,-109.847,-109.222,-632.78,-631.81
-104.014,-611.718,-573.964,-619.926,-100.991,-98.019,-598.757,-590.599
-99.893,-589.488,-548.026,-590.839,-94.89,-91.757,-571.196,-566.041
-103.538,-601.928,-549.55,-598.272,-96.384,-94.46,-583.308,-581.851
-104.978,-603.978,-561.308,-600.696,-97.729,-96.101,-591.286,-585.552
-97.543,-571.576,-552.572,-571.241,-92.276,-89.17,-564.806,-549.081
-87.975,-548.674,-535.315,-550.142,-85.724,-79.67,-541.891,-519.977
-84.558,-562.422,-532.4,-566.692,-84.986,-76.723,-552.279,-537.354
-84.722,-578.73,-541.447,-588.246,-85.973,-78.723,-569.272,-568.047
-80.517,-560.271,-536.734,-573.17,-80.76,-75.769,-554.617,-557.236
-72.251,-517.325,-507.577,-530.737,-71.247,-66.046,-514.269,-510.068
-68.054,-496.017,-486.356,-512.275,-66.474,-60.055,-496.52,-487.542
-70.047,-508.656,-490.264,-530.652,-68.333,-63.052,-514.204,-507.448
-70.478,-511.292,-496.221,-535.773,-68.965,-65.476,-520.52,-517.378
-63.652,-477.677,-479.266,-498.668,-62.735,-58.474,-487.681,-485.259
-54.969,-444.706,-448.354,-459.08,-54.454,-48.295,-450.588,-446.951
-52.407,-454.881,-437.46,-462.705,-51.234,-45.262,-450.389,-446.668
-54.122,-484.9,-445.412,-488.268,-51.433,-47.607,-468.03,-466.261
-51.912,-478.957,-441.15,-480.847,-48.222,-45.921,-457.383,-455.442
-44.174,-437.361,-416.089,-440.917,-40.779,-38.102,-421.85,-416.542
-38.993,-415.218,-398.455,-423.47,-36.425,-32.611,-408.547,-401.268
-41.281,-434.626,-410.75,-448.413,-38.905,-34.779,-432.605,-426.032
-44.225,-449.215,-420.667,-464.732,-41.315,-37.915,-447.663,-441.458
-40.349,-420.721,-396.654,-431.869,-37.124,-34.278,-418.106,-409.79
-33.513,-382.242,-363.664,-387.751,-30.306,-26.892,-377.545,-367.694
-32.424,-384.725,-361.622,-389.309,-28.558,-24.456,-376.369,-369.326
-36.297,-416.648,-385.464,-423.682,-31.457,-27.971,-405.34,-402.39
-35.979,-415.957,-383.43,-423.681,-31.381,-29.18,-405.148,-403.135
-29.538,-367.93,-344.56,-372.441,-25.925,-23.785,-358.982,-355.388
-26.145,-337.641,-321.271,-337.026,-22.318,-18.283,-326.242,-322.356
-30.827,-365.176,-340.941,-360.975,-25.852,-19.111,-347.372,-346.245
-35.553,-398.675,-366.564,-393.889,-30.515,-22.004,-377.761,-379.582
-32.192,-375.981,-348.985,-372.431,-28.078,-19.625,-357.98,-359.161
-25.831,-322.749,-306.042,-321.554,-21.901,-14.723,-310.129,-307.395
-26.492,-310.188,-292.669,-313.688,-22.204,-15.937,-301.341,-296.673
-33.564,-340.932,-309.384,-348.482,-29.419,-23.494,-331.985,-329.129
-36.568,-349.713,-311.279,-354.161,-32.496,-27.727,-337.591,-335.131
-31.475,-309.02,-279.14,-305.338,-27.437,-24.116,-293.879,-288.968
-27.892,-273.581,-254.27,-265.716,-25.137,-21.529,-257.089,-251.621
-33.507,-284.683,-263.818,-278.974,-32.249,-27.431,-266.74,-265.3
-41.603,-288.57,-262.917,-286.759,-39.953,-35.223,-271.939,-274.921
-42.044,-229.572,-216.392,-231.096,-39.132,-35.376,-222.092,-224.826
-37.531,-156.797,-162.489,-162.6,-34.337,-31.262,-160.468,-160.611
-39.193,-154.71,-165.141,-165.005,-36.337,-33.791,-163.226,-161.963
-47.298,-217.692,-217.994,-229.351,-45.029,-42.879,-225.89,-224.148
-50.318,-260.62,-249.162,-269.269,-49.297,-47.206,-266.146,-264.714
-45.11,-242.914,-231.739,-247.018,-45.202,-42.845,-244.021,-243.317
-42.751,-215.364,-207.794,-218.059,-42.775,-39.438,-214.008,-212.998
-49.831,-223.853,-216.125,-228.55,-49.409,-44.285,-224.801,-222.108
-57.397,-237.771,-235.967,-243.057,-57.031,-50.837,-241.758,-237.94
-56.025,-217.362,-227.651,-219.954,-55.383,-50.22,-222.858,-218.914
-51.149,-188.591,-203.356,-189.071,-49.57,-45.676,-195.719,-191.786
-54.236,-195.1,-198.863,-195.63,-51.97,-47.06,-200.422,-197.943
-64.243,-227.979,-220.68,-225.804,-61.424,-54.826,-226.331,-225.061
-68.261,-242.964,-235.327,-234.076,-64.585,-58.572,-236.464,-233.45
-62.181,-226.135,-220.404,-215.33,-58.466,-54.507,-222.6,-218.514
-57.707,-215.29,-210.105,-212.51,-55.402,-52.153,-218.254,-215.856
-63.001,-235.598,-227.996,-240.768,-61.934,-57.611,-239.699,-234.026
-69.729,-253.356,-243.202,-255.965,-68.512,-63.588,-251.909,-234.475
-67.095,-227.135,-220.209,-223.86,-65.649,-62.344,-221.728,-200.938
-59.924,-176.664,-176.402,-176.41,-59.555,-58.826,-174.516,-171.555
-60.685,-160.271,-163.371,-169.02,-61.636,-62.081,-163.967,-183.129
-68.215,-180.754,-179.2,-194.202,-69.145,-69.877,-186.628,-215.084
-70.06,-181.412,-178.478,-193.437,-70.21,-72.265,-187.797,-215.724
-64.23,-149.29,-153.758,-159.399,-64.17,-67.933,-157.929,-179.256
-62.453,-136.944,-142.034,-147.455,-62.65,-66.799,-145.441,-155.995
-69.368,-164.219,-159.272,-174.164,-69.65,-72.956,-165.989,-168.834
-75.04,-178.09,-165.721,-184.514,-75.015,-77.344,-171.28,-173.299
-72.009,-143.506,-138.251,-145.921,-71.062,-72.937,-134.065,-139.187
-65.925,-105.782,-111.676,-106.087,-63.646,-65.364,-101.09,-109.253
-65.84,-116.757,-118.778,-115.825,-62.786,-63.973,-118.429,-125.337
-70.585,-151.272,-141.653,-146.648,-67.881,-68.056,-153.802,-154.715
-71.039,-146.134,-133.28,-135.461,-69.153,-68.617,-145.822,-141.657
-65.253,-101.315,-96.239,-86.537,-63.863,-63.452,-102.971,-96.159
-61.39,-78.147,-80.376,-63.192,-60.636,-60.06,-83.498,-73.789
-64.052,-94.051,-95.102,-80.42,-64.487,-62.462,-95.343,-84.876
-66.991,-97.816,-97.398,-84.702,-67.78,-64.942,-92.755,-86.611
-63.434,-57.409,-59.275,-43.651,-62.889,-61.367,-54.209,-53.524
-57.044,-13.909,-21.115,1.431,-55.164,-54.72,-16.752,-16.887
-55.259,-22.918,-31.573,-7.461,-53.413,-52.209,-26.355,-23.419
-57.249,-67.39,-65.037,-55.346,-55.943,-53.967,-67.374,-61.928
-55.419,-75.96,-65.842,-68.402,-54.422,-52.77,-77.077,-71.133
-47.329,-28.124,-27.595,-23.603,-46.843,-45.914,-35.998,-30.563
-40.627,13.463,1.733,17.353,-40.217,-40.281,3.11,8.079
-41.206,7.338,0.257,14.33,-39.066,-40.562,5.908,9.494
-43.504,5.624,10.939,17.844,-38.954,-41.594,15.728,16.441
-39.374,61.181,63.097,76.716,-34.365,-37.084,72.272,71.946
-30.57,133.188,121.858,148.509,-27.278,-29.375,137.229,138.689
-25.653,152.087,130.246,164.589,-24.292,-25.812,151.851,154.287
-25.98,121.938,87.99,129.869,-25.393,-26.541,121.558,123.219
-23.398,104.476,60.515,108.254,-22.486,-23.673,103.664,104.352
-14.304,127.587,87.691,131.623,-12.823,-14.338,126.412,125.602
-6.61,153.66,131.723,161.793,-5.181,-6.109,153.407,151.072
-6.161,143.212,133.081,153.249,-5.566,-4.878,141.439,140.36
-5.568,108.907,96.449,116.207,-5.694,-3.962,101.664,105.152
3.596,85.809,71.891,90.256,3.785,5.653,74.282,82.142
16.146,79.655,69.225,84.145,16.968,18.981,67.915,76.971
20.846,70.038,63.128,73.346,21.357,23.452,59.381,67.388
17.989,54.746,48.78,53.253,17.388,19.342,45.382,51.607
19.36,65.761,57.954,61.026,17.656,19.554,58.324,62.359
28.687,112.75,101.058,110.055,26.376,28.163,105.272,109.197
35.576,143.741,125.602,144.71,33.14,35.38,133.45,140.681
34.119,122.623,103.202,124.725,31.779,35.696,110.98,120.261
32.575,96.956,81.979,99.151,30.682,35.877,87.512,93.912
39.349,125.014,109.891,128.165,38.043,42.783,117.309,119.829
49.41,179.465,160.23,183.259,48.44,52.035,170.993,173.501
52.889,189.615,171.025,193.242,52.615,54.976,181.893,186.783
51.541,158.14,147.774,160.73,52.238,53.039,153.445,159.266
55.034,155.84,148.246,156.631,55.615,55.516,150.603,155.483
64.705,196.473,182.733,195.341,64.221,64.573,184.76,188.222
71.827,207.601,197.02,204.218,70.924,71.74,190.452,192.272
72.251,157.16,158.828,151.739,71.768,71.811,142.516,143.055
73.078,114.637,121.11,107.688,72.573,71.335,105.46,106.687
80.897,141.948,143.257,133.236,79.466,77.898,132.323,134.911
90.647,205.01,202.263,195.875,88.455,87.788,191.334,193.04
92.174,233.248,231.435,227.809,90.397,90.908,219.444,220.367
86.757,216.716,212.902,217.836,85.864,87.22,205.622,209.852
87.12,207.894,200.664,213.929,85.973,88.295,196.219,205.184
96.847,235.076,227.833,243.082,94.625,98.055,220.348,230.731
104.306,255.064,253.437,263.125,102.291,105.913,240.673,250.427
102.691,225.263,234.759,230.811,102.314,105.17,213.431,223.925
100.873,181.228,192.742,182.561,101.249,103.706,167.9,179.078
107.724,183.691,184.468,181.981,106.871,109.559,166.318,174.442
117.569,222.579,217.221,219.938,114.956,117.716,205.131,207.305
119.862,244.286,246.732,241.985,116.429,119.223,229.955,229.697
115.769,243.592,254.712,242.04,112.034,115.514,229.021,234.288
115.994,258.645,260.73,257.427,111.686,116.068,238.899,251.55
123.767,293.31,278.829,291.49,119.226,123.596,269.283,280.825
129.815,306.246,291.382,303.734,126.137,129.403,283.719,286.795
127.876,286.615,288.458,284.786,125.468,127.548,271.958,268.298
124.098,282.73,296.725,283.041,122.007,123.785,280.218,273.294
126.942,325.313,329.023,327.204,124.101,125.583,330.454,321.823
134.83,371.443,359.681,372.313,131.49,131.179,371.379,365.484
138.338,368.879,357.768,368.536,135.103,133.039,358.201,360.287
134.314,342.5,333.264,345.106,130.701,129.571,330.888,340.745
130.552,357.391,333.434,365.969,126.311,127.69,354.048,369.287
133.612,412.264,374.051,423.933,129.702,131.984,411.478,429.252
139.215,437.447,412.31,445.256,135.932,136.618,428.3,436.698
139.301,398.47,399.212,399.203,135.847,134.226,380.006,370.594
135.084,339.105,347.451,337.594,131.138,129.033,316.911,306.107
135.612,313.829,313.103,315.36,131.176,130.899,289.996,295.713
141.974,317.65,309.077,320.055,136.722,138.341,291.523,304.127
143.2,300.159,297.401,298.344,137.441,139.707,274.414,279.392
134.247,248.121,261.678,243.654,129.729,132.157,229.374,232.596
126.441,222.846,248.134,222.316,124.776,126.537,214.114,223.212
128.808,261.835,284.336,266.229,128.853,128.811,256.319,262.163
132.4,293.426,302.898,297.373,131.006,130.834,283.43,277.649
126.437,245.556,251.675,245.461,122.587,125.44,233.905,226.367
116.764,174.395,192.778,170.475,112.504,117.62,166.951,168.777
115.81,185.72,212.423,179.463,112.245,115.919,179.982,182.868
121.847,267.952,284.127,261.654,117.607,119.242,258.044,250.615
121.885,299.374,297.801,295.363,116.712,118.944,286.492,278.526
113.424,235.496,235.539,234.072,109.287,113.154,226.353,234.588
108.351,180.308,196.957,178.488,105.999,109.665,175.893,195.013
113.055,217.555,239.54,210.562,110.777,111.93,210.999,218.817
117.202,280.258,295.636,268.317,113.36,111.522,267.675,259.001
110.491,266.767,279.974,258.255,105.66,102.647,254.952,248.375
100.275,202.365,225.234,203.464,96.232,94.047,202.385,207.546
99.481,188.618,219.813,194.138,96.887,95.456,199.152,204.991
105.315,239.65,266.422,239.242,103.986,101.519,245.24,240.35
103.916,270.602,289.625,261.565,104.39,100.096,263.762,247.443
92.756,240.007,256.009,230.864,95.863,91.765,232.349,214.26
84.796,210.888,227.512,210.003,89.755,88.371,215.479,205.157
88.121,235.326,251.593,240.745,92.341,93.508,249.98,242.927
93.706,264.23,283.386,270.114,95.927,97.72,280.708,268.026
90.431,239.429,270.51,245.906,92.463,93.711,257.691,242.449
83.196,195.931,233.025,205.502,86.597,87.129,217.657,207.754
84.058,201.096,229.308,211.587,87.314,87.396,220.514,216.514
90.576,242.913,260.276,251.47,91.46,92.165,255.548,255.024
89.476,254.628,273.398,262.408,88.11,90.892,265.322,268.299
79.361,228.869,258.133,237.628,77.603,82.255,242.492,248.448
72.948,222.291,251.889,232.515,72.403,76.71,237.388,243.85
75.612,253.317,271.271,265.776,76.542,79.423,269.137,274.128
77.466,271.451,282.845,285.771,78.631,81.64,288.758,293.218
71.555,253.322,268.7,266.135,71.282,75.652,268.381,273.837
64.279,258.504,271.709,267.399,61.834,66.957,264.394,270.536
62.781,324.774,318.673,332.817,59.6,64.578,319.787,327.847
63.233,386.931,367.985,399.526,62.716,66.745,379.491,391.701
57.807,373.792,361.103,392.952,61.535,64.28,373.889,388.542
48.758,312.685,304.576,335.075,53.91,56.542,321.361,333.268
45.745,281.26,267.379,300.244,48.717,52.15,292.842,297.544
50.561,299.356,282.233,309.603,50.856,53.845,308.24,304.19
53.91,316.687,308.998,318.423,52.877,54.307,320.578,310.418
48.847,295.343,299.213,294.668,47.473,48.472,295.502,286.906
41.043,255.747,261.701,257.397,39.946,41.824,254.198,253.869
39.745,231.712,235.286,233.017,39.162,41.446,228.017,233.96
43.486,219.116,221.231,215.036,42.975,44.487,211.75,215.793
42.636,195.259,201.176,184.292,41.944,42.324,184.737,181.865
34.242,164.61,178.727,149.103,34.204,33.924,153.341,146.705
26.76,159.966,180.26,146.046,28.373,27.982,152.543,147.62
26.311,192.719,211.685,186.154,29.108,28.798,193.075,190.701
27.117,219.143,227.635,217.333,29.392,29.203,224.325,222.378
21.787,200.512,201.771,195.409,22.684,22.747,203.961,200.719
13.016,165.674,169.757,156.433,13.558,13.803,165.987,162.092
9.261,163.536,174.3,157.211,10.676,10.897,164.403,162.605
10.807,187.478,204.012,187.733,12.989,13.186,189.68,192.516
8.81,186.556,203.594,189.593,10.945,11.195,187.191,194.515
0.145,149.408,163.844,149.827,1.55,2.541,149.443,156.351
-7.17,128.477,138.229,125.075,-7.066,-4.069,130.848,132.909
-6.526,155.469,159.382,150.23,-8.029,-3.405,158.142,157.066
-3.936,187.981,189.933,181.391,-6.461,-2.436,185.728,185.832
-9.01,175.529,176.384,166.83,-11.192,-8.565,166.459,169.722
-19.105,139.336,139.631,130.234,-19.97,-17.47,127.683,132.036
-23.784,135.89,136.508,130.054,-23.488,-20.607,127.315,129.301
-22.089,160.568,163.767,159.694,-21.298,-19.028,159.041,157.562
-23.883,155.79,168.734,158.493,-22.902,-21.908,163.492,158.781
-32.306,111.478,131.7,115.076,-31.65,-31.159,124.01,116.697
-37.497,88.392,104.718,90.964,-38.44,-37.346,95.248,89.199
-34.314,117.029,124.944,118.716,-37.383,-35.843,113.181,114.141
-32.812,143.335,151.364,144.095,-36.652,-35.079,135.141,143.165
-42.172,121.086,137.608,119.29,-44.682,-42.445,114.479,125.03
-55.018,83.196,98.857,79.394,-55.132,-52.066,76.134,87.245
-58.693,83.097,88.359,80.592,-57.17,-54.45,74.737,86.148
-55.032,113.14,112.638,111.836,-53.888,-52.156,104.607,115.037
-56.275,120.847,125.418,115.605,-57.168,-55.489,110.82,115.247
-65.775,95.923,112.02,84.869,-68.184,-66.055,85.952,79.358
-73.848,84.079,102.56,72.1,-75.41,-74.647,77.444,66.109
-73.651,108.679,118.237,99.147,-73.228,-75.814,103.663,97.309
-72.165,128.095,132.162,118.953,-71.053,-75.851,122.418,117.795
-77.855,105.519,118.101,94.947,-77.405,-81.386,103.191,92.604
-86.383,84.806,108.821,75.306,-86.758,-88.642,88.53,76.136
-88.29,121.442,136.274,116.633,-89.735,-90.351,124.839,120.687
-85.157,180.656,174.279,179.851,-87.94,-88.285,177.213,182.762
-87.363,186.006,171.243,185.749,-90.393,-91.002,177.017,186.492
-96.154,134.132,125.671,133.38,-97.937,-98.76,124.79,133.146
-100.869,98.616,95.636,98.557,-101.986,-102.094,90.968,96.849
-96.592,120.191,111.829,120.872,-98.976,-98.018,111.649,116.992
-92.936,152.483,142.464,152.742,-96.535,-95.858,142.518,148.537
-98.738,145.576,140.646,145.77,-101.344,-101.978,136.35,141.866
-107.095,122.842,107.735,123.805,-107.687,-108.967,112.64,116.483
-106.913,130.075,91.253,130.549,-107.096,-107.899,114.762,118.151
-101.153,153.892,107.764,152.13,-102.817,-102.49,134.401,138.365
-101.087,150.947,125.681,146.707,-104.006,-102.799,133.241,134.224
-107.604,121.34,113.153,115.633,-110.262,-109.476,107.206,103.628
-110.278,100.889,84.367,95.555,-112.119,-112.661,87.156,85.011
-105.347,104.778,78.49,102.012,-106.877,-108.166,91.729,95.901
-101.644,109.01,90.099,108.388,-103.033,-104.338,99.66,105.208
-105.592,96.74,89.905,93.563,-106.711,-108.129,89.21,87.199
-111.549,88.147,75.376,79.253,-112.848,-114.167,74.733,67.409
-110.536,101.748,68.846,89.928,-112.696,-113.184,78.426,78.299
-104.44,119.603,80.417,109.157,-107.317,-107.089,92.881,105.11
-103.708,110.252,83.601,103.103,-106.442,-106.14,90.636,108.051
-109.716,83.409,69.986,80.144,-111.951,-111.739,75.487,87.824
-112.312,83.019,66.762,83.365,-114.193,-114.511,82.815,83.742
-107.375,113.463,83.568,115.639,-108.324,-109.72,113.575,104.131
-103.449,130.523,98.297,132.772,-102.609,-104.52,126.678,115.326
-106.312,113.407,92.253,115.715,-104.193,-105.826,107.695,100.898
-109.585,99.218,85.581,101.983,-108.048,-109.276,95.47,91.535
-106.39,123.606,98.944,126.823,-106.769,-107.224,118.698,119.037
-100.163,154.945,112.62,158.716,-101.613,-101.253,144.856,156.593
-99.018,139.372,101.003,142.319,-99.689,-99.982,128.593,147.334
-103.378,92.449,73.974,91.67,-102.838,-105.242,86.894,94.238
-105.191,83.837,74.878,79.951,-103.996,-108.433,84.56,71.314
-100.672,128.644,109.046,126.792,-98.845,-104.206,131.674,112.851
-96.114,158.235,122.629,159.217,-93.776,-98.652,155.386,150.047
-97.362,126.665,91.207,124.599,-95.451,-99.214,114.637,120.001
-100.1,80.04,56.441,72.949,-99.634,-102.94,64.803,66.896
-96.52,87.986,68.46,81.013,-98.037,-101.278,73.118,71.607
-87.965,139.734,109.4,136.322,-91.432,-94.187,120.999,125.827
-83.509,158.881,118.885,156.081,-88.086,-90.554,135.97,146.742
-86.8,130.069,96.242,123.837,-91.184,-93.84,107.927,114.53
-89.837,123.63,94.5,115.265,-93.289,-95.46,100.432,102.179
-84.683,173.472,133.702,168.398,-87.489,-88.284,145.329,150.928
-76.776,218.005,164.779,219.319,-79.905,-79.675,190.74,201.174
-75.469,199.888,146.809,204.61,-79.586,-79.367,181.857,188.667
-78.151,165.377,123.859,168.122,-82.701,-82.83,153.562,153.124
-75.313,193.86,152.299,193.654,-79.399,-78.944,176.649,176.367
-66.904,268.222,210.6,268.585,-70.672,-68.606,239.898,248.699
-62.913,298.15,226.533,301.334,-66.867,-63.95,262.356,280.475
-65.816,253.567,181.033,259.118,-69.754,-67.918,217.864,237.345
-65.663,207.744,144.667,216.829,-69.05,-68.926,180.542,194.868
-57.364,228.594,174.472,243.459,-59.83,-60.523,212.809,222.756
-49.774,281.308,234.474,299.11,-51.15,-52.18,270.96,278.743
-50.993,288.696,246.715,303.837,-51.364,-53.369,277.073,282.352
-53.681,239.608,196.932,250.467,-53.69,-57.112,224.01,227.739
-45.85,186.395,146.112,193.476,-46.635,-50.698,164.149,169.73
-31.42,164.776,131.455,167.949,-33.348,-36.778,136.532,144.617
-25.354,158.789,131.986,159.471,-27.561,-29.728,132.086,138.814
-29.485,146.681,122.27,147.84,-31.604,-32.76,125.207,130.548
-29.477,151.176,118.251,154.198,-32.534,-33.269,130.237,138.613
-19.069,198.044,147.403,202.146,-23.79,-24.359,174.652,183.323
-10.074,243.01,181.735,247.056,-15.776,-15.913,218.868,221.082
-11.817,230.339,177.967,233.265,-17.704,-17.016,206.632,204.82
-16.421,194.344,149.15,195.879,-22.236,-20.795,170.75,171.926
-12.024,204.346,143.21,205.599,-17.112,-15.427,180.595,185.155
-1.346,246.548,170.378,247.867,-5.073,-3.476,222.325,227.596
3.32,248.611,183.612,249.185,0.488,1.71,226.009,231.314
0.277,207.271,165.18,207.887,-2.229,-1.868,191.668,194.967
0.504,197.862,157.533,200.923,-1.429,-1.477,188.239,189.153
9.555,244.354,181.591,249.308,7.937,8.999,229.478,234.356
18.938,278.75,202.796,281.076,16.427,18.795,251.625,265.146
20.703,256.742,191.09,254.508,16.961,18.796,224.086,240.663
20.285,227.431,175.334,223.791,16.128,16.328,198.469,209.26
26.045,248.189,191.866,246.295,21.844,21.386,223.138,226.553
34.923,290.126,219.649,291.202,31.029,30.81,267.04,267.984
37.674,286.746,219.17,292.242,35.576,35.196,269.966,273.486
34.89,244.467,196.869,255.077,35.506,34.577,237.796,244.693
37.057,233.118,199.293,247.135,39.047,37.882,232.941,239.5
46.922,272.028,234.572,288.216,48.602,47.418,272.552,276.598
54.768,297.679,251.425,315.253,56.112,54.56,297.374,301.138
54.809,267.949,224.092,282.406,55.941,53.829,267.986,272.027
53.99,229.357,191.757,236.639,54.011,51.844,230.176,231.479
60.147,240.709,202.615,245.323,59.274,57.342,243.091,241.377
70.008,281.935,241.624,292.733,70.138,67.886,287.847,286.75
74.835,282.436,249.846,300.495,76.735,73.615,292.108,292.933
73.882,223.711,214.669,241.226,76.242,72.238,233.288,233.789
75.543,170.646,177.994,182.703,77.009,72.348,175.832,175.309
84.007,178.067,173.892,188.415,84.424,80.092,180.267,180.272
92.122,212.568,192.134,225.718,92.308,89.683,216.776,217.024
93.019,226.164,210.154,241.082,93.908,92.854,234.218,232.137
90.163,245.611,235.774,260.391,91.565,90.992,255.744,250.383
91.291,305.406,277.065,322.285,92.342,92.024,315.46,309.379
97.554,362.076,312.645,383.695,98.371,98.25,371.522,367.815
101.729,359.718,312.571,384.274,102.798,102.338,369.385,367.976
99.758,321.924,278.777,345.892,100.562,99.692,331.921,331.002
98.673,312.395,257.054,336.356,98.819,97.926,321.251,322.369
105.646,341.874,278.84,368.639,105.755,104.746,348.115,354.26
115.281,361.088,314.167,387.611,115.389,113.783,365.741,372.989
117.41,336.502,310.151,355.59,116.726,114.418,341.224,342.193
113.836,294.164,267.02,304.688,112.674,109.848,297.501,293.18
115.49,276.516,237.408,284.682,115.052,111.886,278.097,274.946
123.723,281.906,240.536,293.211,124.259,121.432,286.703,286.163
127.6,270.234,241.107,283.789,128.772,126.997,281.902,281.229
123.106,230.068,216.37,241.417,124.894,123.45,244.247,241.772
121.555,205.478,196.808,212.956,123.242,120.818,213.761,210.063
130.494,222.856,211.516,228.33,130.744,127.438,222.124,218.932
140.122,237.685,222.979,242.285,138.853,135.592,232.233,230.14
139.942,204.866,189.788,206.156,137.867,134.922,197.283,196.047
135.715,155.239,145.758,150.454,132.542,129.68,143.453,143.573
138.768,150.397,152.437,142.105,134.303,131.489,137.003,137.867
147.116,181.696,196.775,176.421,142.853,140.42,174.987,173.97
149.271,177.326,193.307,178.5,146.677,144.9,180.463,176.059
143.388,120.475,125.583,124.931,142.09,140.897,126.723,121.841
139.818,84.492,86.634,86.592,138.982,138.193,85.321,85.327
144.494,123.339,134.716,122.564,144.113,143.388,120.4,124.124
149.984,187.927,205.573,190.29,149.815,148.5,193.085,190.297
148.199,196.739,207.932,206.665,147.735,145.168,214.583,202.118
144.063,154.271,159.316,168.14,143.751,139.706,173.143,164.301
147.187,134.885,146.859,147.362,147.475,142.506,145.026,149.911
155.347,157.665,183.927,169.289,155.559,150.711,165.411,175.077
156.638,156.241,198.324,170.466,156.845,152.642,172.932,175.645
148.653,101.162,150.125,119.585,150.699,146.894,128.98,126.531
143.746,59.969,99.185,80.238,147.886,144.686,91.971,86.75
148.896,82.118,110.033,100.052,152.403,150.509,111.434,98.09
154.063,125.674,154.704,141.327,155.54,154.39,151.08,130.527
148.991,143.916,173.511,160.187,149.878,148.464,165.588,147.114
139.265,146.522,159.327,162.946,140.079,139.558,160.988,153.74
136.679,154.668,150.699,168.73,136.476,138.02,160.307,166.256
141.233,161.14,162.256,173.255,140.481,141.852,165.068,170.467
142.606,147.059,163.966,159.677,142.616,141.561,157.046,147.51
136.686,119.228,145.095,131.909,137.21,134.977,132.437,115.965
131.339,109.075,131.984,118.641,131.562,129.042,117.263,107.925
132.899,123.374,140.016,129.631,133.014,128.802,126.63,121.295
135.014,127.434,145.333,135.005,134.864,130.102,136.442,127.075
129.771,108.547,130.965,120.949,128.704,127.101,129.905,119.163
121.323,113.401,132.506,128.541,119.931,121.502,137.658,132.526
118.852,172.324,174.77,186.297,117.86,119.409,186.609,187.17
121.821,232.629,219.358,244.689,121.021,121.586,239.384,239.242
120.756,228.558,216.289,241.526,120.813,121.055,239.884,236.66
112.838,181.074,171.772,197.473,114.723,114.122,200.854,198.043
106.817,164.415,144.02,182.068,109.284,107.229,184.863,183.689
109.207,195.819,166.753,210.462,110.134,106.982,209.521,208.448
114.057,220.639,206.692,230.778,113.593,109.849,229.073,228.127
111.773,200.393,205.929,206.019,111.533,107.685,205.982,207.285
104.069,156.059,155.514,157.226,104.219,101.096,156.177,161.852
101.445,121.425,106.046,121.192,100.979,99.045,118.97,126.348
105.951,99.206,90.459,103.189,104.992,103.521,105.258,107.569
107.117,69.542,84.903,78.669,106.949,104.869,86.945,83.75
98.981,26.805,59.177,35.473,100.326,97.618,45.428,44.168
90.753,1.087,34.039,6.006,93.016,90.501,15.549,18.256
91.73,19.321,47.261,23.73,93.607,91.628,34.789,35.835
95.909,49.562,71.218,55.599,96.517,94.642,66.943,65.647
92.625,37.28,54.295,42.028,92.231,90.309,53.259,53.184
83.506,-9.062,13.11,-6.097,83.319,81.518,11.402,9.573
79.19,-26.627,6.711,-21.655,80.177,77.842,5.531,-3.489
82.164,4.712,41.559,10.545,83.848,80.367,39.217,25.864
82.542,26.285,52.568,26.956,83.826,80.207,46.681,37.211
74.626,-7.409,10.209,-11.591,75.724,73.007,-0.044,-2.582
66.998,-50.888,-27.335,-53.067,68.759,66.283,-42.707,-41.063
68.189,-40.318,-10.047,-39.176,69.954,67.106,-28.391,-26.168
71.385,-0.104,27.02,-1.706,71.814,69.072,10.034,8.493
65.703,-1.651,18.625,-7.833,65.327,62.459,9.517,1.56
55.331,-43.487,-23.73,-48.598,55.847,52.003,-24.518,-35.746
53.158,-54.349,-31.393,-54.894,54.279,50.344,-31.159,-39.847
59.546,-20.325,3.294,-20.419,59.55,57.221,-3.071,-6.449
60.992,-17.682,12.734,-23.46,60.107,58.753,-9.258,-9.608
52.15,-79.106,-39.356,-91.058,51.813,49.4,-72.863,-75.688
44.415,-128.843,-91.326,-141.146,44.71,40.937,-115.976,-124.215
46.128,-107.377,-76.431,-113.889,46.951,42.911,-86.479,-95.634
49.364,-63.55,-28.756,-63.698,51.154,47.322,-42.058,-46.038
43.814,-64.424,-19.836,-62.226,45.697,42.176,-46.644,-47.104
33.885,-92.329,-50.283,-91.332,34.386,31.584,-75.923,-78.114
32.112,-85.825,-57.813,-87.326,31.53,29.353,-70.791,-74.628
38.113,-43.988,-25.591,-47.856,37.696,35.311,-32.781,-35.492
38.595,-30.933,-11.735,-37.157,38.652,35.36,-22.993,-26.208
29.442,-68.014,-38.256,-75.858,29.891,25.786,-59.932,-66.772
22.271,-93.672,-55.794,-99.055,23.313,19.202,-82.969,-90.751
24.85,-64.434,-33.053,-64.61,26.178,22.918,-54.277,-58.072
27.743,-29.117,-9.6,-27.456,28.57,26.699,-23.18,-23.026
20.784,-49.24,-26.698,-48.238,21.242,20.43,-39.618,-39.497
10.978,-90.579,-47.42,-85.695,12.28,11.073,-66.201,-70.163
10.183,-74.682,-22.569,-60.875,12.628,10.586,-39.701,-48.241
15.47,-13.271,22.017,5.992,17.622,16.288,18.842,8.966
14.863,8.845,25.007,24.915,15.646,15.591,32.024,22.636
6.428,-23.897,-18.359,-12.477,6.556,6.478,-4.675,-13.015
-0.322,-35.071,-41.731,-20.66,0.341,-0.086,-10.829,-15.953
0.377,13.114,-2.366,34.593,1.894,2.035,43.844,41.426
2.536,61.014,56.2,83.3,4.686,5.142,89.197,87.039
-1.827,51.82,61.334,67.221,0.535,0.248,69.732,69.035
-9.017,5.835,4.289,13.444,-7.024,-7.965,16.167,15.62
-8.497,-28.668,-50.256,-26.212,-7.075,-8.03,-19.984,-25.736
-0.473,-36.375,-56.297,-39.378,0.244,-0.753,-31.481,-40.893
3.063,-37.533,-39.325,-48.085,2.835,1.537,-43.197,-49.081
-2.949,-53.275,-45.259,-66.46,-3.472,-5.108,-67.683,-66.856
-8.535,-75.469,-72.885,-81.018,-8.975,-10.368,-87.265,-83.275
-5.317,-85.294,-85.614,-82.615,-6.902,-6.774,-87.351,-86.744
0.073,-90.155,-83.088,-89.544,-2.954,-1.151,-87.553,-91.087
-1.785,-107.302,-93.485,-114.295,-4.884,-2.841,-107.576,-110.474
-7.777,-126.091,-113.624,-135.95,-10.824,-9.057,-126.751,-129.565
-8.176,-122.857,-113.28,-130.895,-11.764,-9.516,-118.973,-124.585
-2.271,-108.073,-91.599,-117.366,-5.624,-2.894,-107.305,-110.583
0.576,-119.577,-97.087,-135.563,-2.182,0.336,-132.489,-129.618
-4.171,-159.323,-144.341,-180.588,-7.691,-5.375,-178.487,-178.412
-9.03,-179.407,-172.159,-198.692,-13.975,-11.34,-188.216,-198.718
-6.795,-145.692,-137.09,-158.543,-11.457,-8.654,-144.727,-156.081
-2.916,-87.643,-78.665,-95.625,-5.283,-2.985,-90.567,-90.084
-6.351,-62.503,-62.035,-70.098,-6.698,-4.955,-73.099,-68.024
-13.857,-78.126,-83.702,-88.334,-13.781,-12.371,-91.292,-95.861
-14.752,-87.029,-88.278,-96.616,-14.941,-14.477,-97.859,-109.437
-7.617,-69.019,-67.611,-72.665,-8.476,-9.257,-72.896,-80.748
-2.855,-68.926,-67.415,-69.14,-5.197,-5.614,-68.895,-67.754
-6.953,-113.082,-105.111,-116.192,-10.328,-8.836,-117.245,-107.07
-12.558,-149.881,-133.715,-156.463,-15.396,-13.228,-155.594,-145.148
-10.851,-129.633,-113.892,-136.913,-12.555,-12.061,-131.649,-131.104
-5.573,-89.981,-79.533,-97.915,-6.178,-7.523,-94.818,-101.007
-6.137,-101.648,-84.746,-112.025,-5.297,-6.839,-113.344,-117.499
-12.286,-157.717,-127.206,-168.803,-10.343,-11.173,-166.893,-168.075
-14.455,-181.37,-148.869,-187.812,-12.782,-13.294,-181.566,-182.999
-9.228,-146.805,-121.051,-148.018,-8.79,-9.641,-145.588,-148.534
-5.587,-115.965,-91.064,-119.711,-6.438,-7.637,-122.062,-126.319
-10.683,-128.048,-95.423,-138.368,-12.441,-13.2,-136.948,-142.05
-17.526,-137.165,-102.941,-144.561,-19.323,-19.022,-137.073,-143.027
-16.194,-102.024,-78.096,-96.377,-17.035,-15.94,-90.521,-95.702
-10.37,-62.478,-47.003,-48.599,-10.215,-9.125,-48.912,-48.976
-10.336,-68.67,-54.769,-60.592,-10.1,-9.768,-63.178,-58.269
-15.7,-90.585,-77.681,-96.071,-16.115,-16.554,-97.01,-93.055
-16.781,-66.491,-60.521,-79.215,-18.061,-18.284,-78.933,-78.577
-10.986,-11.12,-12.519,-17.838,-13.318,-12.437,-14.306,-17.449
-7.976,1.998,4.177,7.007,-10.902,-9.57,19.145,9.901
-13.813,-32.776,-29.111,-20.343,-15.722,-15.615,-2.293,-17.328
-20.088,-35.213,-49.048,-20.635,-20.099,-21.81,-8.654,-20.972
-17.26,27.522,-3.068,42.307,-16.363,-19.13,42.107,41.002
-10.168,82.943,65.733,95.577,-9.229,-12.657,91.899,98.368
-9.985,69.135,72.758,75.399,-8.647,-12.743,79.389,80.731
-15.588,23.331,8.295,23.383,-13.937,-17.688,30.652,23.184
-15.692,9.697,-44.35,11.935,-14.733,-17.009,9.532,3.275
-8.426,26.345,-26.679,37.705,-8.37,-9.787,27.752,27.732
-5.187,26.062,15.65,41.102,-5.149,-6.795,37.946,37.768
-11.813,-4.142,9.5,6.419,-11.121,-12.53,11.796,9.862
-18.426,-25.347,-36.223,-15.452,-16.815,-16.996,-12.64,-11.463
-15.477,-13.05,-54.857,3.405,-12.666,-11.835,-0.279,3.157
-8.89,-0.104,-35.224,19.967,-5.468,-4.146,15.692,17.605
-9.076,-22.746,-26.338,-5.577,-6.714,-4.665,-6.177,-5.548
-13.698,-57.747,-46.09,-43.714,-13.141,-10.803,-42.295,-41.791
-12.664,-54.992,-59.319,-42.394,-12.853,-11.974,-40.787,-41.658
-5.935,-21.918,-45.737,-12.799,-5.519,-7.158,-7.825,-12.867
-3.847,-18.636,-38.978,-16.028,-2.272,-5.644,-4.591,-13.694
-9.67,-58.934,-63.493,-63.921,-7.276,-10.902,-49.579,-56.337
-14.44,-88.465,-87.603,-97.696,-12.39,-15.098,-86.304,-83.716
-11.54,-75.768,-77.43,-80.415,-10.524,-11.679,-72.143,-60.844
-6.668,-61.299,-54.725,-55.842,-5.347,-5.84,-45.107,-34.856
-8.244,-90.722,-69.083,-79.432,-4.894,-6.688,-61.348,-63.924
-14.441,-142.02,-116.301,-131.78,-9.928,-12.936,-106.933,-122.558
-16.327,-156.699,-135.563,-149.924,-12.983,-14.829,-124.263,-141.009
-11.257,-127.549,-103.317,-123.848,-9.399,-9.351,-104.199,-115.252
-7.31,-114.027,-75.732,-112.423,-5.442,-5.084,-100.695,-108.111
-10.979,-150.476,-108.128,-148.149,-8.338,-8.169,-140.528,-144.194
-16.282,-188.8,-162.222,-183.143,-12.955,-12.082,-174.964,-173.947
-14.413,-177.519,-161.945,-170.355,-10.567,-9.186,-162.604,-159.949
-8.52,-145.955,-115.174,-141.676,-4.822,-4.316,-138.322,-136.48
-8.728,-156.16,-96.664,-155.937,-6.067,-7.183,-153.059,-152.563
-15.236,-203.063,-137.835,-203.124,-14.355,-15.881,-193.287,-194.506
-17.286,-221.936,-183.27,-218.754,-18.793,-18.69,-205.035,-206.292
-11.033,-194.436,-174.371,-189.416,-14.511,-12.761,-180.65,-179.296
-6.479,-178.267,-135.34,-175.139,-10.648,-8.88,-169.931,-167.548
-11.033,-209.536,-124.164,-210.013,-14.868,-13.812,-197.768,-199.361
-17.57,-242.968,-152.582,-246.405,-20.086,-19.89,-225.397,-230.743
-16.609,-226.282,-179.756,-232.858,-16.948,-18.228,-214.163,-217.343
-11.885,-185.565,-172.261,-198.348,-10.66,-13.109,-186.765,-188.007
-13.617,-177.71,-146.386,-198.239,-12.914,-14.651,-183.69,-191.356
-21.595,-188.632,-122.572,-211.095,-22.922,-23.022,-186.186,-203.551
-25.136,-157.385,-97.168,-171.706,-28.036,-27.992,-146.735,-165.168
-20.171,-90.981,-71.981,-93.816,-23.105,-24.121,-83.73,-91.793
-16.874,-64.071,-67.176,-63.769,-19.135,-20.051,-65.303,-62.027
-22.842,-91.567,-89.242,-98.315,-25.172,-24.981,-93.269,-90.242
-30.101,-99.861,-99.434,-112.299,-33.013,-33.157,-94.154,-101.581
-28.72,-49.849,-62.852,-56.923,-31.329,-33.256,-39.668,-52.812
-23.335,-0.472,-9.848,3.277,-24.585,-27.201,7.954,0.915
-25.593,-14.328,-2.288,-4.103,-25.279,-27.019,-7.55,-6.565
-34.189,-63.471,-48.811,-50.383,-32.721,-33.869,-55.501,-53.66
-35.979,-74.992,-85.924,-59.606,-34.37,-35.274,-67.536,-68.213
-28.144,-39.744,-67.758,-25.285,-27.474,-27.218,-37.215,-36.853
-23.286,-22.953,-31.697,-12.787,-23.363,-22.189,-24.108,-21.226
-28.366,-58.351,-38.471,-50.422,-27.947,-27.992,-55.905,-55.963
-33.735,-92.551,-80.438,-82.105,-32.28,-34.29,-83.307,-89.085
-29.872,-75.567,-95.162,-61.703,-28.263,-30.316,-64.081,-69.826
-22.785,-43.59,-68.389,-30.592,-22.401,-22.892,-35.63,-38.08
-23.618,-55.493,-52.058,-47.201,-24.718,-24.118,-52.765,-55.247
-30.977,-96.541,-73.707,-90.132,-32.381,-31.411,-95.583,-98.047
-33.371,-102.864,-95.867,-92.638,-34.494,-32.883,-100.109,-99.401
-27.899,-68.261,-85.633,-54.751,-29.517,-27.013,-66.81,-63.358
-25.227,-58.716,-74.202,-47.503,-27.215,-24.379,-62.667,-57.76
-31.06,-98.796,-93.233,-92.702,-31.976,-29.624,-104.568,-98.514
-36.343,-127.452,-113.417,-123.756,-36.16,-34.022,-129.848,-123.644
-33.245,-101.688,-101.211,-95.764,-33.616,-30.297,-101.987,-94.523
-28.437,-68.043,-79.956,-60.981,-29.872,-25.198,-70.353,-59.903
-31.203,-84.07,-93.462,-84.713,-32.699,-28.756,-90.721,-81.915
-37.634,-125.357,-128.814,-139.044,-38.81,-37.319,-137.01,-136.45
-37.777,-130.522,-131.805,-147.966,-38.77,-39.212,-144.095,-148.855
-32.464,-102.684,-98.355,-109.124,-32.615,-33.438,-111.538,-112.554
-31.583,-102.394,-83.96,-96.378,-30.292,-30.326,-104.011,-98.644
-37.393,-145.671,-116.063,-136.703,-35.004,-34.174,-143.805,-136.439
-41.139,-175.868,-147.953,-167.222,-38.228,-37.205,-172.263,-166.53
-37.42,-154.463,-132.794,-142.836,-34.536,-33.333,-148.044,-144.155
-31.925,-119.855,-98.18,-107.4,-29.811,-27.886,-114.653,-111.225
-32.357,-126.385,-97.56,-119.098,-31.52,-28.691,-127.526,-123.545
-37.102,-161.038,-130.939,-158.837,-37.273,-33.665,-166.604,-161.557
-37.875,-165.004,-148.6,-164.293,-38.279,-34.196,-171.738,-165.562
-33.442,-131.29,-129.202,-133.266,-33.502,-29.284,-139.978,-135.214
-32.092,-117.821,-112.083,-126.647,-31.587,-27.532,-131.543,-129.781
-37.442,-151.873,-126.195,-166.759,-36.571,-33.035,-174.046,-169.589
-42.206,-187.752,-151.398,-200.697,-41.469,-38.527,-215.139,-202.782
-40.443,-181.099,-156.983,-184.805,-39.785,-36.981,-202.768,-187.159
-37.185,-157.123,-143.69,-154.55,-36.236,-33.044,-168.359,-156.298
-39.994,-162.422,-134.642,-164.376,-39.178,-35.736,-169.468,-163.387
-47.147,-179.048,-127.536,-191.258,-47.043,-44.129,-188.281,-189.373
-50.477,-152.059,-107.795,-168.743,-50.977,-48.594,-164.75,-170.996
-47.932,-91.789,-87.364,-105.551,-48.699,-45.845,-106.876,-111.565
-46.913,-69.923,-87.839,-82.661,-47.586,-44.488,-87.142,-85.533
-52.563,-102.404,-106.675,-119.325,-52.657,-50.926,-121.299,-115.352
-60.051,-120.138,-112.036,-139.311,-59.051,-59.272,-137.043,-131.751
-61.628,-79.869,-84.19,-96.437,-59.613,-61.087,-94.139,-92.589
-57.737,-31.937,-48.687,-46.995,-55.789,-57.899,-49.901,-53.524
-57.538,-42.972,-48.917,-59.243,-56.383,-58.715,-65.805,-72.836
-64.281,-100.253,-89.837,-114.58,-63.526,-65.406,-118.14,-123.392
-68.09,-135.902,-124.844,-144.677,-67.507,-68.338,-143.059,-145.086
-63.097,-124.472,-123.664,-131.03,-62.827,-62.616,-130.061,-131.545
-59.666,-114.745,-115.839,-123.841,-59.277,-58.195,-126.321,-128.251
-66.88,-150.686,-137.379,-159.869,-65.555,-64.036,-158.052,-161.645
-75.76,-198.776,-169.615,-202.955,-73.251,-72.429,-193.303,-201.184
-74.079,-204.432,-169.189,-204.132,-70.999,-71.129,-196.593,-206.622
-66.84,-187.317,-152.684,-185.598,-63.849,-63.856,-186.773,-192.1
-67.786,-206.434,-173.048,-205.715,-65.076,-64.615,-208.24,-206.371
-77.3,-255.988,-220.266,-260.381,-75.065,-74.668,-255.739,-254.088
-82.01,-273.248,-229.783,-285.165,-80.433,-79.959,-274.169,-281.786
-76.752,-248.034,-191.435,-264.425,-75.557,-74.391,-252.662,-265.745
-73.071,-246.706,-186.796,-264.081,-71.946,-70.468,-253.496,-260.553
-78.866,-298.621,-254.886,-318.171,-78.021,-77.532,-305.193,-305.415
-84.86,-339.108,-308.705,-364.232,-84.6,-85.453,-346.718,-348.578
-81.461,-305.802,-269.172,-336.503,-81.727,-82.916,-316.67,-324.505
-76.267,-232.492,-185.653,-264.047,-76.762,-77.868,-243.646,-255.582
-81.508,-204.059,-165.568,-232.48,-82.159,-83.757,-212.738,-225
-92.537,-236.327,-216.981,-263.066,-93.839,-95.812,-245.301,-255.388
-95.026,-257.457,-242.024,-283.152,-97.025,-98.841,-266.972,-274.401
-88.686,-229.337,-200.15,-247.352,-89.936,-91.907,-232.111,-236.748
-87.554,-206.718,-162.119,-213.208,-86.787,-89.065,-197.987,-200.911
-96.872,-231.114,-185.364,-234.224,-94.843,-96.508,-217.952,-221.68
-104.868,-257.232,-223.575,-264.902,-102.955,-103.253,-248.605,-253.743
-101.996,-235.619,-209.878,-243.408,-100.453,-99.533,-229.655,-234.059
-95.773,-197.473,-170.674,-198.99,-94.434,-92.641,-188.407,-189.983
-98.768,-198.939,-169.993,-199.311,-97.754,-95.249,-188.54,-187.26
-108.838,-225.97,-202.34,-234.469,-108.148,-105.063,-221.645,-218.564
-112.446,-220.918,-207.609,-236.372,-112.051,-108.67,-225.734,-222.752
-106.724,-180.901,-172.223,-194.213,-106.802,-103.536,-189.941,-188.892
-103.525,-163.832,-154.425,-172.528,-103.905,-101.013,-172.06,-171.59
-109.192,-192.54,-178.469,-202.596,-109.035,-106.519,-199.606,-198.214
-115.357,-217.502,-197.877,-230.715,-114.2,-111.644,-222.921,-223.538
-113.512,-197.519,-178.655,-208.697,-112.266,-109.199,-198.584,-204.347
-107.964,-162.579,-149.934,-170.383,-108.044,-104.808,-161.077,-168.388
-108.122,-159.792,-155.252,-170.257,-109.634,-107.125,-164.224,-165.753
-113.941,-173.552,-172.787,-190.071,-115.541,-114.234,-186.162,-182.428
-116.553,-154.981,-152.57,-171.053,-117.81,-117.111,-164.585,-163.464
-112.386,-109.683,-105.1,-117.786,-114.453,-113.248,-106.64,-111.053
-109.503,-88.751,-86.027,-93.425,-112.032,-110.524,-80.415,-87.486
-114.336,-101.439,-115.621,-114.506,-115.362,-114.803,-103.72,-112.043
-120.324,-102.836,-142.666,-125.213,-120.08,-120.589,-116.601,-126.486
-118.624,-71.059,-114.858,-89.527,-118.88,-119.824,-80.046,-90.749
-112.998,-41.596,-55.742,-46.302,-113.089,-114.648,-36.1,-45.799
-114.079,-50.954,-34.419,-45.243,-111.883,-113.948,-37.668,-44.162
-120.994,-87.867,-77.161,-80.41,-116.941,-118.019,-78.08,-79.675
-121.586,-114.978,-132.263,-112.608,-118.438,-117.428,-115.676,-113.11
-113.101,-117.108,-145.106,-122.495,-112.109,-109.761,-128.158,-124.924
-107.63,-115.984,-128.114,-125.78,-107.436,-104.911,-129.9,-128.442
-112.435,-134.154,-128.25,-142.067,-111.837,-108.909,-144.14,-141.825
-118.494,-159.165,-154.331,-161.59,-117.613,-113.697,-164.48,-157.523
-115.273,-162.151,-162.926,-158.795,-113.937,-109.936,-161.813,-153.107
-106.85,-144.488,-140.07,-137.952,-104.551,-101.637,-137.1,-133.617
-104.585,-138.673,-129.436,-135.471,-101.941,-99.515,-129.434,-132.215
-109.309,-155.845,-150.283,-159.242,-107.701,-104.446,-151.144,-152.962
-110.549,-163.933,-164.069,-166.787,-110.534,-106.385,-161.027,-155.628
-104.303,-140.332,-139.355,-135.614,-105.048,-100.977,-131.52,-123.247
-99.883,-114.545,-110.44,-107.329,-100.083,-96.884,-100.007,-97.548
-103.132,-119.608,-118.196,-119.25,-102.487,-100.222,-109.307,-111.346
-106.483,-133.181,-137.898,-140.245,-105.775,-103.967,-134.987,-132.063
-101.726,-119.45,-130.497,-128.428,-101.476,-99.781,-129.86,-119.117
-92.735,-102.744,-111.106,-113.907,-92.85,-91.277,-113.435,-101.747
-89.571,-129.989,-128.202,-149,-89.914,-88.411,-140.102,-132.581
-93.133,-179.519,-176.225,-204.961,-93.477,-91.857,-190.706,-186.281
-93.832,-183.371,-186.987,-204.796,-93.821,-91.993,-189.331,-187.751
-87.57,-131.571,-139.661,-142.341,-86.843,-85.01,-127.006,-129.457
-83.033,-90.947,-94.197,-93.359,-81.32,-79.886,-79.849,-82.983
-86.656,-107.273,-100.244,-104.324,-84.198,-83.13,-94.106,-92.307
-90.747,-135.625,-123.614,-128.376,-88.129,-86.859,-120.955,-114.369
-85.894,-109.639,-103.764,-101.158,-83.313,-81.719,-95.791,-89.435
-76.942,-55.702,-62.644,-49.318,-74.171,-72.592,-46.649,-41.89
-75.673,-62.129,-68,-58.036,-72.528,-70.52,-58.374,-51.377
-81.448,-130.254,-119.23,-126.622,-77.901,-74.708,-129.667,-118.241
-81.391,-159.116,-143.1,-155.131,-77.706,-73.782,-161.249,-148.304
-71.471,-108.068,-105.995,-105.706,-68.35,-64.746,-113.753,-103.658
-63.982,-57.145,-67.278,-58.493,-61.703,-58.827,-63.952,-58.968
-67.372,-59.571,-68.184,-62.485,-65.465,-62.928,-63.045,-62.101
-71.992,-61.412,-68.725,-62.12,-70.75,-67.897,-63.208,-62.142
-66.273,-15.262,-31.801,-14.689,-67.001,-64.102,-21.129,-18.292
-56.2,36.061,9.49,34.069,-59.201,-57.206,25.562,26.28
-54.83,33.314,1.153,28.37,-58.834,-57.625,20.943,18.178
-60.513,-1.769,-32.209,-7.012,-64.5,-63.227,-14.901,-16.024
-60.9,7.035,-19.256,2.416,-64.935,-63.526,-6.812,-3.357
-53.826,70.902,39.479,64.42,-57.961,-56.933,55.041,58.698
-49.729,111.897,69.996,100.232,-53.825,-53.548,91.125,90.984
-53.557,91.787,35.04,74.881,-57.91,-58.659,64.847,63.579
-57.277,74.938,-2.177,58.494,-61.818,-63.756,46.169,47.847
-53.213,115.146,31.789,107.83,-57.04,-59.56,91.923,97.147
-46.337,166.758,107.304,170.822,-49.071,-50.814,152.41,159.613
-47.123,161.572,130.65,169.821,-49.447,-49.522,153.674,160.73
-53.861,111.883,73.349,117.25,-56.401,-55.156,104.418,110.084
-53.463,82.263,11.648,83.85,-56.115,-54.857,69.861,73.634
-43.208,90.685,12.905,91.806,-45.351,-45.205,75.705,77.385
-36.934,91.355,46.177,97.475,-37.766,-38.24,82.442,85.467
-42.803,56.578,44.923,70.745,-42.146,-41.56,55.978,67.064
-49.808,22.326,5.444,39.592,-48.79,-46.511,21.025,41.618
-45.824,25.716,-17.19,36.928,-45.814,-42.818,15.14,37.19
-36.117,42.825,-7.503,43.996,-37.072,-34.517,24.703,37.754
-33.001,30.291,-8.199,22.539,-34.024,-32.569,10.75,11.7
-36.564,-2.524,-32.737,-17.867,-37.768,-37.296,-22.339,-26.996
-36.266,-9.215,-41.584,-29.005,-38.617,-38.099,-32.356,-34.425
-28.855,14.791,-15.241,-5.353,-32.461,-31.261,-12.917,-10.288
-23.949,18.943,-4.602,-1.442,-28.081,-26.661,-10.377,-5.503
-27.611,-20.277,-46.69,-41.472,-31.829,-30.687,-46.653,-40.439
-32.308,-56.357,-86.021,-75.223,-36.377,-35.493,-78.332,-67.336
-29.957,-37.187,-61.733,-52.227,-33.759,-32.898,-56.103,-39.31
-24.721,22.464,-0.009,7.912,-28.782,-27.715,6.23,19.951
-25.081,58.778,24.903,42.468,-30.091,-28.614,41.185,46.796
-30.059,45.131,-2.406,28.877,-35.751,-33.675,18.091,27.271
-31.371,27.436,-19.99,13.788,-36.663,-34.163,-6.396,11.46
-26.083,43.536,3.727,32.391,-30.316,-28.027,16.123,26.889
-21.405,53.568,21.809,40.396,-24.706,-23.029,36.04,32.439
-23.86,14.022,-11.899,-6.386,-26.768,-25.435,-3.93,-8.365
-28.108,-36.315,-63.851,-61.696,-31.462,-30.123,-61.658,-57.864
-25.292,-37.867,-65.72,-58.533,-29.411,-28.197,-64.311,-56.882
-18.196,-2.33,-21.141,-12.443,-22.222,-21.211,-21.253,-13.926
-17.411,17.307,8.282,13.402,-20.601,-19.32,4.023,12.847
-24.3,8.264,-4.062,3.926,-27.019,-25.195,-5.944,3.132
-28.122,7.967,-18.696,1.298,-30.775,-29.033,-9.089,-5.602
-23.025,41.099,3.442,30.879,-25.414,-24.46,18.366,14.352
-17.232,69.25,30.663,52.72,-19.497,-19.079,35.372,30.175
-19.002,38.919,17.247,18.971,-21.815,-21.096,-0.082,-0.031
-23.858,-25.696,-22.645,-39.085,-27.132,-25.67,-52.047,-48.25
-22.547,-44.99,-40.218,-47.604,-25.238,-23.521,-52.26,-50.507
-15.738,-10.146,-21.425,-9.43,-17.536,-16.608,-10.607,-12.522
-13.219,9.576,-1.928,7.215,-15.161,-15.313,5.478,2.603
-18.637,3.494,8.408,1.058,-21.44,-21.889,-1.435,-4.407
-23.194,36.873,38.204,37.926,-26.387,-26.383,32.625,30.688
-19.864,115.215,84.768,115.761,-22.696,-22.067,102.939,107.276
-16.365,157.626,105.616,153.12,-18.23,-17.054,135.423,146.406
-22.138,128.606,77.682,123.029,-22.79,-21.251,111.14,119.945
-30.52,98.77,47.424,100.402,-30.359,-28.941,97.979,97.658
-29.018,133.188,76.011,146.506,-28.227,-27.567,144.095,136.928
-20.72,188.402,141.405,211.431,-18.745,-18.827,200.593,194.243
-19.863,184.866,161.219,210.266,-16.455,-16.253,194.123,193.858
-27.498,129.349,107.437,150.324,-23.466,-21.83,134.103,139.597
-29.195,92.103,47.141,108.417,-25.563,-22.405,90.251,100.364
-20.385,96.142,40.314,112.2,-17.125,-13.446,91,104.951
-14.433,96.226,59.875,113.805,-10.803,-7.569,97.972,109.699
-18.983,63.344,52.018,79.187,-14.932,-12.713,76.656,78.915
-23.24,30.294,19.869,41.522,-19.233,-18.48,44.599,41.552
-16.998,29.992,10.153,38.736,-13.037,-13.494,32.006,35.713
-7.12,36.372,21.541,46.203,-3.448,-3.937,28.91,41.406
-5.762,9.678,5.951,18.675,-3.386,-2.835,6.472,16.867
-11.46,-32.928,-32.097,-28.841,-10.652,-9.097,-26.032,-25.673
-12.426,-38.391,-35.902,-36.538,-12.216,-10.486,-27.064,-32.203
-6.287,2.376,7.706,5.991,-5.952,-4.603,10.127,7.472
-3.91,33.566,33.432,34.394,-3.22,-2.373,31.536,33.666
-10.223,13.756,-1.807,6.111,-8.816,-8.282,-1.912,6.323
-15.555,-21.967,-43.063,-32.77,-13.67,-13.171,-45.135,-30.023
-11.742,-18.273,-27.827,-20.975,-10.192,-10.296,-32.113,-17.594
-5.334,16.572,21.51,24.303,-4.1,-5.671,21.109,25.921
-6.896,26.382,33.684,36.106,-5.398,-8.096,40.686,37.804
-14.215,-3.299,-3.651,1.616,-12.391,-15.335,9.61,6.338
-16.513,-20.856,-24.211,-18.893,-14.516,-17.216,-11.525,-13.806
-11.869,3.911,3.55,7.65,-9.583,-11.307,10.524,8.216
-10.047,27.997,31.96,35.342,-7.1,-6.954,32.154,32.177
-16.561,9.201,15.556,21.091,-12.434,-10.457,13.772,18.446
-23.478,-25.834,-20.672,-8.117,-17.997,-15.396,-15.939,-8.869
-21.908,-26.949,-20.573,-3.265,-15.545,-13.608,-9.283,-3.912
-15.641,-0.472,10.945,28.476,-9.033,-7.892,22.316,26.492
-15.106,4.164,21.089,35.43,-8.546,-7.256,27.752,33.955
-21.478,-22.481,-6.052,5.506,-15.152,-12.762,-0.278,7.376
-24.762,-34.788,-27.613,-12.996,-19.212,-15.616,-16.198,-8.758
-19.877,-8.611,-9.694,9.44,-15.571,-11.55,3.427,12.16
-15.17,16.093,14.775,32.671,-11.611,-8.149,22.353,32.916
-18.454,2.447,9.679,16.414,-14.642,-12.145,9.193,18.472
-24.276,-21.651,-6.696,-9.584,-19.929,-18.16,-7.563,-2.4
-22.881,-11.263,-0.846,2.941,-18.572,-17.309,9.028,11.257
-15.712,23.458,24.967,40.822,-12.224,-11.642,39.968,42.936
-13.228,34.586,34.449,51.74,-10.906,-10.976,42.194,46.31
-18.682,19.947,25.396,34.996,-17.203,-17.14,25.297,27.78
-23.028,33.273,37.958,47.415,-21.898,-21.152,41.459,42.904
-19.32,88.661,80.244,102.394,-18.161,-17.548,96.959,100.528
-14.46,125.436,108.034,139.305,-12.828,-13.026,133.003,139.504
-18.033,102.536,84.702,118.661,-15.544,-15.779,112.96,120.594
-25.9,64.941,45.098,83.32,-22.592,-22.635,79.559,85.58
-26.034,77.685,53.586,96.35,-22.737,-23.436,92.601,96.121
-18.187,129.977,107.376,148.428,-15.876,-16.916,142.568,142.825
-15.105,152.2,137.955,171.352,-13.436,-13.449,167.83,161.781
-20.607,116.684,104.051,138.145,-18.364,-16.834,140.817,130.421
-22.453,70.629,50.958,95.442,-19.201,-16.785,98.121,92.093
-14.32,60.658,40.361,88.463,-10.262,-7.979,82.409,85.508
-7.702,68.932,62.616,99.719,-2.662,-0.925,85.591,94.65
-12.319,56.338,65.662,89.875,-6.33,-4.362,74.934,85.184
-18.81,31.486,35.339,63.463,-13.259,-10.352,51.983,60.537
-13.502,28.216,14.914,50.975,-9.872,-7.369,43.533,48.672
-0.967,39.764,23.838,49.003,0.969,1.174,44.283,45.748
3.145,28.478,22.288,27.191,4.156,2.95,24.502,22.707
-3.217,-5.906,-5.431,-9.966,-3.048,-3.34,-8.818,-12.602
-6.109,-19.064,-17.562,-19.583,-6.271,-5.662,-17.108,-17.433
1.69,3.093,11.24,6.021,2.176,2.252,4.675,12.737
9.911,13.019,31.292,15.747,11.026,10.577,13.933,23.879
8.633,-20.373,-3.307,-18.37,9.724,9.312,-14.501,-13.903
3.428,-54.728,-44.364,-51.301,4.897,3.765,-43.476,-50.68
4.847,-36.821,-26.364,-32.459,7.995,4.954,-23.764,-30.029
11.212,13.305,30.034,16.504,16.18,11.488,28.709,23.445
11.706,26.699,46.994,30.298,16.834,11.985,48.208,39.777
5.487,-7.482,9.725,-1.063,9.218,4.812,18.047,7.491
4.037,-22.082,-8.699,-14.852,6.195,1.68,-2.257,-10.139
11.48,13.777,24.299,19.518,12.562,8.361,23.989,21.679
17.099,40.842,54.212,47.482,18.088,15.441,51.182,49.597
13.149,15.406,36.697,27.074,15.435,14.337,34.265,26.722
7.626,-15.162,4.48,1.137,11.178,11.021,6.37,-2.726
10.799,4.872,12.551,20.7,14.089,14.719,22.383,17.349
18.499,44.203,46.295,57.456,21.35,21.887,61.907,53.809
19.036,30.357,47.307,44.157,22.637,22.396,49.025,36.146
11.883,-34.797,1.381,-18.951,16.3,16.605,-24.546,-27.877
8.833,-71.645,-39.853,-56.802,13.416,15.129,-71.596,-60.959
15.51,-43.63,-27.97,-32.189,20.162,21.651,-43.717,-32.855
22.488,-4.558,9.181,5.943,26.667,26.797,0.507,5.148
20.611,2.832,24.334,15.314,23.019,23.072,8.234,14.734
14.833,5.053,22.894,16.868,15.307,16.039,6.236,19.937
15.627,31.939,34.687,38.322,15.538,15.488,31.283,46.4
22.757,65.714,60.16,66.537,22.81,21.362,67.055,74.233
25.823,70.042,65.696,68.139,25.833,24.407,72.744,70.083
20.788,50.9,53.214,47.109,21.535,20.245,54.478,46.053
16.371,61.076,67.386,55.873,18.765,15.759,67.629,54.929
19.719,114.499,113.671,110.645,22.978,17.569,123.995,108.807
24.854,150.47,143.342,150.706,27.486,21.049,161.21,149.521
22.853,131.669,120.146,136.354,24.393,18.825,143.67,138.058
16.558,105.761,78.842,112.797,17.61,14.01,118.615,114.474
16.315,123.897,81.714,131.123,17.58,15.707,132.628,127.807
23.059,160.492,127.007,168.512,25.053,23.897,161.282,159.984
25.814,158.375,151.284,168.813,28.968,27.847,156.398,159.463
20.281,115.775,116.746,127.414,23.943,22.933,116.635,119.576
16.99,81.15,65.286,91.015,19.185,18.671,82.873,84.074
23.299,77.635,50.649,85.96,22.94,23.148,78.833,80.373
30.892,75.687,61.828,86.406,29.283,30.237,81.145,83.305
29.844,46.356,57.11,61.69,29.211,30.363,59.207,60.954
24.695,9.469,30.876,25.042,25.979,25.975,22.562,25.824
26.631,3.54,20.65,10.939,28.977,27.045,5.548,12.282
34.795,19.839,31.678,17.286,36.834,34.204,11.663,17.685
37.281,9.287,19.559,5.296,38.707,37.155,5.471,5.624
30.604,-34.88,-19.432,-33.63,32.364,31.809,-26.363,-28.357
25.99,-51.846,-31.778,-48.851,28.729,27.706,-39.642,-39.618
31.27,-2.235,11.782,-2.111,33.864,31.919,4.138,0.713
37.717,58.959,60.318,58.262,38.57,36.591,60.668,52.292
35.126,57.517,52.141,57.515,34.429,32.94,59.062,53.177
29.159,15.945,13.772,13.469,27.929,26.846,17.125,15.038
31.507,13.642,11.403,9.401,29.889,29.257,12.613,10.293
40.315,53.682,49.205,54.156,38.656,37.965,55.311,53.045
42.996,63.321,67.357,70.506,42.416,40.423,75.262,73.38
37.241,24.724,40.824,32.245,37.82,34.069,44.006,39.466
34.814,6.307,23.38,8.093,35.101,30.592,20.475,13.89
41.567,41.025,46.744,37.212,40.479,36.905,42.118,39.336
48.168,62.223,64.546,54.829,46.065,44.442,54.38,57.599
46.057,12.743,28.289,4.16,43.923,43.741,6.22,11.874
41.028,-53.759,-30.653,-58.315,39.398,39.94,-54.404,-47.654
43.091,-54.961,-36.337,-51.115,42.125,43.126,-51.362,-42.318
49.737,-6.238,13.19,5.743,49.98,50.269,3.978,10.001
50.045,19.705,49.857,35.856,52.028,50.336,41.337,35.996
43.275,10.623,44.399,26.031,46.603,43.387,38.688,25.859
40.142,12.423,36.517,25.533,44.149,40.542,36.332,27.28
44.87,41.173,58.344,54.454,49.319,45.869,58.063,54.047
49.049,63.512,75.638,76.101,53.398,50.725,72.616,70.834
45.906,63.733,61.181,69.03,48.85,47.859,59.329,63.721
40.778,68.671,52.019,67.386,41.503,42.168,54.617,63.83
42.534,95.388,83.021,99.962,42.089,42.895,89.86,92.786
48.958,121.572,124.637,137.771,49.237,48.951,133.679,127.772
49.901,113.863,119.078,132.364,51.612,50.661,133.452,126.334
44.459,76.706,77.627,88.236,46.861,45.852,92.565,84.801
42.351,59.416,65.488,65.009,44.396,43.164,68.225,57.665
47.42,88.414,94.512,91.507,48.755,47.415,87.801,81.032
51.569,121.8,115.156,119.128,52.202,51.041,110.944,111.345
48.234,117.443,96.062,105.118,47.744,46.486,102.703,101.724
42.592,107.133,75.693,91.401,40.895,39.248,97.616,89.073
43.489,143.601,105.302,134.382,41.269,39.274,138.531,129.734
50.064,205.984,166.001,201.865,47.512,45.469,195.467,194.89
52.58,225.592,192.837,218.486,49.409,47.991,207.656,211.654
48.086,187.329,156.356,177.825,44.793,44.608,168.975,172.248
45.761,141.887,99.449,135.704,43.098,44.219,123.586,129.702
51.228,126.371,78.588,123.691,49.05,51.107,104.991,115.728
56.878,124.269,92.811,123.087,55.087,57.462,107.699,115.361
54.373,106.231,99.221,107.59,53.906,55.952,104.853,104.336
48.19,74.311,75.426,79.497,49.524,50.917,81.756,80.967
49.067,54.662,52.602,62.004,50.945,52.42,56.418,64.24
57.081,55.211,53.741,60.952,58.323,61.149,50.235,61.139
60.948,49.401,47.41,49.604,61.875,65.622,45.007,48.743
55.907,20.837,16.453,13.945,56.648,59.375,16.23,14.982
51.861,2.102,0.126,-7.985,51.81,52.693,-6.543,-4.98
57.248,31.349,35.557,23.797,56.699,56.586,23.677,25.371
64.425,82.176,84.135,76.224,64.113,63.928,81.684,74.912
62.602,93.741,81.046,82.191,62.052,62.05,92.844,79.223
56.173,66.789,44.092,47.634,54.228,54.806,51.285,42.715
57.189,58.236,37.592,39.894,53.529,55.474,29.572,32.092
65.539,75.906,65.501,64.656,61.277,64.01,49.692,57.256
68.634,62.962,64.937,51.78,65.664,66.708,44.421,50.795
61.816,8.652,12.882,-13.161,60.719,58.717,-11.325,-7.111
56.808,-17.888,-21.285,-49.627,55.856,52.226,-42.358,-43.195
62.881,23.163,12.404,-7.223,60.358,56.932,2.291,-5.596
71.268,77.424,67.739,58.872,67.603,64.825,67.999,59.283
68.997,76.369,76.422,72.614,65.777,63.425,82.985,79.029
59.569,36.851,45.531,42.275,57.792,56.033,55.085,53.575
56.75,32.238,39.705,36.704,56.604,55.953,43.546,42.492
62.287,70.356,67.995,68.059,63.506,63.698,63.872,61.972
64.634,75.076,72.532,67.121,65.963,66.444,60.6,53.703
59.416,16.886,27.004,6.398,58.932,60.555,2.91,-7.569
56.362,-28.402,-16.872,-38.893,54.044,57.099,-41.125,-51.175
61.945,-2.009,-1.381,-10.831,60.186,62.361,-9.179,-19.849
67.421,42.616,42.603,35.891,67.748,67.298,42.92,34.699
62.864,36.797,53.214,32.867,64.222,62.513,42.918,41.779
54.318,8.168,36.98,8.581,54.979,54.057,19.504,20.835
55.261,21.208,39.809,24.496,54.567,54.591,30.575,30.358
64.899,64.724,66.888,65.791,63.066,63.198,62.695,63.632
68.688,73.178,75,69.273,66.485,66.106,64.022,65.007
61.499,48.547,61.986,41.177,59.718,58.3,45.868,40.904
55.252,68.721,79.863,59.356,53.348,51.073,73.626,64.1
59.114,148.848,136.232,136.863,56.06,53.357,147.193,143.179
65.427,201.198,173.375,187.318,61.649,58.032,189.092,193.666
63.565,173.213,148.211,161.646,59.847,55.222,166.447,170.131
57.458,127.925,100.741,120.665,53.939,49.128,135.534,127.944
57.972,140.874,103.481,134.553,55.041,50.128,150.765,129.617
