EEG 1,EEG 2,EEG 3,EEG 4,EEG 5,EEG 6,EEG 7,EEG 8
56.297,-367.995,-65.046,-408.3,57.219,55.294,-363.721,-398.745
51.337,-344.542,-159.852,-368.784,53.458,52.599,-316.567,-343.304
35.412,-456.217,-379.87,-471.7,37.765,40.017,-434.586,-428.582
16.319,-587.166,-429.377,-615.103,18.071,20.606,-575.4,-569.946
4.541,-572.667,-260.057,-615.11,5.672,5.651,-554.384,-578.783
0.417,-440.778,-129.785,-478.914,1.857,-0.011,-414.113,-454.693
-4.141,-380.218,-220.285,-407.085,-1.62,-4.374,-353.678,-397.452
-15.338,-472.988,-389.718,-502.802,-12.574,-15.861,-453.568,-493.37
-30.677,-597.039,-415.464,-640.71,-29.146,-31.372,-589.975,-605.43
-41.218,-603.67,-293.808,-657.57,-41.401,-42.507,-607.261,-605.526
-43.596,-499.398,-200.619,-556.07,-45.598,-47.662,-518.814,-530.548
-46.783,-432.662,-260.114,-487.316,-50.171,-53.069,-477.746,-501.119
-60.008,-499.907,-400.533,-548.499,-62.701,-63.963,-550.288,-559.745
-79.152,-620.291,-459.32,-659.936,-79.556,-77.548,-640.212,-621.656
-93.018,-642.855,-376.512,-675.929,-92.399,-87.739,-629.519,-595.632
-98.854,-539.738,-263.665,-575.032,-99.386,-95.693,-524.208,-516.113
-102.843,-439.121,-264.684,-483.268,-104.817,-106.084,-447.082,-485.453
-110.462,-450.733,-358.858,-498.342,-112.485,-117.941,-469.243,-520.813
-120.741,-527.163,-411.505,-568.966,-121.746,-127.152,-527.337,-561.51
-128.268,-553.112,-365.761,-589.112,-128.584,-131.852,-543.531,-567.129
-132.426,-511.184,-305.162,-542.48,-132.43,-134.066,-517.304,-533.332
-137.759,-476.872,-319.404,-498.257,-136.518,-137.282,-481.61,-485.291
-145.78,-489.438,-367.419,-502.491,-142.327,-143.418,-454.13,-467.307
-154.589,-516.923,-375.09,-533.046,-149.931,-151.816,-439.938,-482.465
-161.508,-521.361,-353.69,-548.534,-158.963,-159.179,-449.733,-488.728
-163.773,-499.892,-355.336,-539.598,-166.443,-162.906,-490.151,-477.219
-163.169,-480.93,-388.908,-532.031,-170.302,-164.74,-530.471,-477.522
-164.139,-476.457,-403.195,-536.841,-172.884,-167.658,-532.905,-492.431
-165.128,-458.714,-378.642,-529.497,-175.475,-171.975,-515.617,-508.548
-164.531,-424.27,-361.534,-504.19,-177.441,-177.267,-510.822,-518.845
-168.016,-424.488,-382.988,-500.779,-181.425,-183.38,-514.976,-510.873
-176.211,-475.187,-413.326,-541.741,-188.255,-188.986,-520.708,-504.29
-180.336,-507.285,-409.24,-581.397,-192.687,-192.743,-527.309,-535.672
-178.924,-486.13,-392.106,-581.138,-193.72,-194.86,-541.612,-580.27
-180.331,-462.923,-394.511,-563.11,-197.197,-196.609,-560.43,-576.702
-186.868,-464.756,-391.852,-551.609,-204.18,-200.425,-556.231,-533.863
-191.174,-460.874,-368.417,-540.935,-208.11,-206.237,-527.675,-518.724
-189.673,-434.604,-354.498,-520.905,-206.368,-209.512,-505.088,-535.093
-188.611,-414.885,-376.319,-504.819,-204.921,-208.797,-496.787,-532.436
-192.7,-422.024,-399.791,-506.446,-207.737,-207.962,-482.422,-500.219
-198.308,-425.1,-379.649,-499.216,-211.74,-208.81,-455.623,-457.568
-199.429,-389.438,-331.24,-453.247,-212.466,-208.515,-425.577,-413.757
-195.082,-328.942,-294.661,-388.825,-209.51,-205.666,-389.147,-378.085
-188.798,-285.381,-297.884,-350.672,-205.512,-201.696,-360.371,-360.347
-183.341,-286.559,-331.608,-361.305,-201.316,-197.268,-373.9,-369.223
-179.162,-319.27,-352.386,-400.155,-195.602,-192.14,-412.93,-401.172
-174.591,-332.251,-330.319,-412.66,-187.965,-185.709,-412.96,-414.41
-168.835,-297.334,-273.451,-367.833,-180.806,-178.76,-353.577,-366.495
-163.668,-253.057,-239.928,-304.571,-175.813,-173.344,-293.396,-291.204
-159.053,-259.369,-273.437,-298.607,-170.364,-168.875,-307.339,-282.265
-153.722,-328.85,-337.893,-376.736,-162.755,-163.355,-394.091,-371.503
-148.726,-406.124,-367.922,-471.511,-155.481,-157.661,-467.799,-474.446
-144.787,-423.004,-336.848,-494.12,-150.237,-153.617,-467.828,-494.852
-141.939,-388.51,-290.361,-451.086,-147.284,-150.727,-432.168,-440.532
-141.309,-361.798,-283.55,-413.537,-147.469,-148.613,-409.174,-386.891
-142.646,-362.944,-302.99,-409.004,-149.7,-148.736,-391.999,-372.347
-142.857,-373.794,-308.753,-417.393,-150.338,-149.691,-377.033,-380.654
-139.445,-368.012,-297.3,-412.68,-147.418,-147.305,-374.914,-387.481
-134.346,-340.561,-296.987,-389.846,-142.733,-142.064,-375.912,-385.188
-131.578,-308.428,-296.678,-356.105,-138.814,-138.163,-348.269,-360.145
-132.271,-271.753,-254.489,-307.03,-137.052,-137.137,-275.447,-300.897
-132.784,-223.43,-185.208,-246.727,-135.998,-136.049,-195.366,-232.144
-129.573,-181.181,-147.794,-201.988,-132.752,-131.454,-168.808,-188.129
-124.721,-172.359,-174.212,-194.855,-128.172,-124.751,-206.552,-178.87
-122.28,-197.967,-223.475,-218.05,-125.084,-120.938,-248.653,-199.362
-121.905,-230.508,-237.341,-244.759,-123.464,-121.558,-248.737,-237.324
-119.464,-249.185,-221.238,-257.951,-121.345,-121.097,-244.415,-265.166
-114.813,-258.084,-205.921,-260.304,-118.733,-115.613,-271.745,-256.786
-112.855,-266.648,-203.024,-262.873,-116.605,-109.724,-289.038,-230.611
-114.08,-275.49,-209.082,-276.833,-113.757,-108.218,-268.341,-240.313
-112.729,-283.455,-226.705,-302.234,-108.849,-108.058,-260.019,-295.398
-106.829,-295.928,-255.491,-324.867,-103.165,-104.144,-298.224,-338.127
-101.879,-309.606,-257.101,-327.819,-99.316,-98.281,-330.008,-325.127
-101.954,-304.844,-219.187,-305.151,-98.327,-96.444,-300.492,-282.432
-104.346,-278.378,-191.975,-268.304,-98.665,-98.612,-240.525,-248.155
-105.439,-265.947,-209.47,-246.761,-98.576,-98.601,-221.895,-225.539
-105.166,-294.658,-242.535,-265.303,-97.884,-94.147,-258.447,-219.934
-103.23,-328.734,-241.27,-301.975,-96.087,-89.649,-290.434,-244.714
-98.547,-332.09,-213.466,-322.773,-92.962,-88.773,-288.547,-291.63
-93.27,-319.224,-194.877,-325.029,-90.788,-89.845,-284.913,-320.888
-90.919,-301.264,-186.313,-310.392,-91.305,-89.986,-288.476,-297.142
-90.652,-275.836,-184.033,-283.984,-91.664,-88.492,-277.363,-244.583
-90.202,-263.882,-196.489,-271.149,-89.173,-86.548,-255.752,-220.371
-91.188,-293.147,-218.092,-292.994,-86.821,-86.484,-254.251,-242.968
-93.457,-337.971,-213.797,-323.744,-87.164,-87.778,-273.135,-275.546
-92.848,-334.038,-177.99,-310.885,-87.46,-87.073,-274.965,-274.378
-88.456,-277.712,-156.977,-254.5,-84.41,-82.92,-244.873,-237.236
-86.097,-243.962,-168.37,-221.079,-80.909,-79.118,-219.954,-210.513
-90.025,-273.566,-189.276,-248.513,-82.306,-80.146,-236.53,-233.637
-95.511,-307.791,-189.851,-281.183,-86.63,-83.365,-263.465,-265.585
-98.374,-293.557,-171.462,-264.772,-89.441,-85.069,-254.739,-248.348
-100.803,-269.889,-175.365,-237.255,-91.157,-86.735,-231.527,-211.36
-102.95,-279.751,-204.169,-245.734,-92.529,-88.942,-229.947,-207.709
-101.18,-295.442,-210.592,-266.204,-91.419,-88.965,-237.065,-226.296
-96.206,-288.618,-178.265,-267.37,-87.929,-86.826,-234.562,-237.226
-94.158,-284.826,-163.321,-266.146,-86.703,-86.353,-239.724,-243.245
-97.267,-309.012,-208.441,-284.359,-89.569,-88.247,-266.136,-256.886
-101.324,-335.48,-248.844,-301.675,-92.494,-89.099,-284.095,-264.685
-102.408,-329.673,-218.465,-287.88,-92.027,-87.456,-264.789,-247.169
-100.267,-300.686,-162.382,-256.911,-89.233,-85.587,-230.319,-223.554
-97.426,-280.967,-160.852,-244.506,-87.353,-85.59,-218.509,-222.11
-97.266,-288.284,-208.317,-259.191,-88.175,-87.479,-232.166,-236.487
-100.653,-303.571,-222.163,-269.636,-90.796,-90.72,-233.987,-238.179
-105.383,-286.388,-182.356,-237.121,-94.089,-94.299,-193.784,-202.139
-109.333,-233.949,-152.347,-171.925,-98.153,-96.531,-137.921,-139.014
-112.213,-201.726,-161.75,-140.39,-102.335,-97.726,-126.338,-110.402
-114.63,-229.168,-178.227,-180.712,-105.317,-100.238,-171.664,-154.231
-116.827,-271.762,-175.126,-234.58,-107.097,-104.483,-212.205,-212.644
-118.687,-277.939,-171.279,-237.909,-108.407,-108.181,-206.119,-219.819
-120.972,-260.329,-175.979,-207.684,-110.189,-109.979,-178.372,-187.953
-126.372,-240.211,-168.331,-181.563,-115.337,-113.215,-155.867,-155.376
-134.701,-216.37,-149.826,-164.95,-124.524,-121.164,-139.572,-136.555
-140.926,-193.464,-144.973,-149.821,-132.68,-129.957,-127.281,-126.028
-143.358,-189.477,-166.771,-140.828,-136.15,-134.037,-126.771,-119.84
-146.149,-210.47,-190.335,-150.816,-137.789,-135.131,-143.336,-127.902
-152.253,-237.499,-192.446,-176.26,-142.19,-139.271,-169.039,-154.786
-159.219,-249.787,-189.455,-196.182,-149.203,-147.357,-188.851,-184.214
-163.565,-240.171,-190.34,-193.327,-155.246,-155.586,-185.003,-198.397
-165.834,-213.981,-190.047,-171.888,-158.817,-161.451,-158.915,-196.886
-169.291,-191.928,-191.5,-155.702,-162.085,-164.961,-143.686,-187.261
-175.267,-192.5,-199.434,-160.025,-167.549,-168.05,-159.387,-177.594
-181.355,-204.828,-204.327,-170.155,-173.985,-172.35,-177.09,-172.379
-185.402,-194.335,-185.696,-153.584,-178.929,-177.234,-156.493,-153.521
-188.179,-151.824,-165.805,-105.071,-182.768,-181.265,-107.192,-104.147
-190.997,-117.889,-182.903,-66.655,-186.764,-184.433,-76.206,-56.955
-194.371,-127.644,-213.468,-75.043,-190.769,-188.517,-83.807,-63.973
-198.997,-155.989,-202.461,-107.534,-194.611,-194.592,-102.36,-113.87
-204.89,-148.146,-149.912,-106.833,-198.679,-200.975,-92.289,-133.306
-210.048,-110.406,-131.936,-72.876,-202.598,-205.522,-66.357,-104.975
-212.676,-105.483,-180.176,-65.55,-205.313,-208.142,-71.869,-90.438
-214.23,-143.403,-217.146,-97.802,-207.329,-210.403,-105.666,-112.326
-217.852,-170.482,-188.078,-119.435,-210.596,-213.638,-121.438,-125.198
-224.357,-157.794,-146.841,-101.053,-215.915,-217.949,-101.178,-97.765
-230.953,-135.218,-166.997,-74.697,-221.647,-222.579,-78.627,-64.675
-235.299,-133.44,-219.452,-76.865,-226.042,-227.251,-80.224,-71.589
-240.235,-139.277,-223.71,-91.244,-231.438,-234.174,-83.18,-99.598
-248.373,-133.187,-181.061,-89.767,-240.408,-244.419,-69.322,-106.14
-256.918,-125.05,-157.559,-82.846,-250.219,-254.41,-63.401,-99.192
-263.24,-137.251,-189.143,-98.165,-257.227,-260.953,-94.462,-114.714
-268.285,-174.193,-238.075,-140.546,-261.928,-265.502,-150.585,-156.468
-273.86,-217.869,-260.708,-188.08,-267.143,-271.11,-195.262,-197.662
-280.564,-253.335,-273.326,-222.442,-273.86,-277.928,-218.97,-223.41
-288.098,-279.351,-290.176,-245.034,-281.207,-284.639,-239.148,-240.134
-295.617,-300.368,-294.018,-267.27,-288.585,-291.489,-265.843,-259.489
-301.921,-319.814,-282.266,-292.227,-295.353,-298.604,-289.448,-282.011
-306.901,-334.646,-286.911,-307.463,-300.819,-304.883,-297.091,-293.863
-311.613,-345.405,-327.221,-311.876,-305.312,-309.972,-296.57,-296.984
-316.8,-354.04,-358.18,-317.299,-309.929,-314.888,-298.507,-305.237
-322.791,-353.377,-340.68,-319.953,-315.59,-320.885,-294.647,-310.314
-329.567,-340.385,-305.124,-308.486,-322.217,-328.047,-278.033,-298.402
-336.208,-332.052,-298.988,-294.454,-328.608,-334.849,-265.529,-285.384
-341.264,-348.737,-326.108,-304.408,-333.274,-339.607,-280.606,-299.132
-344.67,-379.097,-350.043,-335.985,-336.506,-342.854,-315.437,-333.776
-347.902,-396.921,-350.57,-364.536,-340.485,-347.168,-345.603,-365.098
-351.62,-392.173,-334.809,-372.803,-345.778,-353.382,-355.055,-376.119
-356.52,-367.757,-319.043,-353.329,-351.511,-360.098,-335.158,-356.213
-362.492,-340.181,-323.956,-322.672,-356.963,-366.033,-302.443,-330.645
-367.097,-335.142,-349.994,-316.88,-361.45,-370.688,-291.751,-342.101
-369.697,-365.386,-372.66,-350.508,-365.238,-373.835,-315.37,-382.351
-372.004,-407.086,-365.824,-392.875,-368.762,-375.188,-351.992,-406.445
-374.562,-418.585,-348.524,-403.433,-372.039,-375.995,-376.487,-401.642
-376.848,-399.005,-368.672,-387.056,-375.12,-378.05,-385.43,-390.476
-378.855,-386.771,-409.919,-379.978,-377.858,-380.903,-390.35,-388.519
-380.006,-397.003,-411.292,-393.597,-379.407,-383.145,-397.632,-401.261
-380.183,-409.056,-369.371,-408.783,-379.769,-385.073,-400.257,-426.966
-381.814,-410.279,-351.648,-411.8,-381.183,-387.752,-394.098,-443.698
-385.672,-411.393,-394.456,-411.945,-384.724,-390.795,-392.788,-438.145
-389.112,-416.053,-435.161,-417.334,-388.841,-393.508,-403.859,-423.876
-391.317,-414.318,-415.488,-418.374,-392.6,-395.973,-412.468,-409.257
-394.287,-404.34,-371.08,-406.383,-396.103,-398.126,-402.023,-388.416
-397.798,-390.418,-360.825,-385.848,-398.263,-399.8,-375.184,-368.476
-399.221,-375.908,-379.136,-369.718,-398.184,-401.201,-353.226,-368.922
-399.349,-360.87,-381.859,-360.307,-398.121,-402.921,-344.373,-379.837
-402.062,-342.861,-369.559,-346.154,-400.987,-405.856,-333.719,-370.306
-407.306,-319.315,-368.029,-318.87,-405.644,-409.644,-308.673,-334.667
-411.213,-289.085,-363.555,-281.327,-408.768,-412.675,-271.905,-294.007
-412.033,-257.999,-330.234,-246.437,-409.298,-414.179,-236.038,-267.841
-411.765,-237.141,-294.064,-226.211,-408.898,-414.659,-215.273,-254.58
-412.188,-237.592,-311.925,-228.76,-409.052,-414.99,-220.792,-253.665
-412.044,-252.87,-364.821,-248.465,-409.14,-415.64,-241.407,-272.866
-411.093,-256.539,-374.2,-257.735,-409.068,-416.446,-246.192,-288.372
-410.57,-233.065,-326.328,-234.155,-408.873,-415.755,-221.368,-260.025
-409.623,-194.294,-282.529,-188.791,-407.17,-412.671,-183.254,-201.367
-407.126,-171.137,-295.032,-161.568,-404.086,-409.11,-166.133,-173.315
-403.382,-182.089,-338.516,-177.752,-401.173,-406.427,-187.578,-199.691
-398.856,-203.593,-350.536,-209.551,-398.372,-404.029,-218.248,-241.846
-394.419,-198.986,-317.96,-209.253,-395.067,-401.247,-215.298,-250.182
-392.111,-166.193,-275.973,-169.61,-392.936,-398.388,-177.237,-209.846
-391.656,-137.04,-269.408,-131.149,-392.383,-395.738,-145.608,-162.515
-389.297,-135.593,-301.99,-129.412,-389.931,-392.488,-149.541,-160.244
-383.308,-145.118,-324.705,-145.487,-384.073,-387.765,-165.923,-182.525
-375.487,-132.678,-296.354,-138.583,-377.266,-381.98,-157.223,-177.117
-367.883,-89.475,-233.166,-99.263,-371.469,-376.794,-117.387,-144.025
-362.301,-36.906,-208.013,-46.674,-366.855,-372.788,-68.388,-106.722
-358.718,-2.773,-249.272,-4.107,-361.978,-367.31,-33.792,-70.217
-353.673,4.537,-275.88,12.773,-354.592,-357.89,-23.774,-44.442
-344.698,3.975,-215.669,11.465,-345.043,-346.607,-25.647,-36.935
-333.941,25.085,-125.847,24.458,-336.244,-337.221,-10.391,-24.195
-324.47,54.422,-125.747,47.752,-329.153,-330.117,11.195,-6.956
-315.862,52.309,-204.815,41.967,-321.57,-322.963,4.231,-17.799
-307.227,33.835,-227.746,20.919,-313.014,-315.013,-11.401,-35.005
-298.507,51.998,-145.693,42.517,-304.182,-305.687,14.503,-0.086
-289.842,103.904,-56.371,104.488,-294.904,-294.778,72.595,71.395
-283.669,116.791,-67.807,125.904,-287.333,-286.435,88.242,88.358
-278.618,70.9,-148.199,80.776,-281.077,-281.193,43.909,30.42
-269.56,36.842,-177.034,41.256,-272.366,-273.548,9.866,-17.338
-257.9,48.083,-132.493,46.836,-262.05,-262.792,18.725,-5.833
-248.614,68.439,-97.103,66.45,-253.107,-252.808,37.67,28.91
-240.533,72.168,-114.166,72.029,-244.036,-243.78,41.332,42.168
-229.279,68.623,-131.745,66.523,-231.854,-232.711,37.117,31.62
-216.218,72.073,-109.14,65.835,-218.423,-219.908,40.667,25.533
-205.493,83.477,-81.748,78.037,-207.318,-208.151,53.678,40.463
-195.987,99.174,-73.008,99.948,-197.368,-197.262,71.445,65.673
-183.349,114.785,-65.221,120.818,-184.769,-184.524,88.234,82.391
-167.443,121.185,-48.393,126.293,-169.491,-169.629,94.652,81.759
-152.677,117.171,-39.722,117.54,-155.334,-155.391,90.14,73.46
-140.848,115.304,-49.813,113.652,-143.603,-142.819,87.764,75.183
-129.45,131.016,-44.46,131.321,-131.969,-130.174,103.997,96.769
-116.706,169.092,-7.644,171.954,-119.049,-116.559,142.225,136.291
-103.756,213.641,22.848,218.221,-106.114,-103.154,184.013,178.585
-92.421,234.905,21.162,240.543,-94.973,-91.535,200.94,198.746
-82.322,220.173,11.629,224.943,-84.959,-81.295,185.217,185.605
-71.193,199.645,32.79,201.719,-73.318,-70.113,168.815,167.606
-57.924,202.932,68.12,202.402,-59.362,-57.005,174.533,171.894
-43.477,219.229,80.451,215.493,-45.255,-43.604,186.33,185.093
-29.984,229.254,79.148,220.487,-33.273,-32.249,188.975,186.972
-18.43,230.317,81.949,216.731,-23.253,-22.695,185.515,177.357
-7.815,231.612,83.345,216.518,-13.237,-12.308,186.32,172.48
2.288,236.436,78.363,223.402,-2.886,-0.63,191.999,180.353
11.931,245.635,91.015,236.095,7.184,10.863,202.9,196.504
21.537,270.464,132.663,264.895,17.136,21.627,230.499,225.65
31.503,307.216,165.406,305.457,27.633,32.263,268.438,264.513
41.922,329.791,166.891,329.514,38.864,42.901,291.256,287.654
52.677,326.061,157.658,323.88,50.232,52.935,288.704,281.373
63.742,312.912,164.915,307.115,61.12,62.533,277.076,265.227
74.039,308.696,181.257,300.186,70.692,71.663,275.008,262.963
82.984,311.532,177.779,301.484,79.242,80.139,281.076,271.192
91.962,315.016,169.775,301.286,88.271,88.66,286.308,273.286
101.862,318.896,185.916,296.82,97.88,97.461,285.307,263.026
111.691,320.262,211.908,289.042,106.704,105.924,275.882,248.334
120.609,318.834,212.176,284.588,114.507,114.289,264.723,244.187
128.982,315.447,181.385,283.885,122.538,123.369,257.089,251.095
136.178,310.784,167.192,281.436,130.184,131.909,255.221,258.965
140.802,316.07,195.473,287.209,135.154,137.499,268.727,269.156
144.016,339.074,229.79,311.608,138.436,140.788,298.999,284.041
148.682,353.954,231.822,328.181,143.601,145.24,311.847,285.06
155.745,327.833,205.287,301.548,151.376,152.564,274.35,253.962
163.047,280.553,187.851,252.481,158.895,160.427,221.322,212.928
167.792,250.53,197.73,221.26,163.596,165.438,200.929,189.857
171.247,252.159,226.583,221.06,166.726,168.53,211.845,190.892
176.191,293.238,259.452,259.933,170.372,172.807,241.065,225.255
181.646,350.835,269.245,317.856,174.186,178.143,276.12,276.719
185.54,371.016,246.609,341.012,177.44,182.623,291.92,297.587
188.105,339.52,218.976,313.283,180.162,186.017,276.474,278.367
190.534,301.82,225.522,279.096,182.901,189.452,255.166,258.624
193.005,294.036,252.366,272.721,186.137,192.798,252.095,255.408
196.077,296.951,239.05,273.547,190.152,195.8,249.643,243.26
200.149,281.276,193.093,253.829,194.328,198.933,228.811,210.545
203.895,256.445,185.303,225.506,197.201,201.94,203.329,184.556
206.409,249.052,232.28,216.593,198.512,204.394,190.8,190.8
208.041,260.128,261.538,229.206,199.606,206.091,191.77,213.609
209.673,262.249,220.894,235.408,202.412,207.651,195,215.166
211.95,243.67,175.847,219.234,207.083,210.092,190.694,188.943
213.985,226.871,198.397,200.322,210.912,213.125,180.421,166.42
214.173,226.994,250.241,198.658,211.884,215.653,178.336,172.273
213.9,232.765,254.524,207.889,212.281,217.634,194.491,193.734
217.318,230.586,209.387,208.663,215.711,220.664,205.047,198.298
224.152,228.765,186.754,202.716,220.813,224.971,188.753,187.61
228.31,248.414,215.408,216.669,222.786,227.162,180.569,195.603
227.54,291.899,252.082,261.466,221.478,225.876,220.529,234.026
226.295,329.13,267.143,305.511,221.126,225.088,277.214,276.36
228.155,329.975,270.67,310.042,223.677,227.689,293.393,287.381
232.571,307.873,271.738,285.774,227.945,231.887,274.195,265.891
237.227,289.462,258.471,265.489,232.223,235.688,252.833,241.767
240.019,281.772,245.419,260.123,235.325,239.347,243.562,241.438
240.423,294.048,264.237,275.029,236.825,241.954,259.548,264.965
241.388,331.408,298.869,310.157,238.324,243.152,296.524,290.231
245.496,370.063,310.904,343.351,241.495,245.666,321.292,306.243
251.283,374.473,291.651,347.229,246.207,251.049,313.051,312.264
256.872,342.725,273.501,323.677,252.293,257.791,290.311,303.52
261.585,313.804,279.998,305.084,258.708,263.841,284.014,292.726
266.405,318.704,295.467,314.929,264.664,269.391,302.375,301.132
272.985,347.629,312.56,343.886,271.057,275.51,330.439,323.344
279.915,367.541,326.062,362.62,277.491,281.603,343.478,336.827
285.362,360.929,321.548,353.125,282.703,287.067,331.349,332.88
291.155,345.156,303.677,331.444,287.643,292.601,314.609,321.743
298.674,340.969,294.318,322.129,293.654,298.525,311.133,315.093
305.544,352.562,314.816,333.625,299.602,303.76,321.115,322.357
309.963,382.114,344.607,365.329,303.801,307.407,347.481,349.038
313.458,421.61,344.374,403.233,306.611,310.202,382.956,381.569
317.85,440.654,325.603,415.636,309.454,313.184,392.027,388.671
322.461,421.029,328.02,387.074,312.311,316.134,357.852,359.117
325.212,393.029,354.338,351.769,313.818,318.123,324.221,330.047
325.789,382.04,359.676,339.245,314.329,318.828,320.504,325.764
326.398,374.888,336.06,337.865,316.11,319.284,324.722,326.797
327.519,375.019,336.323,347.112,318.172,319.701,334.391,333.238
327.037,399.014,372.266,375.906,317.245,318.99,362.984,360.241
324.489,427.319,389.556,400.859,314.074,317.386,388.207,386.317
322.137,423.836,353.924,389.417,312.281,316.318,375.463,376.369
321.92,388.771,313.51,347.903,312.987,316.234,332.929,336.009
322.69,354.814,317.129,313.69,314.004,316.019,301.784,304.148
322.993,342.232,332.785,307.843,314.5,315.943,301.367,301.783
322.799,343.366,326.008,316.925,315.158,316.837,313.641,313.388
322.069,341.472,312.911,317.33,315.225,317.394,312.779,314.12
321.242,332.366,317.229,306.308,314.354,316.99,297.924,302.244
320.473,325.286,324.568,300.046,313.394,316.65,288.183,295.139
319.366,323.215,310.2,302.591,312.959,316.67,290.037,297.869
318.202,322.726,300.809,305.337,312.798,316.178,297.663,303.176
317.724,323.294,318.63,305.66,312.5,314.895,306.335,307.351
318.217,323.182,331.986,303.477,312.564,313.973,311.176,307.053
319.085,322.707,314.782,299.309,313.41,314.351,311.068,301.594
319.526,323.37,291.657,294.911,314.189,315.503,305.405,295.474
319.613,333.49,306.91,304.24,314.189,316.496,303.666,304.192
319.658,365.817,341.167,346.247,314.014,317.026,328.017,342.926
319.914,411.862,343.34,406.742,314.889,317.77,376.038,396.174
320.951,436.531,332.699,436.874,317.137,319.424,404.709,422.68
324.115,429.408,363.28,424.432,321.146,322.809,401.27,416.261
329.878,434.721,424.454,426.886,327.384,328.524,419.135,427.115
334.164,462.387,434.864,460.406,332.26,333.052,461.525,460.714
335.146,471.932,377.223,475.658,333.668,334.263,469.884,468.585
337.951,462.309,344.917,465.854,336.423,337.124,446.321,453.333
344.073,457.27,389.64,460.033,342.855,344.157,436.869,449.588
348.449,457.49,442.658,463.341,348.503,350.288,448.513,457.568
349.854,447.711,419.935,455.74,350.989,352.507,446.334,450.072
352.584,427.217,362.293,430.111,353.366,354.611,418.932,422.046
356.208,422.671,369.408,418.196,355.869,357.614,406.899,410.586
356.564,445.496,427.374,442.148,355.571,357.871,432.434,436.551
354.989,465.594,448.439,470.364,353.696,355.7,458.859,464.814
356.181,453.552,410.895,461.912,354.418,355.645,447.509,455.738
360.488,416.408,374.632,419.408,358.493,359.584,406.046,415.059
362.774,374.288,367.301,369.615,361.223,363.072,359.836,368.74
359.997,334.473,345.609,326.594,359.119,361.436,318.792,328.434
355.336,301.906,308.473,294.313,354.793,356.607,288.616,298.435
352.794,282.162,307.212,274.01,352.293,353.59,272.463,280.868
351.669,270.393,344.397,261.155,351.251,352.763,263.592,270.684
348.225,259.521,352.792,252.817,348.073,350.041,256.255,263.776
342.022,244.899,295.874,243.559,342.037,344.141,245.895,254.571
335.933,230.012,246.968,231.603,335.753,337.717,236.386,243.095
330.784,233.032,271.28,235.686,330.529,332.396,245.533,248.106
325.878,262.586,321.363,268.069,326.118,327.932,275.519,278.025
321.706,291.414,325.151,297.357,322.156,323.563,293.676,301.393
317.731,281.763,287.856,281.221,317.527,318.123,272.112,284.131
311.679,243.385,268.38,236.879,311.356,311.495,235.504,246.697
303.307,214.975,276.553,210.667,304.391,305.182,218.416,227.738
295.787,213.708,284.984,215.368,298.686,300.84,225.934,235.381
290.178,238.737,297.543,245.518,294.549,297.494,258.706,265.286
283.929,273.544,316.153,285.695,289.753,292.517,303.288,301.313
276.654,291.886,314.501,308.158,283.354,286.095,323.067,317.121
270.468,281.863,277.652,297.777,276.874,280.539,298.521,304.229
265.635,257.101,246.351,269.776,271.562,276.089,258.678,280.967
259.75,241.3,257.653,252.759,265.937,270.194,244.83,271.556
252.465,242.601,277.891,257.017,259.26,262.842,258.423,281.602
246.369,249.147,272.475,268.303,253.59,257.285,273.673,295.719
242.569,243.102,252.165,264.662,249.819,254.049,270.79,292.669
239.433,215.12,239.11,234.704,246.301,250.459,244.352,263.578
234.248,173.243,225.027,189.976,240.989,244.763,203.384,221.59
226.769,138.653,190.72,156.455,234.287,238.144,168.415,190.591
219.723,130.175,169.157,151.459,228.48,232.239,161.923,186.193
214.679,146.225,189.087,170.037,224.238,227.031,186.221,205.404
210.608,166.72,214.149,193.546,220.255,222.355,216.979,231.231
206.808,178.777,207.747,210.159,216.025,218.644,229.552,247.354
203.973,182.496,192.131,215.858,212.406,215.514,221.586,245.816
201.355,186.172,208.941,217.086,208.893,211.359,216.908,239.253
196.955,199.57,230.256,227.709,203.687,205.254,232.345,246.343
190.848,217.753,208.085,245.066,196.953,198.14,254.146,261.69
183.936,218.509,174.313,245.332,189.954,191.106,258.481,267.469
177.058,194.048,181.766,219.575,183.348,184.833,235.104,258.924
172.149,174.876,212.248,198.961,177.989,179.621,202.949,246.007
168.992,173.412,199.962,196.745,173.679,174.432,180.91,227.022
165.102,166.895,154.775,189.748,169.298,168.762,169.811,198.675
159.149,164.425,158.277,187.059,163.831,162.625,177.76,187.834
152.292,192.175,215.679,215.822,157.375,156.097,207.136,215.382
146.341,228.703,249.764,254.249,151.325,149.985,235.61,252.324
141.164,227.677,214.794,254.381,146.186,144.568,235.223,252.636
136.491,182.828,154.486,208.805,141.683,139.914,199.277,212.544
132.82,131.162,128.712,155.465,137.655,135.946,151.83,168.758
129.594,107.046,132.655,130.754,133.87,132.161,129.168,151.798
125.173,113.141,142.196,137.349,129.47,127.703,143.211,162.835
119.874,123.621,145.638,148.042,124.606,122.505,163.887,178.177
116.264,112.125,135.871,135.846,121.361,118.342,155.818,170.591
114.645,82.912,112.806,106.394,119.868,116.103,125.331,141.757
113.133,62.356,89.433,87.388,118.009,114.604,104.042,118.996
110.642,68.958,97.184,95.83,114.986,112.419,109.404,123.882
106.698,97.673,126.169,125.667,111.216,108.833,135.068,154.021
102.261,123.729,125.643,151.649,107.525,104.815,156.294,182.073
99.9,121.85,91.719,145.259,105.43,102.629,145.666,175.551
100.211,93.626,71.648,108.392,105.644,102.99,110.351,137.659
100.872,75.147,91.621,85.769,106.644,104.064,96.781,116.503
100.224,77.842,108.823,94.34,106.32,103.827,111.827,128.552
99.95,73.211,94.684,98.673,105.457,103.001,114.282,135.849
101.811,61.861,92.174,89.845,106.135,103.288,101.002,127.196
104.306,70.231,118.549,94.576,107.904,104.383,105.609,129.505
105.237,95.368,135.126,117.382,108.954,105.07,134.426,150.478
105.34,112.131,117.962,136.39,109.239,105.6,156.375,169.215
107.762,120.019,103.544,147.525,111.111,108.129,158.586,179.305
112.4,141.853,134.711,171.284,115.112,112.387,171.052,199.751
115.73,179.858,188.892,210.704,118.732,115.358,211.959,234.873
116.992,212.652,220.283,243.166,120.587,116.653,254.5,264.887
119.111,225.76,210.262,251.347,122.193,118.797,258.872,272.28
123.831,214.224,174.575,231.198,125.449,123.072,217.297,250.694
128.467,177.856,142.001,189.362,129.151,127.263,164.254,207.712
130.399,135.965,125.53,149.864,131.076,129.135,135.063,169.438
131.072,118.287,133.02,137.807,131.821,129.873,132.104,160.585
131.931,126.099,152.535,148.068,132.699,131.077,139.653,174.039
132.088,129.836,153.893,149.915,133.398,132.246,141.62,177.68
131.899,112.194,127.795,128.403,133.942,133.118,127.018,156.594
133.612,87.474,96.666,101.856,135.502,134.737,102.919,129.669
137.544,78.552,97.179,95.775,138.482,137.577,93.085,122.908
141.01,81.739,121.321,104.45,141.635,140.639,99.821,131.513
142.535,77.13,130.231,103.115,143.993,143.003,102.975,131.975
143.509,68.908,121.969,93.98,145.702,144.675,100.789,125.883
144.968,71.701,114.923,95.292,146.952,146.016,103.602,128.688
146.688,80.801,115.581,106.083,148.242,147.674,109.454,137.888
148.794,83.142,114.286,110.266,150.359,150.144,109.083,139.284
151.68,84.402,119.104,108.627,153.163,153.011,109.026,136.751
153.772,99.831,147.966,119.889,154.58,154.156,125.138,149.31
153.786,121.905,173.396,142.685,153.995,153.06,148.784,173.685
153.265,129.771,165.682,152.653,153.769,152.409,156.154,185
153.52,120.039,144.007,140.159,154.84,153.13,144.034,174.199
154.22,104.411,143.712,120.887,155.967,153.419,130.646,157.18
154.027,92.283,157.918,111.916,155.89,152.021,128.235,149.953
153.026,88.981,151.833,115.491,155.45,150.769,131.893,152.953
152.751,93.197,136.925,121.199,156.209,151.878,132.594,156.827
152.435,98.22,143.012,124.633,156.684,153.262,132.944,159.367
150.556,98.552,157.509,128.901,154.893,152.122,138.281,163.453
148.023,86.69,146.227,123.045,152.064,149.615,134.721,157.984
146.157,60.715,108.388,96.231,150.285,147.745,109.403,133.258
144.564,37.233,92.27,66.907,149.278,146.011,82.723,107.557
142.699,28.178,113.623,53.88,147.58,143.601,74.137,97.68
141.446,21.026,126.929,44.964,145.529,141.441,69.022,89.899
140.955,5.146,101.526,27.42,143.913,139.81,52.39,71.548
139.801,-9.268,60.305,11.855,142.041,137.945,34.673,54.601
138.396,-4.057,54.958,17.129,140.414,136.882,37.616,58.973
136.129,10.293,86.824,33.382,138.338,135.326,53.696,74.536
129.529,-0.499,102.409,25.242,132.42,129.162,46.632,66.362
120.418,-33.532,77.618,-7.895,124.546,120.999,13.294,34.196
115.392,-49.034,40.707,-26.464,120.771,117.602,-7.985,15.506
116.35,-23.839,37.978,-1.467,121.935,119.409,12.738,37.217
120.923,29.109,68.17,58.37,125.722,123.376,66.195,91.452
129.248,86.042,97.925,123.099,133.148,130.542,123.388,151.95
141.466,138.349,137.762,175.037,143.768,141.787,174.748,204.445
152.201,189.493,208.193,220.927,152.134,151.83,229.816,253.475
155.472,238.571,277.891,269.816,154.692,154.641,284.96,301.756
152.789,276.958,289.6,314.203,153.673,151.676,323.35,340.446
151.111,305.383,251.958,349.755,153.672,150.042,349.382,370.545
152.732,333.473,253.009,383.165,155.791,152.126,380.244,402.338
153.832,367.814,337.872,419.504,156.986,153.676,418.886,438.892
151.643,407.207,437.894,457.874,155.108,151.39,458.197,476.372
147.418,442.852,460.21,495.115,151.387,146.667,492.217,509.594
143.554,472.165,414.108,533.076,147.887,142.598,523.211,540.373
140.545,506.421,404.042,576.342,145.177,139.724,560.293,578.179
138.32,557.012,494.821,626.34,143.395,137.193,610.068,629.434
137.278,619.244,622.978,681.096,141.94,135.488,669.813,689.246
137.163,683.436,679.734,744.964,140.081,135.326,734.268,751.701
136.709,750.885,665.989,825.486,138.537,135.622,803.033,819.608
134.455,825.13,691.638,913.828,136.834,134.457,877.113,895.241
130.98,901.363,814.932,989.789,133.721,131.935,952.831,972.001
128.772,970.786,958.395,1048.951,130.791,129.861,1021.193,1040.108
127.903,1026.593,1011.819,1104.394,129.434,128.377,1075.291,1094.042
126.131,1069.867,985.104,1162.848,128.575,126.445,1119.501,1137.355
122.867,1107.744,992.488,1213.277,127.384,124.131,1162.493,1179.711
119.426,1146.155,1089.341,1247.325,125.875,122.145,1209.048,1228.812
118.458,1192.938,1207.62,1282.177,125.332,121.614,1263.391,1283.357
121.795,1253.967,1259.947,1341.22,127.226,123.043,1322.996,1332.787
126.615,1328.248,1266.118,1427.931,130.388,125.546,1395.085,1389.01
127.101,1403.359,1321.192,1518.84,131.621,127.015,1496.881,1476.175
123.531,1463.657,1450.089,1582.752,130.444,126.612,1599.219,1572.355
123.135,1506.962,1566.01,1613.553,129.603,126.861,1628.042,1625.812
128.343,1541.39,1585.457,1631.95,130.164,129.041,1570.902,1621.383
133.506,1576.583,1545.896,1659.102,130.72,129.953,1516.474,1592.62
133.033,1604.153,1544.041,1683.551,129.213,126.31,1524.036,1574.246
127.8,1598.345,1592.993,1672.451,125.656,120.318,1546.033,1564.872
121.721,1549.293,1617.613,1618.533,122.311,116.143,1529.376,1540.581
115.073,1479.437,1566.964,1553.356,119.018,113.151,1494.426,1501.816
107.032,1426.829,1483.161,1513.797,113.633,108.774,1476.361,1476.849
101.035,1409.254,1441.346,1501.832,107.862,104.442,1463.159,1469.326
101.101,1402.934,1449.751,1485.388,106.222,103.734,1429.177,1449.456
104.451,1369.24,1451.648,1439.027,108.29,105.962,1381.46,1402.492
104.214,1306.233,1409.497,1375.751,108.465,106.317,1343.732,1350.625
99.673,1253.145,1350.174,1329.899,105.018,103.347,1319.968,1320.476
96.888,1233.447,1316.65,1310.536,102.514,100.906,1292.567,1305.975
98.521,1218.92,1300.91,1287.461,103.135,101.268,1247.743,1275.522
100.67,1173.535,1267.426,1233.898,103.716,102.396,1193.675,1216.833
99.781,1105.452,1214.922,1163.194,102.337,102.39,1146.802,1153.805
97.615,1054.011,1175.493,1111.851,101.148,102.45,1112.79,1115.183
97.876,1033.116,1157.021,1089.935,102.104,103.937,1081.939,1095.917
101.224,1014.726,1128.301,1068.508,104.898,106.104,1041.031,1065.135
105.513,975.662,1079.387,1024.083,108.653,108.25,993.573,1013.027
108.767,926.368,1042.093,966.915,112.509,110.709,954.058,960.986
111.885,890.872,1036.85,923.09,116.485,114.484,927.943,929.652
116.4,867.846,1025.902,894.241,120.587,119.226,898.061,906.33
121.928,831.222,961.5,855.67,124.559,123.335,844.963,861.806
126.987,767.688,867.401,793.3,128.603,126.462,776.968,793.564
130.223,695.607,813.332,721.819,132.301,129.357,719.34,728.544
132.765,651.025,822.596,673.348,135.805,133.283,688.824,694.233
137.624,649.245,844.015,666.386,140.85,139.361,683.437,692.861
145.392,664.224,823.904,681.748,148.328,147.01,685.298,699.405
152.642,651.621,771.843,671.767,155.849,153.401,667.328,679.454
156.679,599.62,736.889,615.147,160.53,156.752,620.673,626.187
158.643,538.382,730.462,542.901,162.418,158.182,564.971,566.942
159.362,482.597,691.385,479.425,162.27,158.331,505.445,510.201
157.969,411.919,570.987,409.695,160.424,156.92,425.323,434.522
155.91,323.363,430.997,326.052,158.86,155.597,334.559,343.587
155.537,245.707,370.613,247.954,158.959,155.707,265.494,269.84
156.074,194.011,383.268,188.557,159.192,155.74,222.214,223.113
155.453,147.574,363.073,136.026,158.137,154.381,175.185,177
153.929,80.52,247.931,71.076,156.881,152.968,101.595,106.152
153.42,-1.934,105.64,-7.048,157.061,153.233,14.178,19.662
153.729,-75.186,38.932,-84.043,157.714,154.106,-59.685,-55.991
153.451,-126.621,48.887,-147.115,157.34,154.07,-110.436,-109.06
152.276,-172.845,32.175,-201.076,156.149,153.285,-157.317,-156.422
150.613,-237.603,-80.92,-261.356,154.965,152.39,-222.326,-220.501
149.242,-314.798,-222.822,-328.827,154.458,152.122,-297.198,-294.607
148.605,-380.843,-281.665,-392.506,154.638,152.774,-358.721,-355.689
149.002,-426.934,-255.691,-444.342,155.508,154.044,-398.716,-395.398
149.992,-470.408,-260.172,-491.611,156.511,154.719,-435.905,-432.825
150.853,-528.109,-368.732,-546.173,156.955,154.513,-491.449,-488.55
151.552,-590.172,-504.622,-605.29,157.208,154.901,-558.255,-554.359
152.509,-636.679,-550.048,-657.928,157.951,156.337,-612.846,-607.654
154.687,-665.158,-511.103,-699.304,159.644,158.086,-647.151,-642.663
158.068,-692.566,-505.135,-734.679,161.957,159.754,-676.619,-674.884
161.02,-727.112,-589.447,-766.557,164.068,161.533,-712.408,-712.713
163.271,-750.19,-675.377,-785.007,166.456,164.293,-740.113,-739.774
167.861,-740.013,-656.618,-778.274,171.496,169.814,-737.263,-734.988
176.887,-704.353,-558.566,-750.925,180.261,178.652,-704.243,-701.919
186.383,-676.807,-500.106,-726.665,189.023,187.345,-671.154,-671.467
190.381,-683.028,-541.181,-728.564,192.611,191.262,-671.248,-673.227
188.647,-718.722,-622.61,-758.168,190.823,190.233,-707.43,-706.918
184.314,-767.108,-666.573,-805.027,186.668,186.621,-758.841,-755.063
178.33,-819.34,-675.971,-861.895,181.228,180.891,-810.752,-808.142
170.361,-875.814,-712.328,-924.93,173.76,172.621,-865.815,-867.475
161.562,-936.429,-805.514,-987.95,164.886,163.311,-928.608,-932.078
153.653,-994.04,-909.609,-1044.205,156.512,155.14,-993.504,-993.451
145.627,-1049.904,-970.446,-1101.85,148.038,147.194,-1059.195,-1052.87
135.852,-1112.346,-996.019,-1171.691,138.006,137.799,-1127.525,-1117.512
125.071,-1182.716,-1043.212,-1247.239,127.339,127.826,-1195.586,-1185.985
114.94,-1251.517,-1140.741,-1310.459,117.922,118.859,-1256.162,-1247.987
105.62,-1308.617,-1242.379,-1356.952,109.651,110.118,-1305,-1298.12
96.71,-1355.362,-1289.075,-1404.665,100.913,100.09,-1349.943,-1345.968
89.006,-1396.753,-1289.22,-1462.222,91.764,90.391,-1398.038,-1397.427
81.972,-1437.508,-1310.987,-1516.36,83.269,82.732,-1446.437,-1446.609
74.631,-1476.872,-1386.609,-1552.262,76.165,76.165,-1485.327,-1484.799
68.25,-1507.398,-1461.136,-1573.255,70.389,69.563,-1510.062,-1510.41
63.735,-1527.916,-1475.987,-1596.65,64.696,62.987,-1531.044,-1533.217
59.834,-1544.554,-1452.456,-1628.98,58.534,56.806,-1558.493,-1560.733
55.404,-1560.733,-1453.906,-1656.714,53.217,51.465,-1584.496,-1585.378
51.228,-1572.876,-1495.34,-1663.55,50.228,48.042,-1592.192,-1593.399
50.022,-1565.941,-1517.327,-1642.503,50.549,48.129,-1572.234,-1575.33
51.693,-1541.189,-1481.252,-1612.254,52.684,50.173,-1543.295,-1546.134
49.507,-1543.55,-1447.725,-1619.784,50.397,47.748,-1551.055,-1551.683
40.853,-1586.909,-1477.028,-1666.583,41.536,39.544,-1596.155,-1596.785
32.387,-1622.884,-1539.854,-1698.971,32.302,31.955,-1628.472,-1631.326
27.022,-1639.253,-1586.732,-1710.24,26.095,26.801,-1642.264,-1645.34
20.603,-1675.54,-1613.925,-1744.156,20.029,19.994,-1675.963,-1676.852
11.996,-1734.473,-1636.789,-1804.514,12.727,10.99,-1730.829,-1731.636
3.653,-1783.485,-1670.948,-1858.746,5.056,2.224,-1779.711,-1783.977
-4.875,-1823.869,-1738.798,-1905.35,-4.017,-6.864,-1826.278,-1833.707
-15.54,-1880.482,-1833.186,-1966.43,-15.347,-17.733,-1889.708,-1898.029
-28.128,-1956.145,-1908.989,-2044.069,-27.482,-29.421,-1966.765,-1975.049
-40.518,-2031.226,-1939.445,-2117.529,-38.282,-39.857,-2037.526,-2044.659
-51.709,-2096.747,-1966.895,-2177.941,-47.888,-49.02,-2098.335,-2102.193
-62.547,-2162.65,-2057.101,-2240.175,-58.531,-58.761,-2166.464,-2165.823
-73.558,-2233.065,-2188.439,-2314.654,-71.048,-69.954,-2246.751,-2241.642
-85.243,-2303.399,-2267.657,-2394.994,-84.303,-82.099,-2322.335,-2313.753
-97.24,-2368.912,-2265.576,-2467.258,-95.947,-93.547,-2374.442,-2369.244
-107.814,-2428.845,-2269.019,-2525.977,-104.758,-103.432,-2408.854,-2420.442
-116.058,-2483.795,-2355.558,-2575.257,-112.076,-112.195,-2455.024,-2482.294
-123.036,-2533.739,-2471.586,-2623.461,-119.701,-119.974,-2530.573,-2546.579
-129.817,-2579.677,-2513.279,-2680.511,-127.663,-126.978,-2614.806,-2602.179
-136.215,-2623.519,-2483.786,-2745.809,-134.87,-133.771,-2674.153,-2650.59
-142.964,-2671.348,-2489.821,-2806.647,-141.713,-141.179,-2709.109,-2696.778
-151.283,-2726.006,-2582.08,-2853.374,-149.31,-149.742,-2740.852,-2743.297
-160.24,-2781.741,-2680.239,-2894.99,-157.234,-158.828,-2774.085,-2791.922
-167.828,-2832.892,-2691.304,-2948.085,-164.531,-166.945,-2807.532,-2839.524
-174.096,-2876.773,-2636.082,-3009.661,-171.603,-173.358,-2850.391,-2877.883
-180.926,-2913.666,-2626.21,-3060.759,-179.476,-179.224,-2907.332,-2908.275
-189.048,-2951.557,-2721.073,-3097.1,-188.049,-186.098,-2971.52,-2946.509
-196.894,-2995.026,-2829.707,-3134.382,-195.949,-193.74,-3032.61,-3002.842
-203.929,-3026.73,-2807.571,-3174.371,-203.148,-201.998,-3069.37,-3058.211
-212.993,-3005.4,-2630.273,-3171.12,-212.139,-212.4,-3037.519,-3054.859
-226.373,-2921.994,-2460.754,-3091.652,-224.742,-225.413,-2936.379,-2967.949
-241.044,-2855.226,-2488.197,-3008.914,-238.66,-238.244,-2868.47,-2884.356
-252.378,-2879.111,-2649.124,-3016.785,-250.033,-248.023,-2905.242,-2892.791
-260.476,-2933.654,-2675.926,-3071.042,-258.621,-255.811,-2956.523,-2935.957
-267.46,-2876.79,-2453.522,-3021.485,-266.178,-263.462,-2879.674,-2873.369
-275.008,-2678.708,-2185.802,-2819.716,-274.04,-271.52,-2673.889,-2676.298
-283.693,-2487.362,-2128.32,-2613.034,-282.412,-280.245,-2492.375,-2489.758
-292.015,-2436.888,-2233.579,-2554.033,-290.297,-289.255,-2446.942,-2448.789
-300.143,-2474.008,-2254.008,-2597.969,-298.118,-298.15,-2476.613,-2499.701
-310.335,-2459.333,-2108.275,-2594.174,-307.704,-307.271,-2457.553,-2495.167
-322.57,-2365.612,-1965.313,-2502.293,-319.468,-317.562,-2371.282,-2403.203
-333.409,-2284.096,-1975.921,-2411.416,-330.393,-327.768,-2296.039,-2314.835
-340.84,-2270.446,-2044.247,-2384.548,-337.662,-335.082,-2271.657,-2284.223
-347.197,-2271.669,-1998.276,-2376.625,-343.169,-340.318,-2252.086,-2266.994
-355.385,-2218.455,-1850.571,-2319.371,-350.509,-347.497,-2189.484,-2211.18
-365.484,-2119.562,-1750.597,-2217.075,-360.417,-358.149,-2100.012,-2124.6
-375.628,-2041.956,-1761.842,-2135.244,-370.945,-369.204,-2037.015,-2054.079
-384.707,-2015.833,-1778.618,-2106.23,-380.381,-377.511,-2011.959,-2018.314
-393.979,-1990.028,-1711.962,-2074.831,-389.724,-384.655,-1970.82,-1970.151
-405.105,-1911.304,-1615.756,-1983.029,-401.171,-394.408,-1877.232,-1869.176
-416.282,-1806.838,-1560.597,-1868.885,-413.57,-406.684,-1777.376,-1765.686
-423.935,-1741.96,-1531.402,-1814.237,-423.252,-418.21,-1737.337,-1738.843
-429.435,-1719.949,-1484.422,-1815.918,-430.467,-428.27,-1740.088,-1768.46
-437.978,-1693.51,-1438.809,-1799.79,-439.247,-438.528,-1720.965,-1765.55
-449.495,-1641.089,-1415.485,-1732.59,-450.01,-447.994,-1662.437,-1696.209
-460.534,-1572.593,-1367.694,-1642.498,-460.783,-456.377,-1584.705,-1596.601
-470.528,-1499.751,-1276.147,-1562.862,-471.052,-466.114,-1501.392,-1507.928
-478.818,-1426.175,-1196.555,-1495.955,-479.348,-476.114,-1422.457,-1440.904
-483.885,-1359.73,-1183.339,-1433.904,-484.841,-482.995,-1368.491,-1392.014
-486.639,-1313.84,-1202.55,-1383.69,-489.254,-486.806,-1345.46,-1357.201
-490.691,-1289.396,-1176.727,-1354.004,-494.691,-491.062,-1327.602,-1329.596
-497.846,-1265.634,-1100.525,-1331.504,-501.289,-497.825,-1286.752,-1297.936
-506.008,-1217.965,-1022.998,-1288.199,-507.96,-505.834,-1221.572,-1251.542
-512.526,-1149.806,-984.604,-1219.375,-514.181,-513.143,-1158.263,-1196.033
-516.774,-1092.737,-983.753,-1157.014,-519.728,-519.084,-1124.037,-1152.529
-520.459,-1065.675,-980.763,-1128.728,-525.066,-524.811,-1115.44,-1128.932
-525.714,-1051.455,-942.734,-1119.064,-531.363,-531.105,-1099.393,-1102.621
-533.369,-1019.814,-863.555,-1088.088,-539.08,-537.43,-1046.875,-1043.406
-542.094,-967.081,-792.858,-1025.078,-546.874,-543.462,-971.964,-962.938
-548.623,-920.909,-788.016,-964.609,-552.742,-548.893,-924.989,-915.187
-551.051,-891.479,-811.159,-931.799,-556.226,-553.285,-920.643,-919.166
-551.853,-854.934,-773.042,-907.741,-558.809,-557.252,-910.717,-927.375
-555.018,-789.159,-660.305,-852.713,-562.187,-561.364,-845.858,-878.187
-560.862,-700.626,-577.518,-752.113,-566.493,-565.339,-737.621,-767.943
-566.381,-619.17,-596.327,-644.78,-570.51,-569.32,-640.704,-661.929
-570.681,-565.303,-615.612,-578.262,-574.08,-573.659,-581.41,-602.688
-575.507,-522.082,-514.033,-540.863,-578.207,-577.812,-534.079,-554.111
-580.449,-458.621,-361.426,-484.516,-582.424,-581.127,-471.835,-478.281
-583.22,-392.897,-337.315,-415.367,-585.008,-583.729,-416.795,-411.928
-583.148,-372.888,-440.366,-386.447,-584.864,-585.003,-401.911,-404.914
-582.489,-396.751,-482.046,-407.978,-583.616,-584.713,-415.746,-436.618
-583.207,-410.316,-390.995,-427.498,-583.729,-583.782,-418.865,-442.845
-584.702,-377.042,-284.058,-396.753,-585.159,-583.12,-388.641,-395.326
-586.01,-323.496,-265.08,-335.256,-586.472,-583.567,-344.391,-334.781
-586.439,-299.241,-299.308,-300.88,-586.364,-584.337,-320.047,-313.294
-586.13,-309.455,-303.502,-309.083,-585.173,-583.88,-319.182,-324.923
-585.716,-313.72,-266.869,-317.4,-584.283,-582.245,-316.022,-322.415
-584.621,-280.513,-213.818,-286.231,-583.647,-580.694,-287.907,-283.635
-581.54,-222.476,-163.183,-227.154,-581.701,-579.472,-239.689,-234.237
-576.816,-178.764,-136.284,-184.441,-577.844,-577.544,-199.699,-208.902
-572.933,-164.924,-135.104,-174.244,-573.854,-574.932,-181.093,-204.493
-571.1,-152.425,-126.548,-162.44,-571.448,-572.738,-160.526,-186.113
-570.094,-109.55,-69.689,-114.42,-570.6,-571.388,-113.765,-134.87
-569.004,-48.928,4.687,-46.585,-570.371,-570.309,-56.596,-73.429
-567.381,-8.15,25.745,-1.568,-568.908,-568.318,-19.908,-35
-564.658,11.68,16.306,20.482,-565.14,-564.838,5.586,-11.662
-561.761,51.551,63.411,65.314,-561.014,-560.824,58.005,38.78
-560.146,138.529,167.305,160.092,-558.767,-557.624,149.395,133.679
-559.849,245.936,216.966,275.475,-558.302,-556.041,249.017,238.723
-558.62,328.957,170.006,366.166,-557.162,-554.481,322.853,314.564
-554.014,375.361,146.689,416.566,-553.156,-550.252,365.227,357.024
-546.231,409.784,242.869,446.868,-546.782,-543.474,397.89,390.294
-537.479,461.544,370.782,492.091,-539.769,-536.452,446.873,440.49
-530.026,520.732,380.48,553.075,-533.277,-530.8,502.412,498.26
-523.32,558.242,295.352,599.808,-526.313,-524.963,537.818,535.642
-515.401,571.911,276.167,619.308,-517.681,-516.679,553.23,550.014
-506.791,584.761,372.637,630.559,-508.787,-507.093,570.511,564.383
-499.616,620.318,482.368,662.352,-501.869,-499.474,607.663,600.31
-493.587,671.686,503.185,712.557,-496.4,-494.35,654.43,647.382
-486.756,700.442,450.435,743.98,-489.998,-488.865,678.518,671.231
-480.515,689.619,417.74,738.404,-483.586,-482.48,670.047,662.841
-476.996,673.431,452.967,726.785,-479.458,-477.452,659.552,653.527
-473.881,698.05,531.112,753.98,-475.704,-473.346,686.002,680.684
-468.51,759.714,582.98,817.767,-469.876,-467.882,744.435,740.113
-464.611,790.34,564.026,847.873,-466.051,-464.026,769.166,766.634
-466.272,757.387,522.144,809.562,-467.951,-465.821,731.431,727.324
-469.274,725.258,527.624,772.784,-470.306,-468.958,699.598,689.553
-468.925,743.711,579.846,790.649,-468.856,-468.411,721.319,707.027
-467.429,774.89,617.244,821.374,-467.267,-466.514,752.372,740.063
-466.768,779.001,606.553,825.865,-467.118,-465.246,755.039,748.147
-465.141,776.99,586.336,830.163,-465.061,-462.555,758.21,754.518
-462.926,793.161,600.646,855.094,-461.657,-459.018,784.532,780.049
-462.972,818.212,647.26,883.923,-461.024,-457.75,815.87,808.759
-465.485,844.565,677.682,911.635,-463.326,-458.81,841.538,833.168
-466.733,883.268,664.595,955.863,-464.137,-458.628,876.173,870.007
-464.021,938.33,662.218,1018.354,-461.267,-455.169,928.724,926.28
-460.08,992.7,723.788,1075.563,-457.955,-451.303,984.46,982.979
-458.257,1028.694,801.641,1110.413,-456.493,-449.824,1023.869,1019.805
-456.744,1041,797.046,1122.646,-454.392,-448.76,1037.026,1031.402
-450.416,1049.488,727.052,1132.692,-447.67,-443.252,1039.042,1038.593
-436.343,1092.515,728.343,1176.271,-434.293,-430.464,1070.375,1078.538
-414.248,1193.197,858.786,1277.275,-413.433,-410.256,1165.03,1172.197
-385.524,1339.776,1017.858,1428.815,-385.62,-383.406,1314.9,1311.248
-354.092,1477.769,1058.946,1578.119,-354.37,-352.256,1453.783,1448.362
-323.295,1550.865,978.033,1661.581,-323.324,-320.187,1519.567,1526.85
-295.115,1564.474,940.456,1676.424,-295.242,-291.238,1527.952,1545.925
-271.559,1572.391,1054.787,1678.997,-272.434,-268.297,1538.835,1556.459
-252.602,1610.371,1222.67,1714.497,-254.425,-250.054,1579.887,1592.79
-234.062,1662.77,1261.514,1771.227,-236.478,-231.358,1627.019,1638.956
-210.82,1689.171,1154.082,1803.226,-213.229,-207.617,1645.335,1661.408
-183.553,1684.472,1077.609,1798.1,-185.686,-180.334,1640.378,1660.157
-157.99,1685.472,1153.739,1791.015,-160.331,-155.884,1647.153,1660.172
-137.394,1717.794,1305.056,1814.039,-140.401,-137.23,1682.898,1677.788
-120.157,1771.042,1360.618,1867.675,-123.215,-120.857,1734.208,1719.263
-103.136,1817.919,1275.677,1924.614,-105.173,-102.89,1775.314,1771.796
-84.72,1834.556,1197.948,1946.116,-85.648,-83.612,1785.69,1798.308
-66.107,1815.085,1252.818,1917.882,-66.658,-65.35,1765.895,1778.179
-49.918,1786.563,1370.032,1877.846,-50.351,-49.467,1746.912,1745.939
-37.241,1765.408,1386.63,1854.315,-37.58,-36.361,1736.425,1728.872
-26.068,1734.101,1298.425,1824.405,-27.051,-25.438,1709.36,1702.149
-15.263,1700.342,1260.114,1787.149,-17.28,-16.173,1680.918,1665.975
-6.563,1688.815,1308.361,1771.856,-8.671,-8.602,1676.672,1656.209
0.067,1684.151,1330.64,1768.703,-1.419,-1.824,1666.785,1663.103
6.646,1656.118,1285.806,1740.679,5.158,4.511,1621.556,1638.475
13.62,1614.398,1261.033,1689.999,11.473,9.784,1573.407,1580.202
19.553,1588.333,1290.386,1651.865,17.249,14.149,1558.311,1533.751
24.812,1574.964,1279.93,1633.697,23.169,19.417,1553.517,1515.893
30.615,1545.073,1201.744,1605.057,29.27,25.892,1521.314,1497.039
34.732,1492.206,1164.691,1550.527,32.507,30.022,1468.859,1456.841
34.983,1447.834,1228.837,1499.361,31.517,29.663,1434.622,1413.964
32.993,1432.307,1279.6,1478.312,28.601,27.004,1423.013,1387.261
31.257,1413.055,1183.512,1458.903,25.676,25.009,1384.25,1355.755
30.092,1354.566,1032.05,1400.719,23.087,24.271,1297.259,1293.983
28.424,1283.704,1025.722,1325.142,20.859,23.202,1218.347,1226.815
24.748,1248.746,1159.568,1284.28,17.867,19.723,1196.628,1198.276
18.355,1248.481,1222.452,1284.566,12.813,13.612,1208.082,1204.757
11.632,1238.165,1098.373,1279.583,7.398,7.825,1198.471,1196.959
8.029,1198.106,945.177,1240.246,4.528,5.187,1160.686,1154.915
6.952,1164.124,959.465,1200.701,3.403,3.94,1139.094,1120.486
4.755,1174.158,1097.428,1209.266,0.663,0.747,1160.898,1137.071
0.241,1218.946,1175.026,1263.563,-4.478,-3.86,1205.145,1193.083
-3.785,1258.335,1122.227,1313.814,-9.16,-7.105,1235.032,1235.286
-4.987,1264.237,1033.618,1319.83,-11.141,-8.445,1234.091,1230.916
-5.887,1233.361,1004.419,1282.699,-12.695,-10.168,1205.7,1193.804
-9.085,1190.252,1037.541,1237.853,-15.962,-13.098,1170.42,1159.597
-13.137,1162.804,1071.299,1213.675,-19.294,-15.884,1148.292,1145.087
-15.876,1143.313,1028.667,1196.468,-20.836,-17.968,1129.26,1129.384
-17.374,1114.428,927.49,1165.597,-21.213,-20.088,1098.241,1090.322
-19.136,1085.106,884.375,1131.185,-22.376,-22.809,1066.299,1042.557
-21.112,1071.966,950.398,1114.073,-24.55,-25.178,1052.844,1018.182
-22.893,1067.561,1017.175,1111.147,-27.001,-27.002,1052.633,1015.557
-25.161,1049.556,963.155,1101.166,-29.498,-29.118,1039.689,1004.367
-27.893,1015.448,853.077,1076.639,-31.969,-31.283,1003.997,980.272
-30.068,990.308,836.831,1054.291,-34.17,-32.718,968.082,966.823
-31.664,990.913,915.465,1048.22,-36.014,-33.939,956.422,965.063
-34.178,998.049,950.168,1046.551,-38.711,-36.724,958.895,952.636
-38.137,984.26,872.802,1029.756,-43.104,-41.049,948.255,926.439
-42.333,956.029,792.085,1001.871,-47.724,-44.879,927.302,905.28
-45.517,940.895,810.684,983.776,-50.945,-47.44,918.625,900.249
-47.169,944.198,870.129,981.363,-52.907,-49.363,920.125,905.776
-47.613,949.324,876.856,983.37,-54.402,-50.966,915.474,912.765
-47.774,945.719,839.574,979.725,-55.65,-52.651,906.186,912.185
-47.87,945.168,823.752,978.38,-56.136,-54.734,912.629,905.863
-48.737,964.646,831.06,997.732,-56.697,-57.241,944.592,914.705
-51.428,1000.192,821.246,1037.925,-58.79,-59.79,984.305,951.635
-53.991,1030.417,813.507,1072.613,-61.318,-61.609,1006.491,991.058
-53.505,1043.871,843.92,1082.197,-62.063,-62.087,1007.01,1001.079
-50.673,1047.659,875.127,1077.343,-60.997,-60.946,1001.476,991.504
-48.723,1038.222,836.405,1063.4,-59.837,-58.758,990.027,977.922
-47.577,1010.264,757.483,1033.351,-58.463,-56.107,963.064,952.304
-44.843,981.25,735.62,997.774,-56.025,-53.578,927.979,916.578
-40.388,968.031,770.668,976.846,-52.954,-51.354,901.441,892.474
-36.018,965.271,789.721,972.955,-49.718,-49.083,892.492,888.696
-32.666,957.114,765.468,967.337,-46.498,-46.707,889.578,886.223
-29.251,938.157,730.838,945.917,-43.326,-43.659,873.376,868.589
-25.225,915.693,713.94,917.825,-40.238,-39.864,847.499,845.028
-21.538,896.823,706.576,899.727,-36.827,-36.235,833.333,831.993
-19.449,882.058,710.428,892.319,-33.341,-33.545,835.377,828.514
-19.31,866.325,721.327,882.904,-31.082,-31.708,833.051,820.975
-19.748,844.44,708.598,863.745,-30.05,-29.887,811.536,803.962
-19.176,822.933,670.206,843.4,-28.721,-27.591,785.879,787.536
-17.915,809.137,644.301,829.683,-26.549,-25.511,773.512,775.055
-17.947,799.48,661.695,819.676,-25.277,-25.412,771.14,760.589
-20.09,795.59,685.321,818.55,-26.543,-27.935,774.392,754.2
-21.49,808.356,662.452,838.421,-28.006,-29.89,789.437,772.152
-19.553,835.348,633.715,872.74,-26.308,-27.868,816.194,806.096
-16.864,858.247,669.662,899.537,-23.028,-23.581,841.344,832.801
-15.691,872.532,737.321,915.313,-20.764,-19.937,858.372,848.385
-12.932,880.538,724.54,923.991,-17.729,-16.228,863.163,854.777
-6.035,877.809,628.963,920.248,-11.507,-10.905,853.613,848.222
1.22,869.997,589.015,910.482,-4.542,-5.515,845.298,839.214
5.385,873.49,662.697,913.977,0.235,-1.343,855.934,845.816
9.65,895.09,744.739,937.86,5.175,3.971,882.77,870.406
17.559,913.598,721.817,958.526,13.318,12.124,898.275,888.639
27.754,901.604,627.628,945.929,23.582,21.733,880.57,874.609
35.992,864.16,581.996,904.299,31.994,29.922,842.708,835.51
40.513,833.352,616.118,868.855,36.584,35.368,815.957,804.3
44.541,833.803,667.561,868.822,40.11,40.154,819.277,805.937
52.617,859.992,672.607,899.714,47.233,47.918,843.896,833.767
62.452,864.909,624.894,909.298,56.535,56.948,846.26,839.68
65.404,808.553,576.187,851.352,60.059,59.581,792.565,785.141
62.693,737.098,570.221,774.588,58.631,57.057,727.439,717.031
64.026,718.039,596.126,753.948,60.858,58.593,712.248,700.695
69.618,728.849,601.822,767.723,66.75,64.465,722.941,712.746
73.812,714.174,567.517,755.574,71.437,69.295,707.962,699.409
77.086,679.508,526.51,720.676,75.451,73.12,676.034,666.302
82.226,654.856,505.755,693.742,80.862,78.197,654.771,641.113
87.276,643.222,516.607,678.247,85.656,82.94,643.883,626.62
89.254,638.838,537.607,670.89,87.43,84.88,638.079,620.186
90.551,645.174,526.777,678.355,88.718,86.327,642.124,626.116
95.025,661.171,495.187,697.795,93.01,91.013,654.222,641.214
101.457,670.159,492.862,706.429,98.919,97.579,657.709,648.379
106.567,664.278,531.565,695.093,103.426,102.499,647.899,640.864
109.857,648.054,546.108,675.41,106.459,105.646,631.656,624.869
113.797,627.843,499.848,658.46,110.616,110.149,616.398,608.735
120.075,626.337,471.926,662.294,117.223,117.368,623.397,613.388
127.393,658.26,520.074,694.908,124.557,124.976,659.561,648.172
134.435,698.393,577.615,730.673,131.213,131.331,694.573,685.934
141.38,706.817,553.06,734.657,137.722,137.197,694.358,690.363
149.898,682.255,478.377,708.334,146.199,144.893,666.49,663.523
162.111,670.453,468.23,695.261,158.427,156.626,656.438,650.161
179.308,710.719,547.233,733.214,174.844,173.112,696.648,687.971
200.218,793.65,640.028,815.4,194.355,192.818,776.872,769.319
220.788,867.512,664.241,892.368,213.983,212.554,847.662,843.822
239.91,879.683,608.62,907.318,232.967,231.906,855.981,856.432
259.807,833.018,552.715,857.151,253.036,252.417,806.804,807.932
278.88,785.328,566.681,801.926,272.289,271.545,762.228,758.498
291.48,774.485,626.984,787.106,285.105,283.741,759.267,749.503
296.793,782.976,647.341,798.307,290.615,288.965,772.374,761.762
301.428,776.347,593.542,796.615,295.222,294.215,762.24,755.99
309.542,734.912,521.226,755.181,302.948,303.156,713.766,712.273
317.559,662.672,482.342,676.008,310.347,311.415,637.837,638.415
321.718,597.428,485,602.332,314.035,315.154,574.343,573.291
323.27,568.294,500.798,568.331,315.572,316.29,547.552,543.673
324.555,552.034,495.088,549.202,317.229,317.633,530.92,525.782
325.139,518.972,466.155,514.061,318.507,318.741,498.489,493.149
324.152,468.21,418.074,464.723,318.562,318.502,452.09,447.273
322.617,410.644,359.764,410.628,318,317.502,400.835,396.247
319.969,356.16,320.955,355.936,315.94,315.099,351.883,345.181
314.73,323.142,337.787,318.827,311.214,310.227,324.127,312.186
308.312,330.336,393.349,324.595,305.337,304.266,336.139,319.143
303.893,354.961,395.864,353.087,301.253,300.069,359.926,344.147
302.352,347.498,319.732,348.942,300.063,298.782,345.907,336.358
301.019,300.1,260.509,299.055,299.321,297.735,293.742,287.362
298.407,255.345,287.134,247.321,296.735,294.497,249.869,239.865
295.169,239.949,330.348,225.636,292.354,289.8,237.05,221.591
291.652,226.558,280.11,211.507,287.779,285.828,223.939,208.17
288.263,184.364,174.746,173.325,284.755,283.808,182.515,170.303
285.441,133.236,147.189,124.7,282.931,282.634,134.872,124.19
282.235,109.915,215.219,99.498,280.157,279.972,115.661,102.791
276.833,110.943,254.469,98.859,274.982,274.503,119.838,104.115
270.574,100,178.627,89.335,269.249,268.335,109.59,94.254
267.029,64.196,80.549,53.206,265.941,264.658,72.506,59.641
265.557,36.535,83.031,21.129,264.09,262.283,45.509,32.46
262.311,46.138,150.847,27.885,260.512,257.865,58.97,42.412
256.667,69.91,169.021,53.708,254.98,251.665,84.188,66.359
251.507,57.841,106.92,43.098,249.709,246.486,67.564,53.939
248.823,8.61,46.203,-10.737,246.07,243.65,13.11,3.833
247.278,-33.898,43.915,-61.851,243.375,241.697,-32.459,-42.303
244.551,-48.176,71.416,-83.261,240.333,238.609,-49.865,-64.316
239.26,-40.443,92.553,-76.714,235.697,233.41,-44.24,-62.528
231.821,-27.599,84.027,-60.284,229.323,226.663,-32.432,-49.264
225.277,-33.162,40.97,-65.001,223.622,220.844,-40.338,-53.289
221.402,-69.067,-8.409,-105.05,220.104,217.361,-77.288,-89.379
218.857,-117.866,-18.786,-156.049,217.669,215.31,-119.417,-133.416
215.247,-151.686,7.086,-185.459,214.127,212.447,-140.388,-154.755
210.209,-167.797,-4.894,-195.217,209.011,207.739,-150.305,-161.624
205.983,-184.332,-70.666,-210.937,204.687,203.196,-173.459,-183.199
203.31,-211.843,-109.59,-242.19,202.303,200.516,-208.487,-220.783
200.973,-242.541,-78.196,-274.159,200.54,199.005,-235.673,-250.044
198.223,-263.288,-45.496,-292.515,198.115,196.981,-249.095,-262.387
195.349,-276.135,-92.24,-304.006,195.285,194.001,-263.031,-274.316
192.516,-293.261,-167.193,-323.293,192.533,190.967,-285.145,-296.165
189.449,-315.59,-171.661,-349.291,189.366,188.531,-306.993,-318.855
186.529,-335.908,-121.65,-372.392,185.89,186.705,-323.132,-335.661
183.825,-351.339,-112.92,-388.092,182.881,184.548,-334.267,-349.241
180.74,-372.246,-182.878,-405.784,180.454,181.05,-347.581,-368.479
177.806,-403.835,-247.993,-433.745,178.2,176.932,-367.805,-395.858
175.521,-418.312,-232.766,-448.038,175.171,173.147,-378.076,-408.095
173.115,-388.853,-180.815,-420.646,170.977,169.36,-360.33,-383.369
170.048,-344.885,-163.613,-378.313,166.682,165.224,-335.532,-347.847
166.504,-345.487,-189.27,-380.75,162.851,161.148,-346.824,-352.798
162.837,-393.268,-221.712,-431.974,158.897,157.568,-392.584,-399.696
158.707,-443.43,-246.386,-486.885,154.25,153.68,-437.546,-450.387
154.429,-473.513,-258.053,-522.082,149.666,149.396,-466.155,-483.708
150.893,-482.455,-244.222,-535.044,145.598,145.717,-477.489,-492.288
148.009,-474.351,-239.923,-530.34,141.241,141.998,-477.674,-483.521
145.849,-465.424,-277.193,-528.162,136.842,136.965,-482.43,-487.267
144.27,-473.789,-319.626,-547.143,132.95,131.063,-502.98,-518.178
142.437,-497.691,-317.433,-580.635,129.347,125.953,-531.6,-554.213
139.695,-521.679,-291.626,-610.155,125.573,121.645,-554.553,-577.406
136.123,-540.664,-313.071,-629.983,121.664,117.346,-572.551,-595.052
131.974,-559.519,-372.682,-645.213,117.774,113.377,-589.97,-611.202
127.849,-575.923,-391.149,-657.465,113.888,110.214,-601.688,-618.719
124.928,-583.617,-353.402,-665.195,110.647,108.144,-605.798,-620.196
122.737,-589.385,-334.486,-674.249,107.906,106.566,-615.1,-630.974
119.715,-609.134,-390.706,-697.357,104.543,104.381,-644.595,-660.536
115.377,-641.334,-457.069,-733.477,100.168,101.234,-685.171,-696.252
109.983,-666.304,-448.122,-763.646,95.093,97.025,-711.531,-717.344
104.663,-675.825,-395.238,-777.884,90.367,92.248,-717.605,-723.045
100.582,-680.453,-382.782,-782.516,87.161,88.184,-716.802,-726.084
96.674,-699.028,-430.656,-791.977,84.728,84.911,-725.392,-737.758
91.402,-731.346,-475.087,-809.484,81.601,81.455,-742.426,-756.039
85.128,-746.248,-468.26,-812.784,77.719,77.3,-743.523,-760.036
79.277,-724.291,-436.848,-785.127,73.98,72.75,-715.408,-736.324
74.211,-689.317,-416.08,-747.819,70.25,68.184,-681.487,-704.185
69.11,-672.841,-411.705,-730.039,65.654,64.036,-668.821,-688.565
64.039,-676.636,-420.295,-728.563,61.241,61.497,-671.266,-684.132
59.477,-696.748,-448.069,-737.145,58.495,60.306,-679.839,-684.522
55.594,-731.057,-477.188,-762.541,56.925,58.5,-699.664,-700.164
51.768,-766.342,-477.946,-799.8,54.502,54.74,-728.847,-733.666
47.982,-793.56,-480.611,-833.431,51.058,50.406,-758.313,-772.316
45.792,-812.513,-514.967,-852.606,48.783,48.253,-779.077,-797.654
46.034,-816.68,-538.793,-851.131,48.794,49.118,-781.664,-796.453
46.52,-808.681,-513.072,-839.308,49.185,50.283,-772.122,-780.804
41.109,-826.173,-482.434,-858.684,44.078,45.235,-788.275,-794.194
29.81,-873.926,-511.19,-910.296,33.166,34.197,-833.995,-839.571
21.995,-897.362,-570.471,-935.583,25.455,26.643,-857.562,-866.279
20.422,-886.318,-584.523,-924.495,24.315,25.48,-848.437,-864.787
18.679,-884.871,-544.758,-919.999,24.155,25.176,-843.897,-865.137
13.996,-904.46,-518.202,-932.365,21.388,22.99,-854.824,-872.592
9.199,-919.011,-555.299,-939.1,17.426,20.38,-864.703,-872.978
5.174,-919.526,-605.129,-936.662,13.479,17.398,-867.644,-865.947
0.789,-921.009,-594.469,-941.916,9.191,12.952,-872.374,-867.174
-2.442,-928.714,-547.423,-957.98,5.49,8.267,-883.754,-886.679
-2.789,-929.386,-535.446,-967.127,3.802,5.146,-893.136,-910.626
-2.588,-916.068,-564.023,-957.004,2.901,3.106,-890.646,-913.401
-5.404,-900.214,-574.029,-938.144,-0.063,0.139,-879.039,-893.418
-11.046,-893.919,-551.595,-927.071,-5.607,-4.585,-868.361,-873.791
-15.524,-889.897,-544.115,-919.72,-10.623,-8.679,-860.242,-863.631
-16.289,-869.458,-556.477,-897.749,-12.414,-9.722,-843.24,-850.015
-16.556,-829.8,-542.765,-857.6,-13.318,-10.319,-809.087,-820.745
-20.458,-785.048,-497.641,-811.392,-16.986,-14.356,-763.566,-777.222
-26.853,-745.843,-486.29,-767.924,-22.592,-20.894,-719.066,-735.935
-31.471,-710.237,-537.705,-725.931,-26.586,-25.776,-681.651,-704.633
-33.311,-686.344,-577.027,-697.547,-28.412,-27.721,-660.431,-683.234
-34.856,-689.521,-543.095,-700.977,-30.177,-28.852,-663.377,-679.765
-36.961,-704.868,-485.961,-717.656,-32.151,-30.039,-675.715,-687.065
-38.742,-710.938,-492.618,-721.192,-33.436,-30.676,-684.366,-688.975
-40.245,-714.029,-553.977,-719.752,-34.246,-30.959,-692.047,-686.594
-42.798,-725.5,-584.204,-730.177,-36.083,-32.5,-699.015,-689.541
-46.256,-735.359,-559.692,-743.553,-39.203,-35.755,-699.32,-694.855
-48.596,-729.572,-529.407,-743.04,-42.068,-39.117,-691.6,-693.244
-49.067,-716.031,-529.529,-733.569,-44.002,-41.241,-685.579,-686.927
-48.717,-710.842,-550.978,-728.228,-45.021,-41.468,-688.709,-681.503
-48.926,-715.006,-566.397,-726.913,-45.155,-40.549,-692.534,-676.278
-49.819,-715.105,-559.467,-719.657,-44.739,-40.45,-682.616,-668.545
-50.729,-701.561,-524.742,-701.717,-44.297,-41.755,-659.22,-656.7
-51.365,-680.445,-493.014,-679.609,-43.872,-42.811,-636.374,-641.53
-51.373,-661.33,-507.949,-659.636,-42.741,-42.086,-619.227,-624.261
-50.739,-643.993,-539.221,-639.975,-40.93,-40.322,-599.457,-602.942
-50.288,-627.143,-515.833,-621.212,-39.853,-39.084,-576.814,-579.052
-50.22,-606.754,-444.186,-600.83,-40.087,-38.322,-554.591,-553.703
-49.7,-569.937,-419.26,-563.224,-40.446,-37.381,-521.794,-517.917
-47.227,-512.053,-477.169,-500.406,-38.65,-35.413,-467.877,-463.879
-41.997,-452.143,-512.242,-434.534,-33.409,-31.444,-406.534,-407.518
-35.314,-409.784,-430.446,-392.211,-26.458,-26.363,-360.681,-374.356
-28.833,-378.889,-306.418,-366.917,-20.118,-21.668,-332.417,-358.939
-23.288,-359.126,-301.128,-350.487,-14.965,-17.422,-321.641,-346.732
-18.21,-363.514,-417.802,-353.336,-10.165,-12.376,-331.923,-342.772
-13.789,-384.462,-483.556,-371.688,-5.931,-6.465,-349.951,-345.863
-10.988,-397.625,-421.406,-382.614,-3.171,-1.137,-357.364,-337.906
-8.156,-388.3,-338.879,-372.744,-0.443,2.872,-348.461,-318.326
-2.765,-366.736,-341.745,-355.95,4.256,5.654,-334.229,-317.036
4.288,-354.09,-399.115,-349.992,10.207,8.431,-328.762,-339.893
9.997,-353.632,-419.16,-350.601,15.21,12.473,-330.274,-353.988
14.212,-349.821,-381.589,-343.697,19.494,17.685,-324.185,-342.36
18.189,-333.517,-329.374,-325.981,24.085,22.844,-304.268,-315.551
22.048,-310.935,-309.677,-304.045,28.621,27.291,-281.792,-288.624
26.949,-290.935,-334.2,-285.343,33.704,32.296,-268.594,-272.419
33.45,-275.298,-362.427,-272.011,39.6,38.249,-260.658,-264.717
39.512,-261.263,-348.307,-262.295,44.621,43.137,-249.184,-258.694
43.406,-244.928,-287.935,-250.789,47.888,46.081,-231.299,-248.352
45.718,-225.017,-244.065,-229.766,50.481,48.712,-207.926,-223.349
48.364,-205.389,-271.81,-201.722,53.728,52.306,-184.472,-187.788
52.101,-191.66,-313.516,-182.35,57.542,55.917,-169.736,-165.105
55.913,-189.03,-284.853,-183.506,61.101,58.459,-169.194,-166.601
59.679,-189.799,-210.976,-190.131,64.89,61.416,-172.042,-171.245
63.62,-184.136,-194.02,-183.872,69.085,66.021,-168.256,-162.911
67.37,-176.834,-251.001,-173.409,72.896,70.798,-163.334,-154.272
71.293,-170.665,-280.994,-169.904,76.315,74.112,-158.973,-153.063
76.206,-160.616,-238.522,-166.294,80.3,77.095,-149.901,-146.797
81.969,-147.197,-194.221,-153.834,85.538,82.337,-136.382,-125.487
87.248,-142.487,-209.133,-144.042,91.123,89.335,-131.589,-107.272
92.484,-151.494,-243.085,-151.183,96.752,95.745,-142.487,-118.126
99.365,-162.434,-234.915,-166.239,103.218,101.486,-155.949,-146.305
107.659,-166.429,-212.05,-172.401,110.53,108.175,-160.772,-158.058
115.634,-164.792,-214.827,-168.028,117.852,115.519,-158.032,-152.438
122.596,-157.9,-217.553,-159.38,124.695,122.192,-149.604,-149.601
129.667,-144.516,-190.747,-146.102,131.98,129.477,-134.601,-142.575
137.029,-128.714,-161.006,-126.983,140.069,138.224,-116.467,-118.125
144.013,-114.701,-164.777,-107.385,148.152,146.72,-101.287,-91.942
151.396,-97.661,-168.921,-89.002,156.052,154.26,-84.967,-75.059
159.991,-74.049,-136.788,-68.058,163.874,161.952,-62.32,-52.879
169.108,-51.153,-103.621,-47.346,171.568,170.245,-41.46,-22.466
178.104,-30.878,-101.401,-29.288,179.731,178.584,-25.8,0.355
187.229,-8.788,-104.395,-11.579,188.871,187.013,-8.196,10.675
196.121,18.564,-73.118,12.7,197.869,195.908,18.908,27.495
203.248,53.614,-31.718,52.019,204.618,204.016,56.896,67.993
208.71,93.277,-29.998,102.167,209.703,210.204,99.482,121.391
214.749,131.42,-35.105,147.681,216.496,215.948,139.755,164.206
222.435,163.117,12.664,178.022,226.132,223.282,171.974,187.32
230.9,188.106,81.514,198.998,236.14,232.12,195.776,204.174
239.145,197.154,80.251,208.797,244.226,240.74,204.114,217.166
247.585,179.137,17.194,192.956,251.649,249.03,188.336,209.252
255.69,152.608,-1.285,163.77,259.424,257.18,165.302,186.876
262.195,145.603,40.149,151.968,265.991,264.029,157.807,175.887
268.139,155.745,65.666,160.582,271.311,269.553,164.063,180.407
274.152,158.759,52.044,164.283,276.675,274.554,165.353,181.563
279.317,143.733,44.546,148.946,282.471,280.068,152.172,169.076
283.508,122.131,58.546,126.682,288.047,286.752,132.635,151.91
287.994,107.24,50.019,112.998,293.21,293.925,118.51,140.512
293.441,104.462,22.795,112.452,298.468,300.073,117.585,139.138
298.832,116.268,34.456,124.428,303.684,304.411,130.667,150.018
303.831,138.205,85.751,144.238,308.868,308.454,150.001,169.841
309.613,164.592,117.256,171.246,314.755,314.653,173.451,196.397
316.986,195.729,108.365,209.074,321.972,323.583,205.391,231.224
324.742,234.344,118.875,255.747,329.935,332.63,248.06,272.56
330.26,282.947,167.799,309.229,336.399,338.355,300.51,319.061
333.671,334.003,188.479,363.496,340.6,341.437,350.442,366.279
339.012,364.429,170.378,395.717,345.534,346.159,375.009,396.279
348.178,361.672,181.937,390.432,353.726,354.249,370.276,396.619
357.581,357.895,242.257,381.842,363.221,362.83,372.099,394.742
363.414,377.244,270.717,399.929,370.228,368.847,393.315,411.74
367.463,387.459,229.588,412.481,374.886,373.741,397.36,419.659
372.905,377.32,211.783,404.391,379.859,379.76,385.958,412.636
379.567,389.896,274.614,418.233,385.969,386.159,405.223,430.174
386.504,439.147,345.383,469.003,392.711,392.232,457.397,479.325
393.811,482.069,342.377,512.497,399.888,398.595,495.14,517.855
402.706,482.908,290.424,510.336,408.68,406.595,489.8,515.982
410.803,439.01,263.705,457.752,416.648,413.767,443.234,470.785
414.246,379.342,267.787,385.582,419.422,416.16,380.661,403.457
416.183,354.087,271.241,351.532,420.269,416.805,351.372,364.678
420.585,367.391,268.974,364.644,424.385,420.036,363.978,370.706
425.319,374.728,279.103,375.631,430.06,424.642,374.816,381.318
427.459,367.782,306.603,371.42,433.274,427.911,372.747,380.907
429.13,377.993,319.807,386.062,435.257,430.735,386.961,397.4
432.969,405.526,312.936,419.889,438.995,434.87,416.579,432.364
436.301,415.174,318.036,431.929,442.615,438.435,425.215,446.49
436.891,389.507,338.159,403.386,443.933,440.042,397.826,417.43
437.44,352.175,337.304,364.551,444.987,441.958,362.9,374.865
440.648,336.249,296.245,352.079,448.162,446.091,351.05,359.861
444.737,344.576,266.519,363.1,452.071,450.747,360.428,372.061
446.102,363.269,297.041,380.377,453.497,452.784,379.027,391.667
445.146,384.978,346.314,400.76,452.626,451.948,401.316,412.706
445.627,394.18,346.823,410.505,452.996,451.169,409.166,423.316
448.072,372.618,300.114,388.089,455.571,452.135,385.22,404.861
449.502,343.064,280.2,355.337,457.548,453.363,356.729,377.592
449.186,338.381,316.129,347.713,457.47,453.242,353.871,372.267
449.891,345.527,351.437,352.358,457.62,452.907,358.869,373.765
452.462,348.855,356.559,351.989,459.4,453.823,357.551,368.613
453.709,356.075,346.688,355.27,460.281,454.6,359.291,370.167
451.993,362.175,328.743,359.724,458.286,453.468,361.135,373.858
448.824,348.563,304.296,348.007,454.37,450.363,349.35,359.082
445.561,328.747,304.234,331.904,450.521,446.501,338.458,340.457
441.048,351.481,356.865,357.573,446.172,441.959,368.876,365.949
434.838,423.233,415.281,431.232,439.779,436.361,436.857,437.819
430.001,479.122,421.669,488.239,433.742,431.677,480.748,489.8
427.253,468.61,389.727,476.951,430.14,428.525,461.592,475.266
424.322,413.244,364.541,417.275,427.401,425.295,403.088,418.903
421.078,360.105,352.23,356.935,424.272,421.879,347.129,365.432
418.875,331.905,321.822,323.554,421.573,419.447,315.611,335.388
416.94,323.729,285.452,314.62,419.078,417.3,306.63,325.739
413.176,325.055,290.435,315.079,414.708,413.182,308.61,325.708
407.682,330.066,328.324,315.676,408.311,406.914,311.152,326.793
402.843,323.483,333.091,304.873,402.82,401.078,298.97,315.421
400.223,289.288,274.93,271.584,400.643,397.899,263.841,279.911
398.505,244.116,225.475,231.2,400.328,396.521,228.66,238.334
395.707,223.042,251.167,213.838,398.511,394.623,220.57,223.795
392.194,232.778,305.025,223.704,394.39,391.616,232.859,239.038
389.331,252.646,312.79,241.346,389.869,388.161,243.669,259.691
387.2,259.405,272.68,244.601,386.31,384.647,239.002,260.629
385.784,249.289,239.246,229.167,383.851,382.171,222.413,240.637
384.777,237.202,236.947,211.831,381.925,381.369,208.735,223.732
383.276,238.353,255.534,211.989,380.316,381.158,211.841,229.901
380.875,265.329,301.906,243.654,379.198,379.872,244.976,262.575
378.184,311.955,355.768,297.904,378.604,377.199,299.536,306.978
376.538,345.895,369.555,338.317,378.823,375.001,339.03,336.224
375.67,343.407,338.257,338.756,378.654,374.052,336.581,333.808
374.473,323.256,311.275,318.435,376.589,373.368,311.317,316.034
371.925,324.285,328.553,318.739,372.46,371.284,308.118,317.62
367.64,350.809,360.229,345.765,367.235,366.938,334.228,343.376
362.734,365.577,362.928,360.654,362.237,361.727,348.309,359.229
357.334,345.309,342.931,338.831,357,356.542,326.705,345.449
351.172,306.745,325.465,298.152,351.173,351.038,291.318,313.654
345.429,265.644,303.31,253.664,345.981,345.428,254.082,267.651
340.482,218.333,250.345,200.261,341.271,340.011,200.749,207.358
334.371,168.134,196.019,143.475,334.749,333.706,140.116,153.509
325.503,136.804,196.407,109.222,325.313,325.052,109.745,129.102
314.355,137.92,236.339,111.889,314.089,313.913,121.367,132.68
302.23,145.635,240.922,122.428,302.353,301.394,133.643,136.393
290.59,114.193,173.324,91.66,290.993,289.245,98.89,105.224
280.178,46.155,100.7,20.713,280.533,278.438,30.783,40.57
269.79,-7.82,99.131,-38.687,270.161,267.823,-17.933,-15.785
257.904,-17.805,146.868,-53.214,258.5,255.914,-23.201,-31.439
244.306,5.276,179.14,-29.932,245.066,242.64,1.538,-9.194
230.071,23.505,157.453,-6.928,231.078,229.261,18.312,14.828
217.414,5.001,95.683,-21.365,219.082,217.859,-2.523,4.891
206.806,-40.808,44.738,-67.795,209.084,208.301,-48.073,-35.855
196.49,-65.694,53.447,-95.334,198.623,198.315,-67.556,-61.807
184.41,-26.807,120.537,-54.643,185.756,185.945,-20.387,-24.396
170.305,48.846,167.82,28.507,170.629,171.282,57.233,54.912
157.121,81.932,142.432,67.569,156.473,157.435,83.093,92.663
147.007,45.378,88.368,30.321,145.91,146.797,38.659,54.5
138.52,-9.19,68.882,-27.94,137.486,138.114,-18.005,-6.334
128.864,-35.988,79.227,-55.937,127.761,128.43,-42.9,-35.749
117.898,-42.025,65.792,-59.939,116.74,117.689,-47.21,-38.503
107.706,-51.025,30.068,-67.104,107.3,108.287,-55.601,-44.404
98.807,-64.764,21.406,-81.55,99.734,100.397,-68.97,-59.163
90.48,-71.283,42.198,-89.441,92.54,92.727,-74.674,-67.483
81.945,-71.585,45.218,-89.054,84.829,84.522,-73.361,-66.156
72.875,-81.344,6.885,-97.799,76.094,75.577,-82.081,-72.83
64.376,-100.093,-21.992,-119.802,67.057,66.839,-101.967,-92.769
57.431,-104.961,-1.533,-129.837,59.311,59.339,-108.949,-102.588
51.123,-91.925,22.671,-114.909,53.029,52.526,-93.925,-89.783
44.326,-83.429,9.322,-96.01,46.937,45.498,-77.523,-72.957
37.438,-95.124,-16.587,-99.362,40.241,38.367,-82.154,-75.91
31.064,-113.446,-16.079,-119.21,33.262,31.41,-100.215,-94.18
24.629,-121.395,-8.684,-133.164,26.432,24.23,-112.853,-108.433
18.873,-124.778,-23.198,-139.784,20.769,17.773,-118.598,-115.738
14.281,-122.598,-20.993,-138.367,15.844,12.524,-112.521,-112.306
8.149,-103.915,15.798,-119.32,8.639,5.792,-88.984,-90.606
0.248,-78.836,35.898,-92.331,-0.535,-2.877,-63.335,-63.526
-5.894,-71.096,5.388,-83.188,-7.772,-10.255,-59.206,-56.259
-9.145,-84.877,-35.454,-99.261,-11.951,-14.89,-78.862,-73.896
-12.892,-98.873,-32.482,-117.359,-16.459,-19.174,-97.615,-92.857
-19.383,-95.068,-4.368,-112.79,-23.245,-24.913,-94.445,-90.598
-26.58,-81.124,6.121,-91.123,-30.052,-31.056,-76.803,-73.347
-32.587,-75.78,-2.856,-77.086,-35.375,-36.729,-67.836,-63.174
-37.161,-90.09,-16.67,-88.053,-39.325,-41.268,-83.126,-74.58
-40.872,-125.936,-35.326,-125.358,-42.054,-44.313,-121.709,-109.043
-44.707,-169.101,-64.322,-168.938,-44.315,-46.954,-162.738,-149.558
-49.471,-193.956,-78.199,-190.329,-47.83,-50.998,-178.395,-169.369
-55.506,-185.798,-59.257,-178.113,-53.862,-57.386,-160.642,-157.154
-61.955,-155.016,-41.423,-146.335,-61.091,-64.676,-128.831,-127.179
-67.447,-132.238,-54.965,-125.102,-66.975,-70.481,-113.075,-107.326
-71.49,-143.312,-81.975,-138.125,-70.749,-74.201,-129.513,-118.039
-74.729,-172.701,-77.927,-168.926,-73.82,-77.309,-155.689,-144.621
-78.64,-185.042,-50.725,-182.095,-78.198,-81.857,-162.345,-156.56
-83.887,-183.258,-53.445,-182.135,-84.107,-88.203,-160.85,-157.831
-90.156,-190.194,-80.312,-192.812,-90.545,-95.404,-170.657,-167.645
-97.04,-206.529,-91.672,-212.323,-97.151,-102.722,-186.137,-184.042
-103.186,-217.114,-90.177,-223.048,-103.143,-108.815,-193.427,-193.167
-107.992,-217.269,-105.824,-221.612,-108.372,-113.342,-193.087,-192.456
-111.435,-209.88,-128.303,-214.515,-112.898,-116.658,-189.528,-186.187
-115.166,-204.213,-127.075,-212.53,-118.122,-120.72,-189.518,-184.498
-123.079,-224.086,-131.934,-237.82,-127.621,-129.345,-214.992,-209.782
-132.896,-257.658,-161.7,-275.96,-138.866,-139.816,-252.668,-247.313
-139.362,-267.327,-181.021,-287.635,-146.276,-146.51,-263.681,-257.862
-144.099,-255.89,-167.775,-275.589,-151.354,-150.958,-249.762,-244.78
-150.512,-230.965,-123.382,-246.641,-157.737,-156.721,-219.524,-217.934
-157.518,-183.277,-76.86,-189.586,-164.158,-162.78,-168.952,-169.399
-164.189,-138.927,-63.37,-132.845,-169.109,-167.911,-126.51,-124.445
-172.503,-140.339,-85.973,-124.866,-174.96,-174.104,-131.079,-124.648
-181.391,-184.026,-117.615,-165.082,-182.055,-181.216,-175.131,-166.43
-187.129,-230.738,-133.097,-211.705,-187.073,-186.305,-218.099,-210.403
-189.722,-254.578,-141.922,-234.112,-188.967,-188.832,-236.183,-230.955
-193.216,-261.274,-151.347,-236.743,-191.157,-191.915,-237.765,-234.308
-200.348,-267.658,-148.765,-239.792,-196.834,-198.463,-241.898,-237.732
-209.236,-280.857,-139.955,-253.378,-204.826,-207.106,-256.305,-249.529
-217.124,-297.104,-152.538,-272.227,-212.669,-214.764,-274.637,-266.494
-223.374,-312.353,-196.6,-290.015,-219.438,-220.611,-290.849,-283.362
-228.762,-324.139,-225.106,-305.912,-225.568,-226.139,-301.379,-297.013
-235.666,-319.819,-204.286,-307.467,-233.383,-234.345,-293.532,-295.527
-245.388,-288.746,-179.17,-279.999,-244.214,-246.263,-261.257,-267.974
-254.865,-252.735,-190.5,-244.827,-255.015,-257.984,-232.246,-235.156
-260.315,-251.696,-214.649,-247.23,-262.045,-265.202,-242.991,-237.705
-262.067,-277.896,-210.099,-281.411,-265.576,-268.339,-276.047,-269.326
-263.956,-293.143,-195.863,-304.479,-269.019,-271.195,-294.2,-291.142
-268.002,-297.051,-209.713,-313.104,-274.036,-275.506,-302.564,-300.657
-272.953,-296.318,-217.269,-314.305,-279.567,-280.136,-304.42,-303.589
-278.254,-279.574,-192.501,-296.804,-285.236,-284.898,-287.675,-289.089
-284.489,-258.043,-181.97,-273.636,-291.422,-290.304,-269.362,-268.867
-291.565,-263.286,-219.901,-278.524,-298,-295.983,-279.05,-273.338
-298.098,-294.851,-258.747,-309.778,-303.976,-300.721,-305.094,-300.191
-303.844,-314.691,-244.407,-326.332,-309.219,-304.734,-308.616,-312.073
-308.86,-300.968,-216.33,-305.869,-313.803,-308.576,-284.824,-291.2
-311.555,-274.399,-223.779,-272.754,-316.797,-310.892,-264.353,-261.72
-313.08,-267.974,-242.306,-262.984,-319.489,-312.501,-269.926,-255.488
-316.85,-291.136,-240.143,-284.888,-323.917,-316.231,-298.551,-278.346
-323.325,-325.97,-237.94,-318.517,-329.463,-322.163,-332.214,-311.976
-329.898,-352.967,-271.124,-344.354,-334.252,-327.994,-357.389,-339.547
-335.324,-370.831,-309.899,-362.048,-338.069,-333.129,-371.312,-359.426
-340.996,-381.625,-301.404,-372.607,-342.31,-338.699,-375.476,-370.713
-347.109,-381.333,-265.171,-370.434,-347.331,-344.402,-375.923,-369.631
-351.883,-372.779,-261.263,-359.901,-351.916,-349.056,-378.208,-361.901
-354.671,-372.361,-301.773,-360.81,-354.982,-352.45,-386.197,-364.745
-357.005,-386.185,-323.989,-379.053,-356.945,-355.33,-394.365,-380.258
-361.004,-396.11,-295.001,-391.188,-359.596,-359.16,-385.925,-385.802
-366.545,-389.856,-268.319,-382.64,-363.687,-364.103,-361.883,-372.161
-371.713,-378.542,-275.362,-369.085,-368.439,-368.786,-342.996,-356.981
-376.192,-381.436,-292.877,-374.211,-373.766,-373.259,-344.314,-361.426
-379.951,-394.361,-305.885,-392.759,-379.348,-377.545,-365.748,-380.898
-382.397,-399.118,-325.677,-402.183,-384.14,-380.44,-399.753,-393.891
-384.612,-395.731,-339.857,-400.429,-387.902,-382.285,-422.766,-394.191
-389.315,-385.401,-315.02,-390.073,-392.483,-386.048,-410.555,-384.148
-396.992,-365.812,-283.708,-369.795,-399.455,-392.779,-385.276,-366.94
-404.57,-356.146,-301.423,-358.617,-406.896,-399.07,-385.802,-358.633
-410.599,-380.081,-348.573,-381.751,-413.013,-403.408,-412.479,-378.78
-416.797,-426.308,-363.606,-429.88,-419.004,-408.624,-440.744,-420.6
-425.037,-464.242,-346.776,-470.257,-426.878,-417.071,-458.237,-456.51
-434.501,-489.483,-371.881,-494.42,-435.743,-426.82,-475.18,-478.281
-443.483,-522.119,-444.89,-523.127,-443.166,-435.007,-498.272,-501.377
-452.673,-570.126,-472.599,-568.825,-449.187,-442.895,-507.666,-535.289
-460.818,-611.407,-418.287,-613.35,-454.327,-451.101,-505.512,-573.684
-464.781,-614.959,-373.379,-623.564,-459.415,-456.284,-543.941,-594.368
-467.415,-595.355,-430.867,-606.285,-466.637,-458.951,-627.236,-590.154
-473.943,-605.909,-526.078,-616.079,-475.491,-464.747,-682.434,-601.211
-482.892,-653.343,-529.675,-668.784,-483.366,-474.529,-690.296,-651.591
-491.494,-697.259,-452.699,-721.112,-490.804,-484.279,-701.845,-700.722
-501.79,-723.923,-414.761,-748.742,-500.144,-493.598,-724.112,-716.44
-513.416,-752.464,-479.679,-774.895,-511.039,-504.137,-747.832,-734.104
-521.405,-786.066,-579.684,-815.557,-521.181,-514.129,-799.557,-786.257
-526.726,-803.286,-603.252,-846.899,-530.66,-523.147,-861.897,-837.503
-535.844,-795.768,-537.715,-847.02,-541.069,-534.115,-873.577,-847.043
-548.906,-789.294,-479.842,-837.545,-551.657,-546.274,-840.7,-834.815
-559.87,-808.555,-516.86,-849.679,-560.385,-555.208,-826.048,-837.298
-565.335,-837.144,-607.471,-872.887,-566.005,-559.157,-844.852,-848.127
-566.717,-845.881,-634.395,-879.659,-568.417,-560.028,-865.522,-847.115
-565.525,-827.757,-567.378,-863.078,-567.814,-559.34,-863.976,-834.572
-563.673,-801.984,-498.924,-840.603,-566.078,-558.577,-841.436,-822.923
-564.058,-791.822,-521.807,-831.013,-565.719,-559.552,-814.306,-819.117
-565.843,-794.277,-601.852,-829.539,-565.814,-560.688,-796.932,-816.079
-565.546,-791.962,-623.919,-823.178,-564.317,-558.724,-794.738,-804.017
-562.071,-775.707,-556.436,-806.594,-561.358,-553.596,-793.993,-779.606
-557.504,-751.226,-491.741,-783.232,-557.984,-548.509,-775.027,-751.899
-553.429,-728.037,-507,-757.968,-554.025,-544.958,-737.805,-730.662
-548.869,-703.098,-551.496,-728.051,-548.813,-540.853,-697.599,-707.622
-542.152,-667.004,-539.492,-688.205,-542.314,-534.1,-664.529,-668.737
-533.395,-622.779,-485.039,-642.239,-534.729,-525.264,-635.644,-619.141
-524.31,-585.124,-452.813,-603.546,-526.222,-516.538,-604.034,-580.246
-516.329,-557.82,-442.764,-577.017,-517.544,-509.588,-567.467,-559.065
-510.308,-527.81,-412.913,-549.201,-510.406,-504.676,-528.192,-536.662
-505.98,-489.63,-383.097,-509.966,-505.543,-500.501,-493.146,-498.932
-501.119,-452.187,-400.852,-466.397,-501.057,-494.979,-464.52,-454.58
-494.206,-415.242,-426.081,-423.207,-495.027,-487.682,-427.804,-412.129
-486.943,-364.76,-376.452,-370.462,-488.449,-480.641,-368.452,-364.289
-480.705,-292.813,-269.861,-296.646,-482.491,-474.637,-291.526,-298.699
-474.53,-215.448,-233.738,-211.734,-476.479,-468.294,-219.927,-222.251
-467.311,-155.209,-317.44,-139.746,-469.482,-460.658,-169.78,-157.651
-459.752,-122.195,-387.103,-100.206,-462.044,-452.815,-141.578,-122.911
-453.735,-112.216,-320.865,-94.116,-455.765,-446.778,-127.565,-116.3
-449.5,-98.231,-194.8,-86.514,-450.909,-442.347,-106.399,-105.737
-445.54,-62.344,-176.448,-48.684,-446.467,-437.633,-69.768,-69.418
-439.81,-24.198,-279.854,-2.716,-440.903,-431.324,-37.978,-29.161
-431.559,-7.346,-343.53,16.365,-433.301,-423.695,-25.79,-12.994
-422.287,-2.813,-269.101,15.936,-424.301,-415.36,-19.232,-11.741
-414.284,19.141,-141.027,35.634,-415.885,-406.693,7.128,8.47
-407.694,66.194,-104.702,88.617,-409.186,-398.113,53.348,56.591
-400.23,109.005,-187.468,139.998,-402.49,-389.348,89.691,100.827
-391.677,122.439,-264.967,156.933,-394.759,-380.949,98.667,113.908
-383.714,122.937,-221.163,155.356,-387.182,-373.787,100.844,112.602
-376.427,145.331,-86.631,175.536,-380.133,-367.086,127.155,133.311
-369.113,193.914,-15.588,226.216,-372.877,-359.971,174.773,180.486
-361.427,236.148,-95.44,273.47,-365.108,-352.414,209.885,221.125
-353.288,250.775,-198.015,290.052,-356.966,-344.622,219.802,234.888
-345.746,253,-148.859,287.794,-349.13,-337.894,229.243,238.064
-339.563,274.292,19.756,303.344,-342.12,-333.095,269.329,262.011
-333.349,316.529,94.163,346.854,-334.978,-328.01,326.613,306.911
-323.972,343.257,-18.94,381.3,-324.625,-318.255,352.084,334.58
-311.677,334.671,-143.067,378.012,-311.195,-304.438,338.384,326.492
-303.523,300.646,-111.862,340.139,-303.016,-295.733,301.752,292.201
-301.33,278.077,10.67,307.55,-303.232,-294.956,254.614,262.624
-298.304,296.498,58.434,319.869,-303.208,-293.679,230.455,267.598
-292.515,319.338,-16.045,344.153,-298.01,-288.46,241.933,282.449
-287.462,313.341,-80.619,340.991,-291.728,-283.4,264.573,280.246
-283.513,314.597,-22.205,342.797,-287.251,-279.68,291.759,288.709
-278.706,348.451,80.764,377.277,-282.806,-275.468,330.648,323.546
-273.986,368.305,75.82,397.914,-278.395,-271.904,342.317,338.961
-270.927,331.121,-25.951,357.784,-275.977,-270.103,283.308,298.065
-268.924,268.627,-73.764,289.084,-274.898,-268.37,199.721,236.068
-266.33,237.627,-33.566,255.54,-271.955,-264.767,172.571,209.954
-262.057,244.473,-2.986,266.453,-266.045,-258.692,193.882,223.178
-257.921,246.702,-22.367,273.393,-260.92,-252.791,195.762,228.843
-255.692,217.316,-40.527,242.938,-258.876,-249.91,165.58,197.794
-253.707,181.891,-31.575,202.507,-257.231,-248.456,141.799,157.435
-249.365,173.264,-42.135,191.796,-253.221,-244.607,137.75,145.595
-243.072,179.411,-80.034,199.693,-247.69,-238.192,137.971,153.866
-237.871,172.327,-83.972,193.058,-243.119,-233.085,136.44,151.991
-234.855,156.427,-38.218,174.519,-239.704,-230.726,137.329,139.068
-231.916,158.023,-6.186,173.915,-235.596,-227.859,142.538,139.178
-226.865,179.686,-34.249,196.257,-229.327,-221.708,151.093,157.877
-219.518,202.093,-63.501,220.806,-220.91,-213.345,170.832,181.063
-211.176,229.873,-29.194,251.92,-211.957,-205.28,218.423,213.956
-203.052,282.237,24.669,310.282,-204.133,-198.178,285.324,269.796
-195.199,340.32,45.181,374.696,-197.153,-190.87,328.964,326.33
-186.6,359.266,55.152,395.33,-189.134,-182.367,324.131,343.003
-176.625,344.924,84.063,378.436,-179.119,-172.922,307.719,329.245
-166.754,336.592,96.028,368.298,-168.782,-163.771,315.008,322.494
-157.833,336.555,69.02,367.945,-159.236,-154.911,325.065,323.657
-148.992,346.165,70.424,376.646,-150.058,-146.073,332.904,333.236
-140.346,390.137,134.908,420.381,-141.513,-138.35,370.19,373.588
-132.429,455.339,196.785,487.208,-133.395,-131.513,431.171,433.657
-124.582,485.451,190.728,517.877,-124.586,-124.076,463.64,460.571
-114.561,456.185,141.956,485.704,-113.509,-114.358,441.03,429.558
-102.374,403.924,121.059,429.584,-100.989,-102.484,394.023,377.718
-91.16,375.626,129.983,399.366,-90.621,-91.293,364.359,350.799
-82.754,379.439,132.52,402.273,-83.75,-82.97,359.391,352.741
-76.679,387.844,134.202,409.859,-78.456,-76.91,356.674,358.386
-70.609,375.982,151.332,398.094,-71.922,-70.233,340.966,348.518
-61.952,352.924,163.214,376.781,-62.304,-60.728,328.649,331.639
-50.098,347.756,143.145,374.527,-49.671,-48.587,337.117,331.881
-36.969,371.749,131.015,400.553,-36.21,-35.42,357.961,358.26
-25.48,415.654,171.755,445.551,-24.664,-23.326,389.239,403.416
-16.058,461.575,219.241,493.073,-15.327,-13.363,433.458,450.346
-6.447,484.744,216.364,517.619,-5.929,-4.173,461.415,474.301
4.207,469.596,188.163,502.985,5.154,6.116,449.607,462.823
14.799,444.234,201.583,478.497,17.208,17.567,436.54,444.353
25.02,446.483,248.551,482.634,28.672,29.002,454.176,450.113
36.116,458.332,262.321,495.892,39.918,40.245,464.093,459.003
48.198,454.324,254.298,491.692,51.777,51.482,447.425,451.255
59.482,455.841,274.413,492.582,63.049,61.963,447.179,452.205
69.946,482.574,305.975,519.209,73.628,71.988,483.683,478.214
80.19,507.812,301.528,543.53,84.137,81.715,514.337,499.367
89.948,505.141,277.004,537.578,94.014,90.83,506.428,491.606
98.989,501.618,294.91,531.033,102.535,99.623,494.578,486.493
107.043,527.974,344.186,559.687,109.842,108.173,516.978,516.64
114.553,559.404,363.685,597.647,117.243,116.568,552.253,555.336
121.562,557.512,348.393,599.421,124.746,124.246,557.701,559.273
128.25,522.189,335.163,560.873,131.622,131.179,522.545,524.675
135.809,474.761,328.134,505.994,138.53,138.41,468.784,475.354
144.299,432.205,291.952,456.729,146.169,145.955,424.302,432.571
151.861,404.262,241.049,423.6,153.408,152.398,400.802,403.239
157.434,399.024,242.514,412.611,158.723,157.021,400.237,390.285
162.105,417.525,300.885,426.198,162.855,161.114,422.476,399.439
167.095,441.332,335.83,449.127,167.795,166.259,447.868,420.932
173.214,439.659,293.045,448.806,174.414,172.962,440.389,423.083
180.643,409.264,239.418,417.204,181.851,180.407,399.418,394.767
187.691,387.385,259.302,392.595,188.254,186.798,368.123,369.524
192.348,396.989,317.809,403.463,192.508,191.313,370.619,375.69
194.911,417.941,338.429,429.812,195.174,194.551,388.671,397.494
197.583,416.522,308.884,431.181,197.851,197.169,389.782,395.659
201.855,387.421,270.456,399.044,201.961,199.93,369.307,363.061
206.033,352.471,252.38,360.406,206.637,202.627,350.558,330.307
208.419,331.918,264.9,339.548,210.5,204.737,347.884,318.726
209.869,345.428,317.279,354.592,213.484,206.375,364.925,336.548
211.205,389.611,364.414,401.05,215.451,207.413,391.464,376.265
212.561,416.531,349.15,431.618,216.786,208.621,402.845,401.356
213.603,393.172,298.33,411.98,218.025,210.649,390.628,386.897
214.964,353.934,284.736,373.026,219.832,213.299,375.505,357.676
217.059,342.76,315.782,357.984,221.89,215.694,373.346,346.352
218.756,345.342,314.697,356.488,222.74,217.123,365.195,342.542
220.13,326.399,259.485,335.626,222.702,218.386,331.1,320.685
221.794,289.427,230.163,297.076,222.875,219.697,289.592,286.304
223.122,258.809,267.907,262.83,223.273,220.094,266.264,258.904
223.388,238.836,299.135,237.713,223.465,219.333,254.97,238.795
223.091,212.431,239.64,207.578,223.423,218.321,230.083,210.124
222.562,171.13,143.045,163.679,222.802,217.172,183.813,167.258
220.368,141.464,133.238,129.772,220.289,214.201,149.112,135.936
215.176,154.605,209.919,138.713,215.177,208.411,161.593,145.596
208.513,195.055,258.008,180.303,209.178,201.904,203.478,184.817
203.303,205.075,213.271,196.288,204.975,197.674,214.946,200.63
199.945,159.004,145.282,153.12,202.701,195.353,173.061,161.658
196.435,100.662,138.66,91.26,199.877,191.997,120.032,103.331
192.157,77.764,177.457,64.264,195.386,187.139,101.62,76.356
187.445,91.645,208.811,79.273,190.115,182.188,125.104,88.031
181.664,110.662,201.533,103.411,184.591,177.045,155.234,104.765
174.539,100.306,155.281,96.767,178.153,171.04,138.661,90.905
160.284,21.617,96.675,15.503,163.733,157.722,34.716,12.902
128.425,-150.373,60.701,-167.553,131.182,126.264,-154.189,-152.141
85.739,-331.547,48.798,-361.044,88.279,83.663,-328.106,-326.365
57.917,-381.834,-10.079,-411.125,60.466,55.997,-364.286,-374.695
54.683,-314.793,-130.194,-332.119,56.995,53.039,-292.004,-307.588
60.799,-251.304,-180.961,-260.492,62.903,59.41,-227.489,-242.505
65.638,-202.649,-81.066,-212.581,67.635,64.338,-177.937,-193.484
69.826,-123.051,49.817,-132.853,71.528,68.407,-101.269,-116.614
71.003,-58.933,59.782,-63.063,72.371,69.58,-42.568,-54.68
66.957,-63.681,-8.413,-63.163,68.476,65.944,-47.261,-58.247
64.04,-83.87,-21.42,-83.072,66.457,63.55,-60.668,-75.449
69.391,-51.571,25.481,-50.255,73.049,69.148,-23.098,-41.432
78.997,6.877,52.38,10.685,83.405,78.693,34.789,15.798
82.984,25.589,42.074,29.616,87.286,82.276,52.456,32.271
80.031,6.685,52.867,7.64,83.901,78.74,37.858,14.047
77.887,15.502,91.75,17.199,81.672,76.384,54.442,27.087
82.822,80.811,91.554,90.845,86.575,81.377,124.017,96.389
93.073,152.27,58.545,168.94,96.071,91.073,189.115,168.442
98.647,152.605,63.545,163.848,100.594,95.348,175.522,167.073
92.929,86.316,112.039,85.128,94.672,88.527,106.887,99.127
84.577,54.538,135.296,48.698,86.707,79.999,90.363,65.645
85.448,100.664,93.04,101.506,87.336,81.472,142.019,109.369
92.519,150.137,46.01,157.671,93.519,89.461,167.78,156.273
95.183,143.003,72.257,148.982,95.638,93.127,133.092,146.81
92.756,119.843,149.954,121.517,93.287,91.509,108.233,121.369
92.421,126.897,168.206,129.409,93.042,91.298,124.739,125.622
97.126,135.458,92.334,140.92,97.556,95.384,132.276,130.625
102.113,125.98,47.047,130.228,102.386,99.547,124.745,117.641
102.487,137.271,117.234,138.863,102.724,99.402,150.257,126.157
100.851,184.896,215.127,188.334,100.931,97.852,202.971,171.99
102.024,224.264,216.288,233.274,101.747,99.546,226.671,211.159
106.486,217.374,129.357,229.796,105.836,104.219,204.745,205.526
111.192,181.207,76.365,191.894,110.639,108.778,174.066,171.005
114.024,160.51,114.913,167.824,114.107,111.947,166.868,152.095
116.336,178.752,186.001,185.129,116.613,115.098,182.837,171.729
119.584,213.108,210.019,220.062,119.094,118.646,199.791,205.239
123.726,211.7,167.24,217.858,122.629,122.051,189.505,202.656
128.111,157.928,109.575,162.237,127.73,125.538,150.009,152.559
132.019,102.531,92.18,106.306,133.214,129.381,118.18,103.725
135.542,100.396,126.108,104.581,137.616,133.242,124.535,103.598
138.749,144.037,170.978,147.788,140.166,135.932,154.74,143.064
141.21,180.952,168.527,183.325,141.186,136.792,169.915,173.459
143.812,180.321,125.68,181.236,142.889,138.014,157.019,169.415
147.797,157.426,106.169,157.138,147.109,141.901,140.4,150.114
152.097,147.905,143.196,146.084,152.169,146.606,148.633,146.767
155.249,162.829,183.857,159.139,155.553,149.467,172.808,162.786
158.427,168.254,164.592,162.949,158.246,151.971,172.674,165.854
162.586,144.771,128.451,138.442,161.727,155.983,144.902,143.492
165.988,123.525,140.882,117.383,164.91,159.656,129.371,126.402
168.116,131.281,176.684,127.242,167.787,161.767,144.836,135.882
169.895,146.093,175.059,145.828,170.941,163.502,164.457,150.221
170.982,137.503,142.766,140.641,173.071,165.52,161.214,142.616
170.621,125.287,145.382,129.969,172.876,166.627,154.527,131.908
170.201,146.926,188.751,152.917,171.906,166.704,174.357,152.83
172.199,190.169,218.362,198.759,173.385,168.548,207.886,194.307
175.507,211.189,211.868,222.564,177.011,172.723,220.392,215.131
177.77,191.421,189.275,203.539,180.296,176.618,196.942,196.243
179.561,146.658,170.492,156.84,182.78,178.961,150.241,151.616
182.543,107.44,149.979,115.63,185.62,181.023,110.706,112.281
187.123,96.488,135.368,104.043,189.665,184.175,102.702,101.699
192.104,114.693,151.361,120.883,193.909,187.613,124.622,119.116
195.557,138.611,181.034,141.53,196.162,189.485,148.273,139.851
197.136,135.724,178.081,133.798,196.197,189.857,138.361,132.073
199.43,100.635,131.467,91.955,197.011,191.357,92.833,90.908
203.364,66.787,96.336,50.266,199.953,194.509,54.769,50.754
204.972,59.348,116.305,37.354,201.464,195.327,52.726,39.313
202.54,65.824,152.841,42.828,199.511,192.413,67.348,45.512
200.624,77.537,161.191,56.601,197.729,190.2,85.148,59.127
202.296,94.036,145.66,75.091,198.886,191.086,106.375,77.202
205.152,99.748,130.665,79.759,200.877,192.554,111.033,82.696
205.589,86.73,120.203,63.651,200.567,192.213,83.663,68.796
203.381,71.548,114.065,48.066,198.595,190.951,52.881,55.695
200.882,81.458,139.539,62.288,197.56,190.555,64.786,71.077
199.153,117.352,183.841,104.45,197.388,190.746,110.977,111.454
198.097,142.04,193.561,134.489,197.115,190.91,140.592,138.366
197.287,130.173,163.763,126.892,196.668,190.915,135.64,129.401
196.507,103.793,141.497,103.64,196.304,190.696,118.237,105.79
195.46,97.909,156.285,99.357,195.503,189.818,110.778,99.258
193.91,115.034,176.13,117.813,193.582,188.227,118.203,114.11
192.899,128.597,171.276,132.522,191.951,187.359,129.082,127.715
192.348,120.807,160.957,124.35,191.269,187.364,128.033,121.5
190.435,96.606,159.269,98.726,189.522,186.312,108.294,97.69
186.639,62.46,144.822,62.792,185.56,182.85,69.754,62.763
182.135,17.071,92.022,14.693,180.583,177.568,17.339,16.359
177.173,-32.821,31.298,-39.17,175.344,171.641,-31.403,-34.745
171.002,-60.966,24.122,-72.059,169.155,165.016,-49.608,-64.9
163.951,-47.009,65.948,-62.767,161.733,157.047,-30.301,-54.627
157.294,-11.155,90.808,-30.16,154.322,148.616,-3.231,-23.265
152.656,0.928,62.227,-18.625,149.425,142.951,-4.96,-13.222
151.512,-15.522,30.275,-33.456,148.695,142.677,-25.183,-27.335
153.334,-20.375,44.357,-36.315,150.946,146.073,-24.021,-28
156.255,-4.552,72.146,-19.683,154.229,149.713,-2.836,-10.474
159.09,9.583,86.132,-5.937,157.545,152.609,13.132,2.215
161.306,18.668,97.995,3.354,160.005,154.933,24.477,10.233
163.271,32.689,109.139,19.211,161.692,156.75,42.774,25.839
165.496,46.557,104.618,36.079,163.388,158.244,59.619,42.584
168.386,49.054,89.987,42.196,165.787,160.497,60.951,47.861
171.398,54.725,105.351,51.544,168.292,163.931,64.136,56.083
173.325,88.994,155.28,88.866,169.801,167.127,97.42,91.383
175.594,143.643,198.925,145.162,172.069,170.087,150.402,143.87
180.5,186.329,211.255,187.91,176.983,174.418,187.346,181.959
187.691,199.557,193.815,199.863,183.512,180.595,192.996,190.745
194.73,186.707,169.423,183.436,189.598,186.905,178.534,175.133
200.308,168.273,164.886,158.636,194.361,191.767,161.349,154.17
204.354,165.612,186.598,149.091,197.42,194.898,149.355,147.04
205.662,172.815,209.935,152.929,197.973,195.455,142.117,150.426
204.427,159.803,199.301,141.265,197.009,193.907,129.596,139.567
204.039,107.284,150.254,89.971,197.229,193.528,91.608,93.636
206.681,38.092,89.351,16.971,199.424,195.816,31.356,27
210.018,-0.782,59.389,-29.131,201.122,197.671,-13.187,-17.131
210.614,1.395,78.734,-32.573,200.051,196.225,-22.447,-22.178
208.983,10.756,109.821,-25.229,197.96,193.491,-17.441,-15.407
208.076,9.632,116.74,-25.667,197.875,192.984,-14.467,-14.899
208.258,6.337,97.859,-26.453,199.199,194.558,-13.379,-15.51
208.248,1.343,72.578,-28.415,200.228,196.354,-15.209,-16.913
207.982,-9.894,58.158,-37.531,201.053,197.694,-21.161,-23.752
207.827,-16.681,63.59,-43.184,201.606,198.464,-22.063,-27.654
206.799,5.631,104.484,-19.204,200.518,198.067,4.788,-4.593
204.205,56.267,155.969,35.227,197.68,196.227,57.433,46.67
201.918,92.346,165.172,76.065,195.61,194.378,93.211,85.385
200.887,83.942,132.687,70.611,194.993,193.42,85.936,81.193
200.391,60.407,108.893,47.657,194.414,193.173,64.423,59.479
199.835,66.946,127.911,54.298,193.404,192.933,69.257,63.289
198.445,99.429,161.009,88.36,192.309,191.443,96.913,92.137
196.285,115.572,168.239,106.479,191.627,188.773,110.818,108.237
194.183,102.905,157.813,93.809,190.888,186.315,101.908,98.853
192.455,92.777,149.093,83.122,189.421,185.033,98.675,92.299
190.767,95.465,138.226,87.071,187.847,184.414,105.662,97.694
190.026,85.838,118.576,78.319,187.736,184.278,95.421,88.869
191.197,60.734,112.011,50.719,189.209,185.131,68.617,60.968
192.333,44.043,133.432,30.877,190.042,185.96,52.497,40.803
192.179,29.724,147.143,15.352,189.705,186.032,37.284,26.112
193.727,-8.887,120.73,-25.909,191.367,187.394,-7.213,-13.13
197.017,-67.369,57.934,-89.593,194.501,189.726,-70.858,-75.617
196.169,-118.878,-8.25,-144.95,192.987,188.286,-120.074,-130.261
191.843,-130.734,-19.214,-157.49,188.306,184.182,-130.175,-141.961
190.591,-88.471,39.245,-113.734,187.606,182.939,-99.096,-99.257
190.627,-29.731,94.694,-52.027,187.725,182.405,-57.215,-40.473
186.35,-9.315,80.941,-28.626,182.288,178.333,-41.667,-18.877
179.527,-33.728,37.015,-51.73,175.184,173.225,-53.104,-39.984
174.228,-67.726,24.126,-85.318,171.306,169.529,-63.906,-67.773
170.412,-83.11,31.464,-100.837,168.273,165.655,-63.197,-78.154
166.261,-70.968,45.884,-90.097,163.587,160.636,-56.681,-67.273
161.435,-44.345,67.566,-64.243,158.734,155.392,-48.479,-43.323
157.874,-30.565,72.88,-49.154,155.746,152.02,-42.356,-26.65
155.586,-41.618,46.387,-58.91,153.514,150.599,-45.902,-33.467
151.415,-59.587,18.523,-77.004,149.585,147.587,-54.629,-52.468
144.352,-49.785,40.447,-65.736,143.309,141.329,-37.838,-44.834
137.791,-2.216,97.475,-12.181,136.622,135.24,12.922,4.316
134.874,45.093,126.44,41.503,132.552,132.287,51.445,51.45
133.097,53.203,109.33,50.805,130.194,130.059,45.513,53.558
128.887,32.805,76.184,27.804,126.335,125.445,23.526,27.567
123.361,15.822,59.958,8.453,121.449,118.88,17.363,10.951
118.906,10.441,64.613,3.178,118.268,113.021,22.155,9.829
115.075,5.815,76.268,1.589,115.758,109.661,21.288,10.044
110.383,-1.802,83.232,-1.962,110.393,107.424,10.094,5.88
104.959,-13.273,71.045,-11.113,103.745,103.865,-8.059,-5.101
99.722,-44.002,33.49,-42.462,100.389,98.221,-36.317,-36.283
95.104,-99.502,-18.45,-100.516,98.877,91.622,-79.931,-90.049
89.756,-151.743,-54.887,-155.957,92.538,85.417,-127.544,-140.028
82.094,-174.777,-56.078,-182.124,80.479,79.326,-158.468,-163.33
73.765,-179.134,-42.563,-188.28,70.412,72.241,-166.518,-168.344
67.232,-181.721,-40.101,-188.808,66.855,65.058,-157.053,-166.164
62.677,-183.071,-55.791,-183.894,65.621,60.806,-144.054,-157.196
59.886,-181.957,-75.878,-178.37,62.603,60.253,-143.495,-148.952
57.692,-182.557,-88.101,-181.572,58.062,59.487,-154.394,-151.262
53.75,-185.808,-91.839,-191.021,52.851,55.428,-161.759,-160.073
47.426,-177.37,-68.689,-186.942,46.288,49.144,-149.468,-155.089
40.738,-148.334,-28.886,-158.939,38.918,42.557,-118.129,-127.338
36.493,-121.608,-18.492,-130.017,34.798,36.975,-91.523,-100.082
33.644,-126.518,-44.372,-130.373,34.241,31.883,-93.146,-102.136
28.646,-152.621,-68.154,-152.43,31.039,26.242,-115.473,-125.982
20.696,-160.636,-59.58,-158.299,21.747,20.335,-125.163,-134.884
11.684,-141.424,-42.281,-136.1,10.577,14.11,-111.077,-117.335
3.405,-129.899,-50.052,-120.499,2.882,7.026,-103.186,-105.946
-4.27,-147.03,-69.824,-137.22,-2.325,-0.798,-120.7,-122.741
-11.667,-169.981,-80.394,-165.244,-9.238,-8.024,-142.877,-146.093
-18.252,-182.684,-93.558,-185.269,-18.604,-13.871,-159.241,-161.057
-23.853,-202.256,-132.947,-211.919,-27.25,-19.472,-189.421,-186.68
-28.923,-235.954,-175.069,-251.937,-32.454,-25.986,-231.898,-228.202
-33.588,-257.768,-170.592,-277.082,-35.195,-32.54,-251.35,-253.696
-37.411,-249.167,-134.258,-267.627,-38.616,-37.52,-236.1,-244.392
-40.971,-229.109,-126.528,-245.425,-44.562,-41.388,-217.909,-224.786
-45.608,-229.804,-166.141,-245.178,-51.653,-45.793,-227.108,-228.287
-51.019,-254.802,-201.499,-271.031,-56.871,-50.931,-255.928,-255.33
-56.134,-277.794,-195.023,-296.188,-60.296,-56.11,-277.148,-278.439
-61.444,-285.494,-179.789,-305.202,-65.098,-61.099,-283.066,-284.298
-67.905,-286.183,-177.763,-304.288,-71.895,-66.016,-279.196,-280.606
-74.34,-291.497,-183.361,-306.581,-77.742,-70.91,-275.303,-281.052
-77.799,-305.68,-201.857,-320.896,-80.387,-75.073,-284.136,-294.07
-78.435,-321.258,-230.253,-341.182,-82,-78.713,-305.421,-312.863
-79.66,-323.267,-238.56,-348.881,-86.134,-83.175,-317.748,-319.027
-83.737,-294.233,-198.129,-322.623,-92.914,-89.088,-291.036,-293.18
-90.088,-241.165,-147.728,-268.558,-100.085,-95.696,-234.225,-244.427
-96.06,-207.963,-146.701,-232.829,-105.651,-101.036,-202.427,-216.948
-100.282,-221.426,-181.996,-245.003,-109.704,-104.697,-222.23,-234.267
-102.796,-254.327,-203.16,-280.063,-112.901,-107.796,-263.491,-269.793
-104.017,-272.236,-198.466,-304.14,-115.502,-111.096,-297.073,-292.768
-105.918,-277.823,-207.758,-315.855,-118.779,-115.06,-321.348,-304.713
-110.264,-290.447,-243.128,-330.761,-123.609,-119.979,-337.645,-320.036
-115.753,-305.12,-257.149,-345.758,-128.887,-125.574,-339.312,-332.914
-119.353,-295.63,-231.914,-338.677,-133.367,-130.566,-325.26,-325.486
-120.949,-259.215,-211.26,-307.716,-137.789,-134.55,-309.3,-302.239
-123.531,-236.523,-231.774,-290.406,-143.006,-138.746,-307.415,-293.909
-128.099,-257.014,-259.624,-314.507,-148.006,-143.735,-318.315,-316.144
-132.307,-285.376,-249.133,-345.776,-151.478,-148.241,-329.914,-339.63
-135.283,-282.066,-227.838,-342.477,-153.694,-150.922,-334.381,-333.91
-139.28,-266.06,-236.401,-321.27,-156.216,-152.488,-327.331,-308.704
-144.416,-269.318,-263.515,-321.627,-160.043,-154.433,-327.14,-297.679
-147.409,-281.03,-272.855,-341.094,-164.195,-157.392,-349.212,-316.606
-148.342,-277.656,-265.273,-346.158,-167.392,-161.617,-363.014,-339.869
-150.928,-269.353,-268.054,-331.86,-169.625,-165.652,-345.989,-339.147
-156.428,-267.016,-258.558,-314.295,-172.222,-168.556,-312.292,-318.96
-163.154,-256.131,-214.714,-291.776,-176.462,-172.423,-275.007,-291.829
-168.727,-230.318,-175.638,-257.872,-180.811,-177.207,-242.12,-258.587
-172.64,-207.74,-183.927,-227.411,-183.493,-180.899,-227.893,-232.483
-176.28,-207.249,-224.649,-221.749,-184.748,-183.454,-236.731,-233.624
-180.716,-222.88,-238.149,-235.401,-185.61,-185.796,-250.393,-249.955
-185.06,-229.487,-208.722,-238.98,-187.183,-188.005,-247.356,-249.861
-187.694,-215.304,-175.912,-217.855,-189.518,-189.174,-223.737,-224.033
-189.536,-193.9,-166.738,-186.736,-191.546,-188.793,-191.145,-187.652
-191.15,-188.889,-183.539,-173.838,-191.363,-186.868,-172.753,-168.66
-191.062,-218.554,-216.721,-202.245,-188.878,-184.732,-194.153,-195.261
-190.321,-271.732,-251.969,-258.851,-187.388,-184.344,-249.358,-254.086
-192.572,-307.453,-264.581,-296.094,-189.506,-185.944,-291.723,-289.33
-198.566,-300.77,-243.14,-287.051,-194.041,-189.19,-284.23,-273.596
-205.087,-273.712,-223.179,-255.337,-198.234,-193.654,-244.813,-238.622
-209.454,-266.515,-239.179,-241.663,-200.603,-197.367,-221.385,-225.649
-211.601,-296.779,-279.669,-266.405,-201.46,-198.496,-240.235,-247.474
-212.485,-341.889,-300.34,-312.032,-202.533,-198.028,-283.835,-287.198
-213.035,-362.967,-284.493,-340.069,-204.825,-198.529,-315.43,-319.197
-214.216,-360.248,-267.776,-344.322,-206.874,-200.425,-322.249,-335.145
-216.661,-362.732,-268.283,-347.798,-207.677,-202.483,-316.084,-337.473
-219.626,-380.005,-282.148,-364.712,-208.989,-205.079,-323.207,-342.979
-221.094,-397.684,-312.09,-389.155,-211.611,-207.917,-360.559,-369.351
-221.071,-405.917,-345.08,-407.51,-214.057,-209.644,-403.611,-402.212
-221.156,-408.613,-343.89,-414.051,-215.004,-211.012,-412.853,-413.752
-222.421,-395.764,-288.516,-397.136,-215.482,-214.06,-380.713,-390.646
-226.537,-361.866,-239.13,-354.102,-218.113,-219.226,-339.477,-346.752
-233.474,-343.253,-259.545,-324.446,-222.689,-224.019,-324.411,-318.635
-240.151,-370.9,-311.63,-345.267,-226.743,-226.502,-339.536,-328.184
-243.7,-417.964,-321.691,-394.143,-229.145,-227.578,-366.823,-360.152
-244.602,-442.116,-292.299,-424.235,-230.826,-228.859,-390.359,-387.205
-245.165,-445.608,-303.423,-429.699,-232.658,-230.311,-408.485,-402.612
-246.665,-460.754,-374.288,-442.39,-234.545,-231.209,-428.833,-419.474
-249.381,-493.359,-411.411,-473.324,-236.937,-232.286,-449.967,-441.174
-251.55,-513.446,-359.871,-494.344,-239.165,-233.5,-458.853,-452.315
-250.17,-491.679,-289.429,-472.945,-238.555,-232.839,-440.22,-434.28
-246.55,-446.119,-296.454,-425.073,-235.486,-231.006,-405.991,-398.738
-247.468,-445.183,-371.496,-423.106,-235.959,-233.215,-408.239,-400.264
-253.867,-496.815,-413.69,-477.421,-241.262,-239.335,-450.671,-444.208
-257.646,-519.37,-371.022,-502.018,-244.189,-241.847,-464.68,-459.929
-256.366,-482.609,-308.396,-463.814,-242.838,-239.836,-429.298,-425.549
-255.313,-447.836,-316.939,-426.369,-241.922,-239.244,-399.554,-396.536
-255.719,-449.356,-365.499,-425.831,-241.766,-240.33,-398.5,-395.713
-255.546,-442.703,-358.227,-416.171,-241.003,-239.688,-380.821,-378.608
-256.134,-394.235,-308.692,-363.831,-242.166,-239.159,-326.42,-324.479
-258.719,-342.138,-290.482,-310.934,-245.86,-241.91,-284.293,-279.195
-261.024,-338.405,-306.995,-311.099,-248.727,-245.861,-296.406,-286.504
-260.999,-367.914,-306.142,-345.265,-248.983,-247.22,-328.477,-319.2
-259.903,-377.266,-284.884,-354.687,-247.97,-246.25,-328.116,-323.135
-259.977,-364.802,-288.854,-337.565,-247.425,-245.602,-310.22,-305.292
-262.19,-357.439,-301.403,-325.56,-248.727,-246.977,-303.987,-298.269
-266.252,-346.181,-276.819,-312.517,-252.424,-250.779,-292.165,-291.084
-269.476,-314.211,-236.615,-280.37,-255.956,-254.569,-259.146,-262.452
-269.845,-283.316,-240.697,-248.687,-256.779,-255.501,-232.95,-232.294
-268.895,-286.81,-288.78,-251.042,-256.106,-254.424,-244.477,-235.127
-269.374,-319.769,-311.465,-284.984,-257.176,-254.78,-280.218,-268.217
-271.796,-346.62,-294.002,-315.125,-260.589,-257.863,-304.267,-297.695
-273.757,-341.739,-281.415,-313.563,-263.058,-260.985,-299.083,-298.466
-273.77,-311.439,-282.834,-285.676,-263.029,-261.997,-275.142,-274.896
-272.847,-287.731,-282.967,-263.841,-262.366,-261.616,-259.82,-255.043
-272.961,-294.157,-283.517,-270.902,-263.072,-261.779,-268.277,-260.231
-274.873,-316.089,-295.017,-290.396,-265.021,-263.044,-282.76,-277.127
-277.189,-320.37,-297.242,-289.335,-266.257,-264.135,-275.91,-275.743
-277.931,-296.023,-268.445,-259.78,-265.46,-264.227,-247.163,-248.305
-276.447,-268.692,-245.805,-231.012,-263.272,-263.453,-226.173,-221.991
-274.824,-264.924,-265.703,-230.955,-261.971,-262.84,-232.084,-222.622
-275.653,-275.826,-297.382,-248.282,-263.068,-263.739,-247.624,-238.659
-277.974,-272.045,-279.829,-249.76,-265.134,-265.812,-242.093,-237.693
-279.463,-238.701,-225.212,-216.727,-266.682,-267.813,-204.954,-204.181
-280.467,-193.245,-218.294,-165.329,-268.514,-269.554,-158.88,-157.263
-281.56,-162.476,-257.166,-127.106,-270.249,-270.455,-131.474,-124.828
-281.844,-155.543,-249.795,-117.183,-270.052,-269.678,-127.606,-115.817
-281.424,-154.692,-181.756,-116.803,-268.619,-268.35,-125.589,-114.598
-281.456,-141.24,-154.276,-102.405,-268.466,-268.46,-110.735,-105.855
-281.16,-133.85,-217.37,-93.238,-269.097,-269.021,-106.16,-104.484
-279.354,-145.09,-266.162,-105.895,-268.438,-267.797,-118.498,-116.153
-277.243,-139.592,-215.152,-103.893,-267.021,-265.764,-109.114,-108.122
-275.638,-91.499,-126.485,-56.569,-265.752,-264.685,-59.75,-61.39
-274.044,-35.03,-103.159,2.466,-264.397,-264.3,-9.85,-9.635
-271.764,-24.088,-160.047,14.028,-262.175,-262.934,-8.411,-2.382
-268.948,-64.278,-215.095,-30.841,-259.202,-260.182,-51.849,-43.197
-266.584,-105.767,-208.959,-76.769,-256.67,-257.493,-86.305,-81.453
-264.878,-103.835,-163.694,-71.938,-254.668,-255.573,-71.111,-73.958
-262.979,-68.202,-128.659,-29.603,-252.704,-253.917,-31.343,-36.949
-259.518,-46.62,-136.997,-8.385,-250.494,-251.453,-28.94,-22.556
-254.988,-60.722,-175.782,-30.576,-247.975,-247.824,-66.415,-45.136
-251.574,-78.326,-198.044,-52.248,-245.303,-243.795,-80.288,-63.291
-249.838,-64.933,-168.552,-35.914,-242.926,-240.715,-45.173,-47.785
-248.985,-24.921,-114.382,5.678,-241.738,-240.103,4.023,-12.323
-248.274,12.239,-109.654,41.761,-241.377,-241.148,31.336,17.32
-246.41,23.783,-157.486,54.023,-239.77,-240.462,24.641,25.005
-242.954,6.674,-180.652,37.682,-236.572,-236.94,-8.424,6.625
-239.447,-17.079,-140.909,12.576,-233.676,-232.772,-37.083,-16.478
-237.472,-24.4,-100.18,6.274,-232.123,-229.902,-39.421,-18.468
-237.037,-32.716,-124.965,2.136,-231.361,-228.759,-38.814,-18.388
-237.485,-50.783,-161.066,-15.795,-230.976,-229.282,-46.071,-32.78
-238.889,-45.73,-136.644,-16.014,-231.755,-231.456,-35.265,-32.024
-241.176,-19.194,-96.981,7.394,-233.985,-234.274,-13.276,-10.37
-243.54,-21.432,-118.59,6.533,-236.503,-236.099,-22.904,-12.373
-243.8,-64.074,-173.359,-36.007,-236.794,-235.245,-66.606,-53.395
-241.304,-101.157,-175.219,-75.509,-234.212,-232.397,-96.27,-89.541
-238.918,-104.183,-143.658,-78.224,-231.453,-230.733,-89.396,-89.314
-237.555,-92.92,-152.737,-63.777,-229.372,-230.138,-75.239,-74.095
-235.308,-94.572,-180.052,-64.899,-226.594,-228.07,-82.091,-75.819
-231.561,-111.266,-167.261,-86.185,-223.27,-224.774,-103.794,-96.249
-227.67,-122.144,-132.649,-104.323,-220.866,-222.392,-115.319,-112.099
-223.853,-111.955,-141.241,-99.566,-218.553,-220.054,-107.869,-108.201
-218.965,-98.056,-186.714,-88.301,-214.237,-215.54,-102.715,-100.575
-214.073,-99.291,-193.49,-92.389,-209.42,-210.959,-112.3,-104.437
-210.667,-101.027,-147.035,-96.785,-206.252,-208.772,-115.547,-105.009
-207.153,-83.74,-112.361,-78.151,-203.108,-206.66,-93.978,-86.889
-202.086,-62.577,-134.546,-53.093,-198.54,-202.354,-69.674,-67.705
-197.328,-63.787,-167.876,-54.118,-194.297,-197.423,-72.808,-71.845
-194.936,-73.738,-151.466,-67.061,-191.833,-193.726,-84.89,-82.753
-193.911,-62.006,-112.456,-54.725,-189.827,-190.799,-70.457,-69.225
-191.725,-32.335,-95.427,-20.843,-186.417,-187.569,-37.602,-37.507
-187.521,-15.838,-94.789,-3.958,-181.99,-184.004,-25.085,-22.737
-182.311,-22.318,-95.303,-15.622,-177.934,-180.208,-39.49,-33.923
-177.699,-33.102,-106.605,-28.889,-174.587,-176.393,-51.371,-45.844
-173.237,-35.703,-124.293,-26.111,-170.246,-171.925,-44.913,-43.058
-167.762,-19.418,-101.645,-2.263,-164.209,-166.24,-17.275,-19.544
-163.139,24.528,-41.179,44.607,-159.435,-161.51,27.48,26.84
-159.638,77.224,-4.176,95.563,-156.388,-158.312,68.303,74.117
-154.328,104.297,-14.438,120,-151.761,-154.121,85.04,91.85
-146.586,94.402,-41.59,108.224,-144.392,-147.907,75.976,75.95
-139.223,67.434,-46.255,79.024,-136.409,-141.473,54.475,48.289
-133.379,49.167,-35.976,58.973,-129.084,-135.651,38.495,32.234
-126.801,50.342,-34.508,59.991,-121.67,-128.727,39.212,35.85
-118.828,67.724,-27.705,76.679,-114.597,-120.506,53.356,52.193
-110.848,88.149,-7.668,95.13,-108.147,-112.114,66.68,67.93
-103.367,98.083,1.675,104.628,-101.306,-103.692,70.901,75.616
-96.086,98.565,-14.97,105.705,-94.276,-95.606,70.407,78.639
-88.824,102.178,-22.685,106.819,-87.788,-88.521,74.85,84.512
-82.16,124.613,11.559,126.582,-81.373,-82.33,99.708,107.041
-77.031,167.571,45.555,175.076,-74.679,-76.615,148.735,152.606
-72.563,204.861,37.66,224.443,-67.812,-70.64,192.828,197.247
-66.1,203.582,20.659,229.775,-60.201,-63.228,195.771,203.272
-56.749,175.417,46.511,198.84,-51.433,-54.403,173.177,177.752
-47.14,165.345,91.461,185.721,-42.755,-46.151,170.798,167.841
-39.263,174.82,87.974,195.822,-35.032,-38.996,183.074,178.2
-31.591,180.93,63.84,200.305,-27.158,-30.876,185.499,183.412
-23.146,192.949,89.124,207.191,-19.164,-22.173,190.655,190.328
-15.105,220.899,137.952,230.797,-12.399,-15.468,210.233,212.035
-8.503,242.02,136.48,249.016,-7.036,-10.601,223.362,228.268
-2.204,237.853,92.789,241.443,-0.697,-3.873,214.891,220.141
5.086,229.88,89.592,231.91,8.16,5.948,210.152,212.198
11.834,241.206,134.64,249.219,16.286,14.455,229.508,231.426
16.917,259.74,161.595,279.821,21.189,19.302,253.625,261.678
21.658,264.911,155.532,293.54,25.474,23.687,261.991,274.654
27.886,251.774,146.453,279.954,32.231,30.558,251.492,262.554
36.345,231.14,147.821,253.465,41.273,39.633,230.023,237.498
47.14,224.542,146.573,242.431,51.976,50.514,220.742,225.25
57.393,226.995,134.276,243.458,62.271,60.819,224.617,225.972
62.222,211.035,122.252,223.839,67.59,65.353,211.18,210.783
64.431,188.032,128.566,192.015,69.622,66.119,184.41,184.223
70.23,189.505,154.02,185.17,73.956,70.135,178.002,177.098
77.819,204.782,154.959,199.679,79.94,77.382,185.728,185.313
83.364,208.136,122.154,207.291,85.008,83.772,180.801,187.091
88.209,213.838,122.561,215.1,90.183,88.637,179.298,194.242
93.394,241.082,170.851,242.967,95.491,92.379,207.78,222.814
97.162,272.765,199.972,278.894,99.118,94.557,250.307,256.894
100.274,284.964,181.768,296.634,102.445,97.195,272.392,273.029
105.668,279.483,174.734,291.805,108.219,103.37,269.754,271.061
112.728,274.377,211.572,284.836,115.237,111.821,267.473,270.148
118.23,273.058,232.774,282.824,120.411,118.137,268.68,270.152
121.361,270.6,209.355,275.719,122.838,120.537,254.104,258.337
123.508,264.522,184.459,260.247,123.857,121.246,225.108,239.215
126.386,252.158,182.334,244.279,126.45,123.803,207.538,225.307
130.303,238.897,180.576,239.39,131.548,128.555,213.672,222.863
133.959,230.306,170.343,243.37,136.304,132.714,226.471,227.536
136.117,233.276,188.399,252.787,138.466,134.577,241.928,239.46
136.333,255.468,231.092,274.424,138.698,134.644,268.906,263.706
136.601,286.517,247.091,302.241,139.613,135.604,292.339,289.197
139.165,306.302,228.624,318.449,142.181,139.244,295.019,299.408
142.9,307.215,210.354,315.96,144.637,143.508,283.565,293.321
145.098,293.188,214.689,299.247,145.793,145.588,269.789,279.157
146.503,272.503,217.883,277.307,147.429,146.692,256.918,263.176
150.333,258.619,201.813,262.25,151.502,149.67,248.638,250.834
155.429,260.576,198.102,260.942,155.886,153.074,248.187,248.583
158.555,266.682,220.015,261.946,158.328,154.843,245.536,251.132
160.381,261.651,232.418,251.882,160.193,156.706,232.812,245.397
162.758,247.568,204.31,235.788,162.75,160.009,219.394,231.328
165.331,233.665,167.941,224.082,165.595,163.453,215.809,218.662
167.46,240.197,180.781,234.027,168.276,166.027,233.285,225.418
169.586,283.705,223.903,279.367,169.928,167.897,276.157,264.871
172.093,336.948,238.132,333.015,170.148,169.127,317.617,313.386
174.984,347.212,220.369,341.891,170.89,170.373,317.612,322.584
178.717,313.618,218.742,304.635,174.343,173.471,284.046,289.328
183.191,289.544,241.668,277.359,179.471,178.438,263.745,263.057
186.885,288.674,243.166,275.236,183.576,182.624,260.991,258.298
187.928,283.558,230.238,269.759,185.204,183.82,255.565,252.447
185.972,276.077,242.407,263.35,184.267,182.168,255.219,247.863
184.512,282.918,260.027,272.419,183.317,180.974,263.266,255.771
186.31,286.912,241.232,278.469,184.811,182.488,258.182,259.895
189.199,265.652,204.512,259.385,187.26,185.1,233.724,244.306
190.609,243.691,210.768,239.012,187.98,186.963,219.402,230.647
190.987,253.132,244.805,248.115,187.213,187.956,234.339,242.711
191.784,275.503,241.565,268.235,187.296,188.792,255.085,261.49
192.616,277.08,211.581,265.244,188.185,189.26,253.366,257.232
193.114,260.424,207.465,241.879,188.751,189.42,232.369,234.622
193.884,246.685,228.373,222.265,189.227,189.88,210.802,215.621
194.859,240.591,220.922,213.395,189.691,190.195,195.292,203.982
195.513,232.56,179.453,203.677,189.747,190.045,183.404,190.066
195.156,224.158,168.837,193.892,189.16,189.884,181.046,180.494
193.963,226.29,205.416,197.862,188.347,190.315,191.829,189.468
193.688,238.753,229.316,215.722,188.422,191.607,206.994,210.904
195.527,246.16,203.982,228.466,190.236,193.431,213.936,222.295
198.154,238.432,178.438,221.587,192.893,194.961,208.582,213.357
199.199,233.823,202.462,212.84,194.08,195.065,205.06,204.598
198.278,249.617,232.913,225.362,193.057,193.61,214.127,215.418
197.546,272.356,227.283,250.636,191.927,192.776,229.039,236.795
198.13,275.243,213.932,258.1,191.908,194.007,233.13,243.728
198.822,257.023,219.301,240.348,191.992,195.718,222.405,230.128
198.463,242.855,217.577,225.008,191.444,195.989,212.795,217.863
197.386,239.396,191.104,223.612,190.748,195.31,209.463,215.565
196.158,248.025,192.765,234.53,190.143,194.549,218.638,224.48
194.471,285.618,250.261,271.821,188.881,192.748,257.347,260.763
193.278,340.019,305.22,327.545,187.644,190.565,311.684,316.324
193.573,366.121,300.633,357.75,187.53,189.851,337.259,346.135
194.974,344.69,249.331,337.162,188.516,190.762,314.29,325.189
196.629,299.305,213.98,286.76,189.98,191.968,267.748,277.424
197.274,262.069,212.908,243.445,190.618,191.712,231.169,238.175
196.65,250.165,215.593,228.779,190.159,190.29,220.125,223.538
195.663,259.211,217.335,238.572,189.506,189.711,230.378,231.021
195.774,265.856,223.794,247.564,189.812,191.296,238.692,241.047
197.587,255.359,222.436,239.372,191.474,194.411,229.214,236.498
199.561,239.609,201.564,225.431,193.084,197.075,213.53,223.911
200.331,235.885,185.801,221.592,193.516,198.244,208.335,217.051
200.549,254.832,207.655,237.2,193.607,198.394,222.884,226.549
201.037,293.732,236.056,272.086,194.024,197.816,254.87,255.587
201.173,324.391,227.73,303.415,194.192,196.242,282.533,285.731
199.922,312.977,202.997,298.779,193.823,194.205,279.265,286.988
197.749,273.202,212.572,266.085,193.458,192.997,255.083,262.422
196.211,256.012,246.669,251.452,193.258,192.652,247.306,248.556
196.55,264.929,241.542,259.117,193.388,192.839,252.846,249.826
198.885,268.733,211.372,259.812,194.715,194.645,249.521,246.244
200.655,266.548,221.896,255.628,196.169,196.974,246.818,242.366
199.589,271.265,259.495,263.304,195.608,196.892,258.381,252.37
196.947,278.659,258.272,277.619,193.079,194.502,272.94,270.936
195.216,280.518,214.231,282.67,190.725,192.31,273.289,277.825
194.607,288.688,202.531,285.823,189.835,190.806,272.85,274.029
193.567,317.816,251.658,308.696,189.346,188.775,296.701,287.277
192.51,354.428,304.56,345.964,188.653,187.08,335.153,324.096
192.428,373.038,313.387,369.825,187.824,186.687,356.913,354.895
192.711,360.092,278.01,359.834,186.962,186.81,343.401,351.073
192.977,314.632,232.367,312.787,186.952,186.923,298.702,308.627
194.002,260.603,204.143,254.862,188.16,187.669,247.966,251.407
195.534,237.773,200.606,228.968,189.194,189.063,218.645,219.169
195.001,255.888,221.726,248.659,188.235,188.941,222.834,232.994
191.689,283.388,239.816,282.595,185.621,186.444,248.656,268.533
188.888,285.918,224.24,288.41,183.291,183.922,260.136,279.217
188.943,255.72,184.883,253.321,182.311,183.227,232.171,248.742
190.18,219.74,168.2,210.628,182.358,183.812,193.484,210.052
190.238,213.991,196.021,202.787,182.518,184.325,189.62,200.233
189.461,227.332,220.567,218.307,182.597,184.524,207.253,208.759
189.743,228.196,210.317,223.427,183.455,185.403,211.086,212.584
190.806,222.642,196.635,219.975,184.713,186.394,205.496,213.679
190.61,228.612,204.727,223.246,184.993,185.965,208.972,218.591
188.931,237.829,212,232.252,184.394,184.681,220.38,226.63
188.04,232.897,194.823,235.207,184.545,184.365,225.689,230.608
189.177,231.853,195.39,241.97,186.022,185.086,234.866,238.008
190.286,267.65,248.297,278.075,186.8,184.819,270.84,270.086
190.204,326.257,307.492,333.01,186.029,183.539,319.134,318.325
190.005,362.011,316.262,365.157,185.119,183.086,341.737,345.393
190.197,352.996,273.998,352.574,184.78,183.759,323.568,331.629
190.518,313.953,233.993,310.892,184.777,184.736,283.563,294.826
192.488,289.354,237.319,286.285,186.577,186.898,264.914,277.124
196.799,301.192,264.987,299.588,190.555,190.389,283.305,291.315
198.075,301.85,265.373,299.662,191.214,189.999,287.48,288.14
194.742,267.738,227.905,261.687,187.51,184.918,252.562,248.066
192.47,250.932,209.217,241.556,185.511,182.203,232.441,226.013
191.361,268.28,226.714,260.849,184.919,182.885,249.531,244.635
188.409,275.452,236.442,273.042,182.102,182.233,260.693,261.987
186.023,263.886,233.346,262.161,179.497,180.35,251.613,259.416
186.257,262.337,234.721,254.446,179.891,179.998,245.379,254.112
186.093,256.722,223.405,241.172,180.598,179.828,231.593,236.703
183.884,210.704,176.489,192.14,179.07,177.833,184.226,185.788
