EEG 1,EEG 2,EEG 3,EEG 4,EEG 5,EEG 6,EEG 7,EEG 8
55.204,46.645,55.941,42.955,56.497,58.429,33.729,45.915
53.567,44.497,54.92,44.515,55.493,56.937,38.104,46.77
52.929,44.145,54.446,47.222,55.034,55.798,49.077,48.614
54.759,49.907,55.636,52.176,56.619,56.089,58.409,53.166
56.959,56.526,57.193,55.359,58.377,56.68,62.926,57.476
57.513,56.81,57.745,53.71,58.279,56.699,64.355,59.105
57.361,57.604,58.075,55.602,57.786,57.217,68.531,63.131
57.958,66.391,59.118,67.202,58.937,58.955,78.364,73.466
58.971,76.3,60.22,80.895,60.944,60.843,89.136,85.503
59.78,80.801,60.88,88.425,62.197,61.91,95.329,93.084
60.81,83.325,61.568,90.056,62.662,62.45,97.303,94.368
62.116,87.914,62.426,91.179,63.085,62.926,99.217,94.136
62.69,90.502,63.038,92.844,63.795,63.392,98.873,96.326
61.743,88.414,62.789,93.294,63.964,63.629,94.703,99.863
60.317,87.207,62.037,92.659,63.171,63.678,92.915,101.139
60.472,87.961,62.292,88.225,62.969,63.885,93.294,93.884
62.368,83.588,63.815,78.876,64.326,64.269,87.492,79.211
64.336,70.24,65.548,68.109,66.315,64.952,72.012,66.079
65.219,57.658,66.742,61.685,67.504,65.968,56.923,59.786
65.232,57.291,66.945,62.243,66.992,66.659,53.453,58.799
65.322,63.377,66.22,63.063,65.57,66.705,56.241,57.593
66.136,66.704,65.586,60.856,64.996,66.696,57.525,56.608
67.644,68.181,65.841,60.496,65.56,66.984,58.86,59.256
68.923,70.079,66.365,63.239,66.098,67.262,61.937,62.515
68.78,71.373,66.455,66.136,66.288,67.743,65.515,64.443
67.409,71.483,66.345,67.677,66.605,68.541,68.117,67.633
66.349,73.611,66.147,69.295,66.714,68.466,69.299,72.345
66.619,77.994,65.938,70.385,66.516,67.328,67.593,74.078
67.506,80.601,66.057,69.678,66.576,66.687,63.784,71.505
68.049,80.161,66.48,69.092,66.833,67.16,61.992,69.821
68.528,77.853,66.929,70.164,67.039,67.958,64.639,72.509
69.051,77.722,67.207,74.244,67.305,68.171,72.063,77.224
68.838,80.793,67.126,78.869,67.42,67.306,78.7,77.383
67.602,81.961,66.676,79.481,67.193,65.692,78.919,72.338
66.545,80.238,66.767,78.161,67.732,64.738,76.673,69.521
66.724,78.476,67.811,77.861,69.249,65.376,76.753,70.047
66.861,75.647,68.023,75.766,69.379,66.243,75.073,68.511
65.42,68.133,66.24,67.41,67.225,65.524,64.437,61.97
63.144,59.457,63.702,57.009,64.184,63.827,52.814,54.832
61.671,56.695,61.999,53.964,61.49,63.409,53.703,54.222
61.243,55.086,61.501,55.097,60.469,64.553,58.285,56.807
60.92,46.655,61.418,50.185,61.183,64.976,53.302,55.272
60.434,34.986,61.173,39.821,61.798,63.928,45.504,51.927
59.973,29.867,60.805,34.993,61.316,62.872,46.35,53.749
59.789,34.472,60.616,39.923,60.805,62.347,51.502,56.448
60.493,41.644,61.144,45.027,61.643,61.82,47.435,47.466
61.469,46.75,61.98,46.469,63.04,61.13,35.934,33.919
61.282,52.856,61.838,51.876,62.785,60.732,33.501,36.789
60.442,61.613,60.72,62.92,60.802,60.977,46.26,54.537
60.968,68.653,60.448,69.699,59.994,61.486,58.673,63.248
62.448,67.058,61.545,64.276,61.552,61.523,54.846,53.295
61.931,57.992,61.876,54.434,62.42,60.916,43.913,43.434
59.815,51.154,61.142,51.181,61.488,60.598,41.995,45.179
59.604,51.327,61.433,51.537,61.636,60.863,45.587,45.328
60.807,51.72,61.897,46.501,62.64,60.21,41.569,36.753
59.734,45.3,59.807,36.93,61.072,58.008,29.81,30.552
56.756,39.664,56.285,33.965,57.273,56.046,24.851,34.328
55.893,44.111,54.829,40.289,54.746,56.057,32.232,39.605
57.315,51.423,55.486,45.989,54.507,57.032,40.427,39.184
57.115,51.522,55.611,47.222,54.892,56.899,41.403,40.81
54.845,49.61,54.781,50.838,54.738,55.998,42.336,50.045
54.185,55.826,54.825,60.671,54.59,56.136,51.171,59.355
56.082,65.541,55.936,68.723,55.19,57.347,59.256,60.491
57.113,69.448,56.033,69.632,55.522,57.804,58.089,57.972
55.559,70.997,54.905,71.724,54.93,57.195,57.743,63.632
54.07,76.059,54.891,80.332,55.127,57.393,67.626,77.961
54.624,81.302,56.246,88.392,56.768,58.409,80.036,88.676
55.723,79.86,56.873,87.36,57.932,58.209,82.96,85.715
55.827,74.125,56.317,81.078,57.394,56.866,79.661,75.78
55.814,72.273,56.236,80.929,56.452,56.535,80.154,75.623
56.465,72.908,57.296,86.381,56.733,57.585,82.852,85.865
56.216,70.314,57.779,87.53,57.258,57.937,82.268,91.475
54.243,64.437,56.571,80.264,56.384,56.81,75.498,85.023
52.419,60.507,55.171,71.582,55.172,55.68,64.823,74.905
51.992,62.121,54.974,70.151,55.171,55.326,62.234,72.337
52.286,63.848,55.428,72.036,55.605,55.545,74.9,75.218
53.327,61.074,56.157,67.945,55.856,56.479,84.804,70.69
55.675,55.218,57.617,56.11,56.98,57.803,63.928,52.308
57.856,48.876,58.953,44.617,58.602,58.282,26.961,33.756
58.64,48.427,59.24,44.684,59.212,57.951,18.589,33.539
58.967,56.723,59.128,55.986,58.835,58.241,39.759,48.403
58.455,64.186,58.643,66.267,57.889,58.851,55.695,61.081
55.893,60.001,57.205,65.019,56.547,58.222,53.69,60.531
52.958,49.887,55.589,56.281,55.496,56.48,48.59,50.531
52.624,49.617,55.272,53.836,55.528,55.176,51.377,44.791
54.596,61.31,56.101,61.696,56.214,54.949,56.578,49.789
55.086,73.084,56.072,73.231,55.674,54.961,61.508,61.575
52.512,75.565,54.744,81.317,53.845,54.995,69.56,73.098
49.906,72.177,54.048,84.775,53.176,55.535,77.822,79.817
50.106,72.152,54.911,86.772,54.537,56.14,78.898,81.332
52.381,75.038,56.086,86.228,56.004,56.386,70.683,78.261
54.467,78.271,56.266,84.404,55.934,56.493,64.602,76.284
55.437,85.013,55.933,88.299,55.276,56.59,72.732,82.829
55.651,95.432,56.256,101.009,55.673,56.907,90.697,97.896
55.727,104.31,57.098,115.608,56.669,57.768,102.414,111.862
55.876,104.387,57.226,117.031,56.595,58.396,97.489,109.934
55.631,95.241,56.083,101.502,55.249,57.578,84.324,92.507
55.222,85.346,55.03,83.891,54.351,56.422,76.38,77.797
55.38,81.649,55.384,77.633,54.778,56.908,75.289,76.57
55.766,80.943,56.256,77.854,55.47,58.246,73.012,79.668
55.758,72.987,56.386,69.628,55.754,58.531,62.243,72.143
55.488,58.948,56.035,54.998,55.852,57.836,49.673,57.727
55.14,49.954,55.774,47.555,55.662,57.149,45.04,49.999
54.147,47.902,55.014,46.42,54.682,56.253,45.112,47.675
52.534,47.772,53.275,43.555,52.89,54.956,42.865,43.531
51.94,48.16,52.009,40.085,51.57,54.474,38.038,39.061
53.093,51.515,52.902,42.697,52.245,55.282,38.237,40.599
54.243,54.434,54.76,47.765,54.17,55.847,44.795,46.419
53.434,50.082,54.679,44.402,54.672,54.695,46.828,46.855
51.127,42.876,52.543,35.318,53.053,52.47,40.518,40.999
49.556,40.855,50.99,31.624,51.42,51.022,34.075,37.043
49.707,40.369,50.947,32.242,51.054,50.779,30.865,36.685
50.645,29.827,50.879,23.524,50.983,50.682,22.947,29.782
50.906,10.299,49.679,4.651,49.824,50.016,11.044,13.267
49.832,-0.131,48.306,-4.899,48.219,49.216,8.519,1.958
48.311,6.352,48.223,2.675,48.28,48.957,14.17,4.616
47.21,18.83,48.563,14.927,49.192,48.693,16.252,13.772
46.303,24.833,47.502,20.594,48.029,47.694,14.546,19.642
45.324,22.433,45.279,19.908,45.057,46.256,14.685,20.041
44.676,19.41,43.542,19.774,43.104,45.101,17.068,21.014
45.201,20.325,43.584,22.071,43.643,45.119,19.782,25.155
46.469,24.884,44.911,25.272,45.401,46.049,24.506,28.702
46.605,32.523,45.494,29.95,46.053,46.314,30.046,29.269
45.529,40.362,44.915,35.884,45.378,45.984,31.943,28.878
45.497,44.249,44.872,40.071,45.102,46.57,30.914,30.369
47.02,40.856,45.647,37.261,45.656,47.501,28.167,30.121
47.685,33.833,45.579,29.552,45.65,46.996,24.129,26.075
46.255,30.461,44.216,25.269,44.401,45.582,21.817,23.889
44.176,31.088,42.623,26.205,42.639,44.843,23.423,26.366
42.817,31.609,41.464,27.862,41.265,44.794,26.063,29.415
41.972,27.459,40.767,24.961,40.665,44.424,25.604,28.109
40.802,19.031,40.355,18.829,40.657,43.031,25.194,24.729
39.295,11.017,39.909,14.045,40.742,41.044,25.359,22.571
38.175,4.584,39.303,9.426,40.57,39.359,20.927,18.734
37.993,1.47,39.233,4.898,40.73,38.409,14.909,13.766
38.061,4.736,39.527,4.057,41.086,38.078,12.308,12.22
36.555,12.622,37.966,8.338,39.287,37.524,13.278,15.898
34.047,18.847,34.768,13.821,35.775,36.604,16.071,20.884
33.323,19.446,33.418,15.723,34.541,36.352,17.274,21.803
34.354,17.267,34.349,16.286,35.432,36.829,17.042,21.348
34.954,15.995,34.629,18.814,34.883,36.922,19.197,23.383
34.549,17.482,33.308,22.396,32.876,35.956,23.699,26.405
33.96,21.983,32.041,24.824,31.819,34.525,25.096,28.562
33.844,27.471,32.066,25.676,32.234,33.742,23.187,29.544
34.114,31.961,32.729,26.772,32.679,33.734,23.537,29.716
33.995,32.933,32.624,27.072,32.039,33.7,24.681,28.082
33.468,31.322,32.009,26.654,31.29,33.604,24.499,27.009
34.158,30.741,32.806,28.389,32.266,34.447,25.037,30.089
36.056,30.574,34.753,30.664,34.179,35.429,24.766,32.787
36.154,28.23,34.989,29.386,34.272,34.189,21.86,29.584
33.685,22.143,32.868,22.674,32.108,31.377,17.822,21.111
31.613,15.313,30.602,13.828,29.629,29.728,13.773,11.091
31.183,10.579,29.404,5.532,28.105,29.464,4.267,1.162
30.069,3.899,28.077,-4.773,26.728,28.627,-13.194,-9.273
26.789,-5.189,25.353,-15.566,24.055,26.397,-26.426,-17.895
23.11,-10.564,22.193,-21.406,20.849,23.989,-27.699,-22.147
21.026,-10.272,20.118,-20.991,18.997,22.259,-25.922,-22.899
20.276,-11.27,18.686,-21.204,18.036,20.419,-31.211,-25.656
18.974,-19.766,16.398,-30.078,15.908,17.573,-42.564,-34.842
15.942,-30.835,13.021,-43.653,12.436,13.887,-52.22,-45.184
12.228,-38.166,9.591,-53.593,9.204,10.04,-58.184,-52.522
8.267,-45.103,5.803,-61.561,5.691,5.699,-65.291,-61.631
1.908,-63.685,-0.591,-80.398,-0.881,-0.514,-81.264,-80.522
-8.584,-104.907,-11.166,-123.384,-11.658,-10.061,-115.388,-118.783
-22.227,-161.03,-24.945,-184.038,-25.079,-23.281,-167.411,-174.673
-35.747,-206.766,-38.49,-233.906,-38.172,-37.227,-216.57,-222.626
-45.495,-223.927,-48.126,-250.911,-47.953,-47.495,-236.445,-237.953
-50.027,-214.487,-52.867,-240.226,-53.242,-53.054,-225.397,-226.704
-50.374,-189.167,-54.071,-216.787,-54.731,-55.182,-202.585,-206.357
-48.152,-155.556,-52.786,-183.701,-53.262,-53.911,-176.634,-177.448
-45.416,-120.713,-49.986,-142.25,-50.012,-50.322,-144.347,-138.782
-44.608,-92.472,-47.883,-104.274,-47.328,-48.143,-111.648,-103.209
-45.672,-71.772,-47.803,-79.742,-46.933,-48.824,-88.608,-80.286
-45.846,-50.648,-48.425,-61.202,-48.225,-49.467,-68.365,-61.405
-43.284,-26.584,-47.044,-38.095,-48.185,-47.226,-41.319,-37.179
-38.66,-10.387,-42.368,-18.631,-44.045,-42.651,-19.046,-17.208
-34.551,-7.327,-37.078,-13.496,-38.182,-38.855,-13.582,-12.085
-32.956,-7.78,-34.848,-16.045,-35.538,-37.725,-16.852,-14.891
-32.796,-0.868,-35.112,-12.649,-35.994,-37.687,-13.938,-12.453
-31.781,13.211,-34.891,-0.056,-35.725,-36.222,-2.551,-0.885
-29.723,20.987,-33.533,8.516,-33.698,-33.109,3.615,8.305
-28.178,15.167,-32.165,3.482,-31.619,-30.22,-2.744,4.258
-27.615,5.886,-30.876,-5.903,-30.107,-28.598,-12.077,-6.164
-26.855,3.832,-29.217,-6.898,-28.633,-27.512,-13.04,-8.825
-25.187,10.339,-27.386,2.179,-27.031,-26.432,-4.369,-0.447
-23.237,17.853,-25.526,10.891,-25.385,-25.343,3.608,7.681
-21.742,19.217,-23.611,11.289,-24.053,-23.761,4.817,7.48
-20.288,17.654,-21.529,8.35,-22.715,-21.191,4.848,4.226
-18.224,19.921,-19.108,10.848,-20.291,-18.201,9.336,5.921
-15.912,27.282,-16.667,21.997,-17.214,-15.887,19.352,15.134
-13.797,33.739,-14.643,33.981,-14.904,-14.172,29.38,24.762
-11.844,34.107,-13.054,36.549,-13.42,-12.363,31.294,26.289
-10.13,29.605,-11.574,29.929,-11.926,-10.689,24.169,21.065
-8.688,25.91,-9.891,23.534,-10.207,-9.519,18.375,17.663
-6.964,29.581,-7.891,25.067,-8.379,-8.222,23.116,21.086
-4.44,36.896,-5.455,28.274,-6.101,-6.088,28.33,23.313
-1.577,40.954,-2.607,27.478,-3.179,-3.401,24.339,20.26
1.061,44.676,0.267,30.551,-0.231,-0.74,21.61,22.146
3.339,50.227,2.487,40.183,1.873,1.337,27.794,31.178
5.104,54.344,3.787,48.477,3.162,2.487,34.195,38.077
6.737,53.871,4.955,48.811,4.467,3.581,32.663,37.668
8.599,49.197,6.479,42.96,5.887,5.358,27.764,33.59
10.173,41.976,7.885,36.023,7.178,7.293,23.903,29.338
11.223,33.743,9.249,30.302,8.931,9.125,20.332,24.398
12.466,31.358,11.317,30.676,11.363,10.992,23.051,24.125
14.557,38.807,14.141,39.245,13.79,12.783,35.538,33.234
17.049,50.47,16.911,50.476,15.965,14.496,49.811,45.231
19.133,57.3,19.178,56.461,18.362,16.296,55.841,49.751
20.891,56.724,21.21,54.991,20.958,18.349,53.761,46.54
22.967,59.866,23.383,56.903,23.2,20.93,54.95,48.617
25.809,73.084,25.993,68.49,25.364,24.069,62.944,60.662
29.091,84.922,28.59,79.359,27.777,26.817,70.489,71.364
31.957,83.836,30.301,78.841,29.848,28.268,71.965,71.069
34.141,75.584,31.666,71.674,31.705,29.109,68.272,63.708
36.172,76.906,34.116,74.192,34.365,30.914,70.158,65.627
38.854,88.256,37.717,87.483,37.685,34.33,83.435,81.107
42.53,93.159,41.308,93.764,40.69,38.375,94.677,90.868
46.523,84.197,44.43,83.634,43.715,41.91,87.305,80.488
49.512,72.226,47.087,68.718,47.04,44.544,68.972,63.224
51.011,73.32,48.89,67.361,49.395,46.042,63.988,60.584
52.03,83.461,50.053,76.359,50.382,46.711,73.486,67.596
52.941,85.185,50.812,78.742,50.592,47.216,78.701,68.089
53.243,76.269,51.102,72.971,50.455,47.961,74.034,64.479
53.63,68.403,51.821,69.18,51.09,49.146,69.426,64.589
54.8,70.151,53.152,72.483,52.633,50.364,71.47,67.9
55.606,76.396,53.4,75.905,53.155,50.76,72.525,68.742
54.504,79.753,51.711,74.922,51.562,49.741,71.202,67.303
52.026,81.951,49.671,76.129,49.323,47.782,77.585,70.447
50.459,83.143,49.197,79.601,48.518,46.392,86.541,75.138
50.847,79.928,50.294,77.674,49.486,46.506,84.059,72.013
51.475,69.877,51.28,67.717,50.531,47.411,70.409,60.877
49.853,54.767,50.253,55.661,49.49,47.208,55.498,49.39
46.124,37.901,47.307,43.596,46.702,45.032,39.121,37.311
42.356,18.155,44.216,23.951,44.137,41.957,15.128,17.263
38.95,-1.923,41.365,-0.489,41.502,38.986,-7.866,-4.529
35.359,-17.588,38.076,-17.964,37.785,36.193,-17.512,-16.977
31.709,-26.914,34.186,-24.597,33.625,32.978,-14.357,-20.231
27.891,-30.183,29.492,-26.727,29.34,28.639,-10.181,-21.036
23.607,-36.767,23.919,-38.152,24.362,23.147,-20.97,-31.395
18.821,-55.124,18.168,-62.974,18.79,17.238,-48.138,-56.141
13.653,-77.75,13.146,-87.234,13.481,12.364,-73.66,-80.804
8.396,-87.979,8.968,-95.232,9.009,9.036,-80.846,-87.362
3.456,-82.178,5.274,-88.438,5.4,5.958,-74.284,-78.657
-1.161,-79.15,1.535,-86.145,1.775,2.167,-73.159,-76.204
-5.848,-91.895,-3.176,-98.475,-3.258,-2.339,-83.966,-88.302
-10.456,-108.117,-8.71,-113.418,-9.068,-7.472,-96.411,-101.695
-14.687,-111.473,-13.605,-116.495,-13.659,-12.819,-100.177,-104.888
-18.96,-104.709,-17.633,-109.773,-17.503,-17.752,-97.215,-100.679
-23.829,-104.573,-22.376,-109.519,-22.761,-22.514,-100.247,-101.074
-29.677,-116.846,-28.973,-123.844,-29.57,-28.354,-115.057,-113.435
-36.322,-130.419,-36.712,-143.425,-36.306,-35.89,-134.183,-132.794
-42.798,-136.139,-44.086,-156.46,-42.448,-44.041,-147.765,-147.537
-48.872,-139.855,-50.622,-164.053,-48.871,-51.218,-155.02,-154.666
-55.328,-153.707,-57.085,-177.925,-55.987,-57.327,-164.553,-165.929
-61.726,-173.489,-63.571,-197.268,-62.811,-63.018,-177.676,-183.777
-66.719,-180.129,-68.83,-202.964,-68.069,-67.572,-182.252,-189.912
-70.493,-166.696,-72.387,-185.653,-71.921,-70.53,-170.54,-173.943
-73.102,-147.008,-74.677,-161.298,-74.747,-72.691,-151.548,-150.999
-73.574,-135.632,-75.779,-147.802,-76.03,-74.022,-137.233,-138.655
-72.948,-129.451,-76.077,-141.432,-76.089,-74.31,-127.264,-133.145
-73.047,-118.684,-76.071,-131.379,-75.84,-74.317,-116.995,-124.35
-73.713,-105.067,-75.931,-118.894,-75.552,-74.682,-107.148,-115.092
-74.544,-98.586,-76.234,-112.134,-75.68,-75.774,-101.843,-111.508
-76.122,-102.476,-77.584,-113.306,-77.003,-77.824,-101.959,-111.07
-78.337,-107.037,-79.364,-113.885,-79.087,-80.04,-102.492,-107.824
-79.978,-105.512,-80.12,-109.088,-80.186,-81.087,-101.582,-103.968
-80.679,-102.529,-79.832,-104.636,-79.814,-81.127,-102.177,-104.049
-81.115,-100.718,-80.066,-102.56,-79.665,-81.466,-101.905,-102.954
-81.281,-96.12,-81.258,-96.754,-80.952,-81.955,-91.875,-92.349
-80.79,-87.306,-82.012,-84.937,-82.372,-81.414,-73.079,-74.838
-80.035,-84.344,-81.305,-80.336,-81.855,-80.348,-65.104,-67.863
-79.814,-94.925,-80.082,-93.483,-80.02,-80.477,-76.85,-80.562
-80.282,-106.49,-79.758,-110.038,-79.207,-81.832,-91.06,-97.645
-81.092,-104.587,-80.153,-111.881,-79.56,-82.878,-93.15,-103.041
-82.382,-95.364,-80.691,-102.776,-79.95,-83.201,-87.502,-98.556
-84.329,-97.228,-81.993,-101.558,-80.958,-83.57,-86.821,-97.745
-86.432,-113.343,-84.535,-114.786,-83.528,-84.485,-94.757,-106.863
-88.109,-127.005,-87.3,-128.741,-86.594,-86.479,-103.696,-116.968
-89.613,-130.05,-89.357,-133.921,-88.744,-89.722,-110.179,-123.357
-91.848,-130.22,-91.231,-134.361,-90.468,-93.021,-116.358,-129.156
-94.681,-133.636,-93.289,-135.708,-92.462,-95.232,-121.24,-131.922
-96.923,-137.773,-94.883,-137.26,-94.301,-96.521,-121.007,-128.371
-98.202,-138.682,-95.798,-136.659,-95.681,-97.362,-119.597,-124.735
-99.26,-138.64,-96.854,-138.198,-96.896,-98.253,-125.857,-129.64
-100.753,-139.947,-98.824,-143.177,-98.445,-99.991,-134.725,-137.845
-102.261,-140.296,-101.363,-145.257,-100.508,-102.264,-137.871,-138.42
-103.39,-137.861,-103.734,-141.393,-102.924,-103.788,-139.256,-132.274
-105.2,-135.644,-105.999,-136.614,-105.672,-104.699,-142.324,-128.473
-108.302,-139.311,-108.5,-138.237,-108.682,-106.326,-144.053,-131.785
-111.107,-145.985,-110.716,-143.002,-111.272,-108.816,-140.958,-135.422
-111.92,-146.668,-111.687,-141.999,-112.516,-111.178,-134.251,-133.556
-111.578,-139.918,-111.67,-135.787,-112.541,-112.986,-127.961,-131.399
-112.632,-132.953,-112.123,-130.55,-112.698,-114.178,-123.834,-131.367
-115.735,-132.268,-113.641,-128.781,-113.802,-114.533,-122.798,-129.37
-118.132,-134.419,-114.937,-127.621,-114.781,-114.57,-124.975,-125.04
-117.185,-134.584,-114.611,-126.776,-114.094,-115.117,-131.847,-124.265
-114.318,-136.426,-113.622,-130.614,-112.612,-116.1,-143.24,-129.98
-113.443,-144.161,-114.466,-139.986,-113.409,-116.937,-149.794,-136.619
-116.118,-155.621,-117.718,-151.212,-117.396,-117.7,-146.549,-140.175
-120.007,-161.441,-121.148,-156.877,-121.365,-119.149,-143.796,-141.606
-121.839,-154.658,-122.457,-152.136,-122.317,-120.748,-147.529,-141.169
-120.928,-139.862,-121.714,-140.798,-121.303,-120.687,-146.863,-137.08
-119.342,-127.59,-120.565,-129.554,-120.712,-119.183,-135.969,-128.609
-118.669,-124.24,-119.503,-121.539,-120.047,-118.092,-124.201,-119.021
-117.777,-123.859,-117.464,-113.002,-117.474,-117.198,-113.973,-109.414
-115.259,-118.432,-114.563,-102.569,-114.076,-115.253,-100.037,-99.287
-112.708,-110.794,-112.799,-96.241,-112.526,-113.224,-86.721,-91.951
-112.137,-105.545,-112.603,-95.087,-112.279,-112.354,-83.121,-89.109
-112.01,-100.087,-112.041,-92.666,-111.147,-111.485,-86.266,-86.75
-109.96,-89.002,-110.238,-83.361,-109.582,-109.148,-80.427,-78.287
-106.927,-77.787,-107.924,-72.313,-108.275,-106.017,-63.89,-67.118
-105.086,-78.568,-105.617,-70.357,-106.107,-103.906,-56.731,-64.82
-103.99,-89.606,-103.485,-78.103,-103.081,-103.01,-68.719,-71.536
-101.934,-97.146,-101.74,-86.418,-100.659,-101.964,-82.161,-77.598
-98.945,-90.697,-100.138,-84.618,-98.924,-100.317,-77.291,-75.517
-95.791,-76.068,-97.682,-73.43,-96.414,-98.163,-62.433,-66.618
-92.412,-67.36,-94.378,-64.223,-93.406,-95.155,-55.414,-59.821
-88.759,-64.637,-91.66,-59.759,-91.65,-91.788,-54.412,-57.973
-85.655,-59.386,-89.747,-54.844,-90.36,-89.22,-51.175,-54.359
-84.053,-50.162,-87.525,-47.406,-87.661,-87.466,-45.805,-44.942
-83.747,-45.207,-85.056,-43.058,-84.529,-85.63,-42.802,-38.394
-83.137,-50.788,-83.092,-47.909,-82.556,-83.514,-45.125,-43.802
-80.369,-58.737,-80.833,-57.024,-80.455,-81.234,-54.044,-55.059
-76.032,-59.551,-77.737,-61.736,-77.22,-78.888,-65.358,-60.605
-73.424,-55.809,-75.707,-58.928,-75.19,-77.068,-65.814,-55.754
-73.726,-56.087,-75.667,-54.066,-75.54,-75.72,-54.464,-47.225
-74.361,-59.813,-75.666,-52.833,-75.734,-74.404,-45.116,-43.275
-73.295,-55.906,-74.162,-49.538,-73.818,-73.441,-40.664,-40.492
-71.254,-46.008,-71.717,-41.751,-70.835,-72.753,-36.565,-36.6
-69.519,-44.064,-69.551,-37.755,-68.479,-71.541,-34.66,-35.891
-67.856,-50.247,-67.936,-40.851,-66.777,-69.546,-38.783,-38.124
-65.854,-50.254,-66.559,-42.781,-65.552,-67.297,-43.795,-38.498
-64.574,-41.788,-65.692,-38.604,-65.602,-65.451,-40.891,-35.966
-64.868,-41.37,-65.611,-38.215,-66.532,-64.533,-34.726,-36.19
-65.402,-52.123,-65.494,-45.085,-66.6,-64.466,-33.09,-40.091
-63.874,-57.172,-63.808,-47.055,-64.701,-63.855,-32.925,-41.934
-60.719,-50.032,-60.751,-37.878,-61.496,-61.817,-29.763,-38.043
-59.656,-42.653,-59.242,-27.347,-59.568,-60.129,-27.071,-31.161
-62.007,-47.875,-60.792,-31.392,-60.552,-60.635,-32.692,-33.106
-63.879,-59.157,-62.608,-47.824,-62.208,-61.868,-47.149,-45.951
-62.289,-60.64,-61.903,-56.868,-61.675,-61.093,-61.651,-53.083
-59.73,-54.643,-60.048,-52.207,-59.97,-58.776,-62.389,-46.085
-59.058,-53.103,-59.216,-45.562,-59.194,-57.802,-47.53,-36.846
-59.081,-54.976,-58.865,-44.051,-58.859,-58.632,-38.656,-37.738
-58.401,-50.474,-58.003,-40.919,-58.037,-59.071,-44.19,-43.256
-57.91,-40.991,-56.94,-33.45,-56.962,-58.21,-45.163,-42.64
-58.19,-36.875,-56.273,-29.648,-56.212,-57.284,-33.478,-36.67
-58.209,-38.596,-55.826,-31.234,-55.863,-56.807,-23.297,-31.068
-56.786,-38.876,-54.87,-32.126,-55.232,-55.793,-25.427,-28.924
-54.424,-33.35,-53.686,-27.702,-54.38,-54.389,-30.604,-27.512
-52.677,-27.241,-52.959,-22.376,-53.853,-53.748,-27.591,-25.184
-51.712,-30.943,-51.99,-25.834,-52.812,-53.499,-22.157,-27.181
-50.035,-43.904,-49.842,-38.071,-50.237,-52.258,-25.999,-35.486
-47.076,-55.394,-47.072,-50.745,-46.975,-49.722,-39.285,-46.138
-44.424,-55.052,-45.002,-54.901,-44.879,-47.077,-47.352,-52.116
-43.367,-43.6,-43.912,-48.9,-44.237,-45.684,-41.55,-49.499
-43.742,-35.13,-43.342,-41.017,-43.773,-45.981,-30.705,-42.132
-45.031,-38.801,-43.453,-37.47,-43.21,-47.167,-25.272,-35.742
-46.038,-47.357,-44.31,-37.805,-43.457,-47.688,-27.779,-34.914
-45.707,-47.355,-45.031,-36.932,-44.47,-46.844,-30.549,-36.285
-44.888,-38.379,-44.966,-31.59,-45.044,-45.292,-25.513,-31.395
-44.809,-29.962,-44.625,-23.564,-44.679,-44.221,-17.803,-21.686
-44.692,-21.654,-44.174,-13.068,-43.686,-44.195,-15.099,-14.518
-43.529,-9.709,-43.075,-0.793,-42.45,-44.262,-12.308,-9.847
-42.369,1.832,-41.978,10.468,-41.789,-43.433,-1.968,-1.44
-41.986,7.471,-41.721,15.906,-41.832,-42.349,6.112,6.905
-41.559,6.777,-41.622,12.056,-41.648,-42.014,2.426,5.153
-40.685,3.971,-40.744,5.014,-40.789,-41.826,-0.943,-2.052
-39.854,1.477,-39.284,2.915,-39.576,-40.804,6.827,-3.099
-39.649,1.404,-38.439,7.722,-38.834,-39.949,18.67,4.146
-39.594,4.9,-38.427,13.644,-38.822,-40.044,21.935,11.041
-38.409,8.581,-38.01,12.641,-38.409,-39.711,14.172,9.016
-36.179,9.87,-36.773,5.852,-36.715,-38.373,3.684,1.075
-34.147,6.404,-35.179,-1.207,-34.163,-37.049,-2.839,-5.603
-32.985,-2.514,-33.486,-5.363,-31.906,-36.076,-2.469,-7.688
-32.437,-12.848,-32.019,-7.458,-30.687,-34.938,0.213,-7.773
-31.916,-18.14,-31.123,-9.501,-30.092,-33.705,-3.091,-9.978
-31.452,-14.348,-31.028,-9.257,-29.956,-33.231,-8.478,-12.041
-31.889,-9.447,-31.941,-8.785,-31.085,-33.939,-9.347,-13.775
-33.523,-13.627,-33.506,-12.835,-33.09,-35.325,-9.708,-17.948
-34.609,-22.8,-34.026,-18.802,-33.583,-35.947,-13.88,-22.651
-33.409,-26.729,-32.299,-21.041,-31.787,-34.473,-15.66,-24.847
-31.16,-26.485,-30.007,-21.399,-30.256,-31.818,-12.067,-25.61
-29.75,-32.908,-29.08,-29.442,-30.097,-30.202,-16.66,-30.585
-29.195,-42.721,-29.171,-41.802,-29.753,-30.394,-32.475,-37.618
-28.869,-40.71,-29.445,-42.521,-29.325,-31.164,-39.219,-36.692
-28.617,-26.3,-29.815,-29.08,-30.056,-31.255,-27.613,-27.484
-28.937,-12.996,-30.343,-13.994,-31.261,-30.921,-13.345,-17.45
-29.807,-10.383,-30.456,-8.816,-31.186,-30.586,-9.021,-11.544
-29.795,-14.013,-29.425,-12.726,-29.485,-30.256,-8.515,-11.68
-27.977,-17.148,-27.409,-18.086,-27.138,-29.986,-10.001,-18.657
-25.554,-21.95,-25.46,-21.496,-25.119,-29.422,-20.798,-27.631
-24.135,-27.789,-24.812,-22.725,-24.432,-28.469,-33.862,-30.337
-23.701,-30.25,-25.453,-24.414,-25.195,-27.838,-35.855,-29.387
-23.586,-29.065,-26.01,-27.836,-25.912,-27.879,-29.052,-30.765
-23.651,-28.485,-25.777,-32.24,-25.708,-27.92,-27.087,-32.778
-23.871,-31.965,-25.426,-38.646,-25.422,-27.618,-33.114,-34.158
-23.857,-35.42,-25.246,-44.849,-25.409,-27.678,-36.405,-36.939
-23.048,-34.77,-24.681,-47.586,-24.897,-28.291,-34.142,-42.445
-21.759,-30.835,-23.997,-45.178,-24.125,-28.501,-32.542,-45.507
-21.085,-27.356,-23.944,-39.637,-24.069,-27.358,-34.329,-40.779
-21.357,-28.08,-24.11,-36.288,-24.287,-25.426,-36.508,-33.308
-21.533,-28.719,-23.189,-34.387,-23.215,-24.282,-34.739,-31.509
-20.983,-25.568,-21.07,-32.465,-20.982,-24.124,-31.366,-37.124
-20.83,-24.386,-19.846,-33.914,-20.141,-24.144,-29.798,-43.353
-21.199,-30.131,-20.579,-40.272,-21.366,-23.927,-32.086,-46.697
-20.846,-37.287,-21.682,-46.184,-22.437,-23.327,-38.262,-48.866
-20.606,-35.737,-22.236,-42.865,-22.776,-22.787,-38.164,-44.648
-21.63,-27.229,-22.647,-31.622,-23.168,-22.458,-27.761,-32.401
-22.424,-21.39,-22.681,-21.084,-23.038,-21.465,-19.301,-20.242
-21.838,-21.455,-22.07,-15.58,-22.123,-19.886,-19.958,-14.096
-21.209,-23.733,-21.424,-13.927,-21.284,-19.265,-21.603,-12.861
-21.432,-21.877,-20.908,-10.906,-20.553,-19.995,-16.736,-11.388
-21.808,-15.711,-20.064,-5.444,-19.714,-20.448,-10.295,-8.784
-21.826,-8.318,-19.002,-0.006,-19.275,-19.384,-7.859,-7.103
-21.217,1.156,-17.857,4.863,-18.802,-17.613,-6.596,-6.803
-20.602,9.259,-17.038,8.091,-17.935,-17.11,-1.843,-6.876
-21.26,7.415,-17.325,9.046,-17.599,-18.245,4.609,-3.675
-22.003,-5.618,-17.788,7.615,-17.453,-18.688,6.432,2.867
-20.547,-16.766,-16.568,7.143,-15.944,-16.647,5.021,9.272
-17.75,-15.872,-13.976,9.959,-13.247,-13.608,4.793,11.97
-16.433,-9.072,-12.619,12.031,-11.953,-12.258,6.35,10.823
-17.112,-1.801,-13.804,14.057,-13.735,-12.628,11.565,13.284
-17.816,5.95,-15.584,18.191,-16.287,-12.932,16.866,19.122
-17.476,10.744,-15.897,20.4,-16.594,-13.228,17.629,19.368
-16.645,9.284,-14.769,17.707,-14.895,-13.947,17.556,14.47
-15.875,4.887,-13.201,13.29,-13.193,-13.714,18.505,12.192
-15.097,1.583,-11.956,11.031,-12.3,-11.905,15.927,14.313
-14.113,-6.535,-11.054,6.331,-11.387,-10.097,6.715,12.305
-13.382,-19.321,-10.448,-2.533,-10.192,-9.797,-4.389,2.179
-13.18,-23.296,-10.199,-7.973,-9.537,-10.359,-10.124,-7.767
-12.913,-17.449,-9.87,-7.379,-9.244,-10.268,-7.312,-9.893
-12.328,-15.184,-9.112,-4.808,-8.449,-9.289,-0.754,-5.485
-11.998,-21.759,-8.613,-6.311,-7.872,-8.26,-2.872,-4.575
-12.37,-27.169,-9.224,-11.152,-8.841,-8.002,-12.522,-10.112
-12.56,-23.562,-9.941,-10.424,-10.175,-7.966,-14.083,-11.11
-11.688,-17.021,-9.362,-3.041,-9.904,-7.178,-5.631,-3.234
-10.793,-12.503,-8.298,2.782,-8.713,-6.725,0.012,3.874
-10.586,-7.422,-7.972,2.056,-8.151,-7.824,-1.898,1.943
-9.974,0.254,-7.933,1.44,-8.098,-9.13,0.71,-0.786
-8.418,8.171,-7.191,9.066,-7.415,-8.657,14.235,8.11
-7.092,11.689,-6.075,19.138,-6.195,-6.67,24.965,21.887
-6.859,9.573,-5.52,20.338,-5.612,-5.004,20.937,23.75
-6.838,4.108,-4.968,11.395,-5.206,-4.284,7.798,10.704
-6.413,1.159,-3.936,5.039,-4.171,-3.923,1.915,-0.235
-6.176,2.778,-3.515,8.806,-3.491,-3.63,7.8,1.974
-6.147,2.897,-4.073,12.432,-3.793,-3.285,11.212,4.939
-5.634,1.675,-4.454,10.974,-4.281,-2.473,6.015,2.564
-4.436,4.343,-3.9,12.212,-4.08,-0.976,2.969,6.761
-3.211,10.488,-2.918,20.135,-3.109,0.525,10.778,21.22
-2.753,14.19,-2.135,27.96,-2.046,1.251,23.005,32.88
-2.892,10.741,-1.33,27.343,-1.274,1.578,27.469,31.895
-2.361,5.034,0.266,20.384,0.192,2.572,22.104,23.764
-0.48,2.75,2.692,12.698,3.034,4.35,11.983,15.4
1.243,2.256,4.313,8.437,5.153,5.665,5.408,9.917
1.232,0.243,4.076,8.737,4.587,5.823,7.148,9.005
0.455,-2.476,3.608,9.445,3.383,5.68,12.288,10.267
0.815,-0.026,4.738,11.51,4.469,6.297,17.15,13.872
2.417,6.755,6.606,16.595,6.956,7.717,21.004,19.851
3.788,10.602,6.989,20.222,7.493,8.885,23.072,24.334
4.526,10.463,6.059,19.563,5.759,9.207,22.374,24.703
5.661,11.611,6.144,17.265,5.137,9.372,17.858,21.661
7.12,19.033,7.53,19.741,6.708,10.006,15.374,21.491
7.504,25.791,8.245,25.861,7.841,10.868,19.545,26.884
6.227,21.379,7.652,28.631,7.615,10.857,24.949,32.223
4.755,12.861,7.215,29.056,8.088,9.482,26.314,33.749
4.924,13.561,7.623,31.472,9.392,8.233,26.237,32.816
6.22,21.118,7.724,33.879,9.063,8.384,28.044,31.696
6.78,22.244,7.131,29.258,7.343,8.821,26.252,27.968
5.838,15.078,6.646,17.944,6.817,7.825,16.4,19.631
4.281,8.501,6.265,7.475,7.228,6.085,3.412,9.863
3.809,5.023,5.542,0.577,6.464,5.752,-4.773,1.865
4.86,3.536,4.87,-1.918,4.741,6.83,-4.01,-1.575
5.769,1.245,4.68,-2.264,3.776,7.352,-1.96,-2.561
5.176,-5.28,4.537,-6.477,3.748,6.636,-8.169,-6.497
4.411,-13.347,4.566,-15.224,4.101,6.275,-19.701,-13.477
5.197,-19.311,5.185,-24.16,4.767,6.818,-28.173,-20.672
6.473,-22.049,4.937,-29.487,4.838,6.007,-31.416,-25.96
6.32,-22.795,2.507,-33.332,3.147,3.13,-35.716,-30.527
4.855,-23.287,-0.288,-37.887,0.525,0.707,-41.437,-35.157
3.779,-22.089,-0.653,-38.139,-0.449,0.368,-40.535,-35.747
3.745,-17.065,0.736,-30.311,0.467,0.97,-31.877,-29.055
3.43,-9.729,0.624,-19.641,-0.033,0.683,-21.075,-18.551
2.017,-8.138,-1.363,-17.117,-2.732,-0.731,-15.557,-14.228
0.376,-15.352,-2.618,-23.571,-4.297,-2.206,-16.507,-18.623
-0.044,-21.681,-1.806,-27.891,-2.946,-2.777,-16.928,-22.905
0.728,-21.277,-0.551,-25.915,-0.833,-2.675,-16.139,-22.556
0.202,-18.976,-1.602,-22.689,-1.308,-3.838,-19.328,-20.351
-2.53,-18.688,-4.835,-22.58,-4.62,-6.848,-26.399,-20.284
-4.603,-15.437,-7.126,-22.349,-7.561,-8.763,-29.162,-20.151
-4.287,-6.172,-7.12,-16.986,-8.111,-7.577,-22.65,-14.959
-3.602,-0.75,-6.728,-11.058,-7.531,-5.601,-15.128,-9.344
-4.327,-5.473,-7.408,-9.682,-7.453,-5.294,-14.08,-8.237
-5.767,-12.125,-8.384,-9.382,-7.973,-5.869,-13.535,-6.026
-7.373,-11.303,-9.208,-4.143,-8.997,-6.587,-4.644,3.46
-9.047,-6.333,-10.076,2.887,-10.036,-8.029,5.14,12.598
-9.872,-7.415,-10.251,2.44,-9.825,-9.378,2.568,10.005
-9.518,-11.894,-9.33,-1.274,-8.657,-8.984,-3.991,4.067
-8.364,-7.479,-8.068,2.908,-8.091,-6.946,0.735,8.185
-7.029,9.04,-7.556,14.254,-8.533,-5.525,13.342,17.831
-6.747,25.74,-8.367,22.247,-9.396,-6.243,18.523,21.945
-7.621,29.143,-9.488,20.121,-9.787,-7.73,10.19,17.716
-7.955,23.543,-9.297,14.288,-8.984,-8.495,0.805,11.165
-6.927,19.635,-8.316,12.326,-8.12,-8.53,2.64,9.12
-6.151,17.555,-8.746,13.091,-9.369,-7.894,11.258,13.223
-7.43,15.34,-10.908,13.207,-12.17,-7.52,14.459,18.482
-10.004,15.48,-12.654,12.476,-13.509,-8.928,11.562,19.857
-11.3,18.383,-12.049,14.85,-11.772,-10.749,12.647,20.652
-10.142,18.356,-9.555,19.611,-8.46,-10.037,15.527,21.777
-8.037,16.181,-7.694,22.987,-6.868,-7.55,14.44,20.732
-6.473,20.089,-7.459,27.042,-7.732,-6.064,17.094,23.072
-5.093,30.243,-7.165,34.767,-8.252,-5.37,28.092,34.071
-3.917,42.062,-6.24,45.822,-7.431,-4.168,41.224,47.84
-3.96,50.717,-5.805,54.495,-6.82,-3.17,48.622,53.059
-4.703,52.582,-5.502,57.868,-6.212,-2.807,49.474,51.625
-4.065,50.033,-3.68,60.779,-4.077,-1.289,48.108,54.652
-1.548,47.261,-0.438,64.199,-1.043,2.467,47.609,60.65
0.881,46.238,2.175,64.459,0.812,6.24,50.782,62.373
2.077,45.486,3.268,59.568,1.718,7.338,54.433,58.641
3.789,48.75,4.416,55.798,4.106,6.549,54.721,55.102
7.808,63.345,7.079,61.563,8.3,7.16,56.326,58.806
12.607,82.264,10.064,72.03,11.132,10.216,64.166,67.677
15.41,92.193,11.582,78.465,11.17,13.187,75.757,75.828
16.307,92.159,12.522,80.946,11.755,14.407,82.468,80.771
17.152,94.152,14.603,87.218,15.025,15.352,85.397,85.56
18.678,103.449,17.688,99.648,18.822,17.688,93.055,94.504
20.608,107.031,20.724,105.978,21.496,20.871,99.611,101.167
22.455,98.252,22.954,98.585,23.583,23.111,94.3,95.404
24.101,85.879,24.427,83.909,25.521,23.991,79.651,78.567
25.755,77.896,25.648,72.331,26.958,24.749,68.854,64.97
27.433,75.998,26.5,68.559,27.255,26.089,67.715,63.809
29.161,75.468,26.816,66.158,26.631,27.527,66.834,65.176
30.939,71.669,27.545,59.681,26.826,28.927,58.729,58.587
32.428,63.843,29.423,50.504,28.921,30.977,45.262,46.091
33.091,55.126,31.185,43.041,31.241,33.306,33.833,36.246
32.674,49.255,31.296,40.806,31.75,34.223,29.472,34.234
31.36,44.468,30.345,40.305,30.963,33.356,28.183,34.736
29.857,43.557,30.116,41.694,30.586,32.769,29.56,35.12
29.62,52.4,31.318,49.627,31.097,34.257,38.359,40.691
31.47,66.588,33.211,61.543,32.013,36.571,52.495,52.609
34.678,85.471,35.562,81.187,33.793,38.049,72.424,73.566
38.629,127.776,39.38,130.737,37.667,40.172,115.299,119.892
43.43,196.768,44.888,210.594,43.418,45.088,182.709,192.247
48.125,246.52,50.147,265.659,48.709,51.307,229.928,243.725
50.448,240.899,52.468,255.196,51.041,54.479,223.712,235.991
49.726,199.326,51.609,204.87,50.581,53.307,182.662,188.598
47.916,146.554,50.06,146.487,49.662,51.298,132.029,132.201
47.255,92.695,49.708,90.767,49.695,51.333,84.096,81.136
48.653,54.344,50.51,53.231,50.642,53.115,51.416,49.201
50.975,43.617,51.43,44.79,51.556,54.987,41.469,43.077
52.241,47.59,51.723,49.381,51.629,55.756,42.976,47.961
52.079,40.793,51.651,40.343,51.468,55.492,35.405,40.533
51.291,23.566,51.254,20.133,51.371,54.518,18.921,21.506
50.546,17.32,50.132,11.061,50.384,53.406,8.76,11.003
50.109,27.318,48.769,18.32,48.645,53.048,10.798,16.659
49.936,39.489,48.297,28.985,48.066,53.116,19.389,27.516
49.774,40.742,48.601,30.598,48.975,52.734,24.313,29.785
49,31.98,47.96,23.583,48.659,51.77,20.062,22.734
47.489,19.789,45.877,13.704,46.121,50.179,7.443,12.399
46.023,8.875,44.166,4.866,44.149,48.225,-5.492,2.816
45.388,5.171,44.048,2.292,44.252,47.359,-8.029,-0.73
45.81,10.832,44.561,7.194,44.701,48.091,-1.186,3.012
46.656,21.944,44.694,15.99,44.53,48.376,7.654,10.291
46.881,30.797,44.903,23.826,44.734,47.205,14.785,16.549
46.386,35.55,45.746,30.711,45.671,46.611,20.781,22.042
46.655,43.89,47.086,40.599,46.917,48.267,27.185,30.956
48.421,55.379,48.115,48.649,47.923,50.629,32.395,39.337
49.679,60.661,47.923,48.743,47.982,50.921,35.896,41.708
49.067,57.063,47.295,43.933,47.544,49.337,36.589,39.435
48.298,54.109,47.587,43.838,47.552,48.431,36.099,38.135
49.609,67.513,49.087,61.912,48.411,49.874,47.363,50.022
53.02,100.783,51.847,100.695,50.658,53.469,77.809,81.589
55.792,130.634,54.612,134.915,53.439,56.665,105.668,112.755
55.652,126.512,55.307,130.613,54.745,57.083,99.595,111.465
53.973,96.601,54.452,96.19,54.505,55.944,69.683,82.033
53.33,74.058,54.155,69.631,54.186,55.625,49.565,57.547
53.848,60.358,54.529,54.608,54.331,55.995,38.434,42.782
54.23,43.647,54.448,36.914,54.434,55.911,23.469,26.452
54.566,32.582,54.212,24.854,54.447,55.907,13.883,16.419
55.365,32.92,54.63,26.658,54.818,56.729,16.413,18.602
55.843,33.01,55.256,29.501,55.364,57.468,18.429,19.981
55.141,23.17,55.123,19.858,55.251,57.061,8.923,9.75
53.493,12.173,53.92,6.016,54.033,55.63,-3.963,-3.28
52.215,10.399,52.356,-0.166,52.59,54.051,-11.269,-9.861
52.523,11.303,51.552,-2.695,52.188,53.318,-15.422,-13.929
54.02,5.17,52.066,-7.883,53.031,53.708,-19.854,-18.323
54.824,-5.312,53.012,-14.724,53.916,53.834,-24.842,-21.709
53.663,-10.474,52.644,-18.297,53.121,52.336,-26.387,-22.905
51.583,-12.232,50.912,-19.823,50.818,50.476,-24.875,-23.443
49.865,-20.019,49.27,-25.312,48.948,49.653,-27.19,-26.869
48.138,-30.341,48.271,-32.711,48.361,48.914,-33.466,-33.051
46.226,-33.042,47.44,-35.31,47.98,47.625,-36.459,-38.253
44.974,-24.945,46.586,-29.054,46.811,46.844,-30.556,-35.159
44.817,-12.329,46.201,-17.451,45.798,47.149,-20.665,-22.403
44.919,-5.47,46.179,-10.44,45.762,47.312,-15.859,-12.127
44.591,-8.702,45.948,-13.65,46.049,46.425,-17.86,-14.878
44.654,-16.831,45.823,-22.92,46.426,45.721,-23.416,-26.06
45.523,-17.668,45.923,-25.316,46.61,46.053,-24.068,-29.402
46.182,-7.083,45.704,-14.948,45.941,46.155,-14.886,-17.558
46.252,5.016,45.294,-1.722,45.014,45.24,-4.052,-2.001
46.525,10.966,45.217,5.191,44.72,44.783,0.534,5.878
47.136,13.378,45.335,7.397,44.782,45.682,2.508,7.787
47.178,19.468,45.354,12.477,44.928,46.187,8.945,11.722
46.383,29.234,45.368,21.91,45.224,45.076,17.847,18.663
45.53,35.547,45.169,28.622,45.01,43.469,23.681,22.388
45.656,35.994,44.892,27.551,44.447,42.708,24.587,20.118
47.259,32.903,45.604,20.09,45.288,43.215,19.361,14.429
49.25,29.411,47.353,12.506,47.619,44.492,11.329,9.854
50.07,24.882,48.721,6.39,49.365,45.677,4.815,5.584
49.658,18.819,48.805,0.467,49.321,46.456,1.478,-0.135
48.973,16.684,48.28,0.028,48.238,47.069,2.902,-1.241
48.675,18.173,48.503,6.087,47.957,47.633,6.405,4.181
48.716,18.053,49.561,12.814,49.176,47.8,9.36,10.846
48.688,17.551,50.07,17.362,50.124,47.58,13.071,16.081
48.29,23.012,49.311,22.984,49.296,47.432,19.956,21.662
48.128,34.924,48.676,32.723,48.29,47.769,29.96,29.299
49.096,41.13,49.602,39.685,49.096,48.963,36.813,34.908
50.389,35.047,51.013,37.602,50.545,50.456,35.578,34.42
50.942,26.797,51.554,31.31,51.044,51.112,28.712,29.99
51.612,28.61,52.103,30.979,51.495,51.234,26.641,29.283
53.398,41.03,53.704,40.612,52.917,52.27,36.807,37.842
55.188,50.939,55.203,48.988,54.237,53.93,47.66,47.007
55.288,48.832,55.093,46.404,54.294,54.254,45.838,45.705
54.532,39.99,54.501,39.006,54.304,53.567,36.494,37.617
54.549,36.065,54.973,37.734,55.299,53.841,32.875,34.445
54.604,42.113,55.687,44.441,55.976,54.861,36.896,39.094
53.679,49.339,55.632,49.681,55.533,55.312,39.195,42.809
52.595,51.275,55.015,50.732,54.481,54.947,39.774,43.656
52.363,52.793,54.174,54.699,53.179,53.962,45.412,47.05
52.526,56.213,53.271,61.318,52.078,52.345,53.857,51.548
52.16,56.715,52.549,63.306,51.733,50.475,57.753,53.13
51.149,49.588,52.035,56.78,51.949,49.198,52.837,50.601
49.711,38.705,51.4,45.998,51.913,48.665,42.836,45.27
48.748,30.506,50.869,34.432,51.454,48.531,33.346,35.739
49.194,25.782,50.835,21.228,50.997,48.596,25.269,20.627
49.736,24.497,50.546,10.048,50.452,48.138,18.006,8.151
48.536,25.515,49.217,4.733,49.358,46.431,12.044,4.779
46.549,27.495,47.614,6.562,47.733,44.562,11.515,7.829
45.929,29.383,46.924,13.924,46.392,44.316,16.388,13.05
46.329,29.055,46.796,21.219,45.761,44.857,21.38,19.235
46.17,28.477,46.418,27.203,45.267,44.565,26.83,27.552
45.614,30.986,46.122,33.755,44.732,44.325,33.677,34.662
45.201,35.565,46.069,39.601,44.669,44.725,38.94,36.745
44.823,37.264,45.909,41.157,45.284,44.76,40.823,37.25
44.689,37.086,45.677,41.404,45.863,44.482,43.166,42.776
44.815,44.585,45.378,49.805,45.552,44.599,50.355,54.295
44.734,59.353,44.967,64.306,44.711,45.012,58.901,64.662
44.317,68.7,44.776,72.439,44.312,45.509,64.556,69.15
43.99,63.738,45.276,67.22,44.867,46.18,65.161,67.226
43.718,50.179,46.147,56.217,45.93,46.728,61.963,62.028
42.966,41.78,46.481,52.821,46.516,46.735,61.141,61.557
42.3,40.16,46.322,54.241,46.58,46.351,62.307,65.17
43.009,39.524,46.404,52.023,46.714,46.065,61.333,65.383
44.744,39.185,46.74,47.865,46.952,46.188,57.063,58.125
44.987,38.532,46.241,44.02,46.557,45.883,50.305,45.319
42.61,35.521,44.1,40.098,44.814,44.124,44.492,35.587
40.384,30.557,41.724,35.365,42.642,42.132,40.671,31.205
40.449,28.977,41.085,31.808,41.843,41.554,37.832,28.437
40.685,30.582,41.485,29.414,42.227,41.516,33.702,27.752
39.079,28.397,40.811,24.464,41.78,40.598,27.648,29.141
37.743,24.234,39.589,20.986,40.422,39.692,25.477,30.847
38.644,21.873,39.754,23.745,39.945,39.773,29.977,31.65
39.054,19.259,40.165,28.264,39.946,39.3,36.022,31.786
36.578,14.659,38.956,26.75,39.16,37.639,35.419,30.229
33.593,10.263,37.305,19.701,38.337,36.722,28.034,26.579
32.661,11.363,36.567,16.954,37.757,37.054,23.834,25.363
33.048,15.691,35.984,18.71,36.4,36.977,24.561,25.336
32.791,16.872,34.561,17.441,34.383,35.413,24.729,23.013
31.21,15.306,32.605,14.411,32.713,32.943,24.933,22.353
29.366,13.274,31.379,14.517,31.795,31.023,28.52,23.909
28.456,10.316,31.602,16.762,31.744,30.311,32.72,22.437
28.107,4.939,32.211,15.509,32.146,29.89,30.134,15.619
27.182,3.209,31.543,12.516,31.644,28.647,23.556,8.701
25.785,11.608,29.685,13.833,29.843,26.873,22.058,8.186
24.699,20.576,28.057,16.091,28.161,25.522,25.075,12.728
23.813,18.303,27.135,13.96,27.416,24.743,26.82,16.89
22.588,8.651,25.972,7.958,26.505,23.917,24.733,16.24
21.362,5.544,24.189,3.617,24.809,22.956,20.663,12.014
21.26,13.11,23.069,4.713,23.669,22.779,16.217,9.214
21.972,19.417,22.875,6.598,23.274,23.061,12.542,8.802
21.873,16.91,22.119,4.96,22.153,22.506,11.425,9.014
21.075,12.655,20.898,1.794,20.87,21.944,10.478,7.223
20.609,14.922,20.474,1.261,20.617,22.163,10.238,5.047
19.783,17.568,20.372,1.517,20.146,21.659,12.361,6.316
17.38,10.16,19.289,-3.093,18.25,19.989,10.554,7.147
14.279,-0.076,17.475,-9.917,16.196,18.738,2.108,3.873
12.775,-2.253,16.413,-13.451,15.687,18.713,-5.851,0.168
13.14,-0.975,16.387,-13.061,16.161,19.165,-6.497,-0.295
13.517,-5.831,16.236,-13.124,16.037,19.325,-4.868,-1.797
13.403,-15.613,15.739,-18.714,15.517,19.207,-10.598,-10.261
14.07,-19.771,15.952,-26.103,15.902,19.043,-20.948,-20.739
15.546,-16.528,16.769,-30.284,16.913,18.542,-27.256,-26.202
16.243,-13.533,16.604,-31.944,16.758,17.42,-26.515,-27.401
15.684,-14.971,15.007,-32.524,14.92,16.542,-24.453,-29.318
14.615,-20.226,13.052,-34.083,12.857,16.144,-29.004,-34.879
13.117,-25.425,11.531,-37.902,11.796,14.492,-36.307,-39.142
11.009,-28.701,10.453,-42.494,11.268,11.422,-36.578,-37.541
8.883,-30.098,9.5,-42.927,10.079,9.272,-28.255,-31.979
7.607,-27.657,8.725,-37.795,8.488,8.697,-19.321,-26.417
7.017,-21.509,8.293,-33.081,7.688,7.948,-16.198,-23.874
6.126,-14.86,7.869,-29.557,7.673,6.512,-14.408,-20.732
5.243,-11.132,7.588,-21.792,7.967,6.005,-7.994,-11.183
5.779,-10.086,8.119,-10.24,8.571,7.174,0.731,1.071
7.709,-9.588,9.28,-3.774,9.25,8.732,3.841,5.124
9.179,-6.931,9.828,-5.171,9.165,9.358,0.41,-0.326
9.037,2.802,9.07,-2.466,7.971,9.23,0.826,-2.464
8.268,15.439,8.188,8.749,7.178,8.727,9.615,5.386
7.743,19.113,8.44,16.266,8.166,7.257,19.621,16.592
6.918,11.011,9.139,12.656,9.651,5.535,23.42,22.041
5.605,0.128,8.951,5.864,9.623,5.315,23.411,20.191
4.563,-3.906,7.967,5.897,8.52,6.227,26.751,19.336
4.009,-5.502,7.246,6.814,8.096,6.79,29.354,20.387
3.253,-13.644,6.783,-1.387,8.184,6.409,23.507,14.117
2.553,-24.542,6.104,-14.031,7.947,5.619,11.799,1.311
3.108,-28.662,5.955,-19.78,8.142,5.576,4.605,-5.402
4.802,-21.75,6.762,-13.834,8.805,6.279,9.217,-0.08
6.259,-11.455,7.242,-6.157,8.329,6.314,16.675,6.525
6.563,-10.601,6.492,-10.36,6.722,5.006,11.634,2.995
6.156,-20.156,5.689,-23.944,6.132,3.519,-8.016,-9.266
5.799,-29.445,5.984,-33.111,7.214,2.776,-24.825,-20.41
5.409,-31.77,6.666,-31.132,8.19,2.463,-21.872,-21.208
5.135,-31.622,6.742,-25.913,7.681,2.986,-15.314,-16.367
5.276,-30.56,6.09,-23.953,5.998,4.377,-24.997,-16.39
5.257,-24.283,5.031,-20.829,4.431,4.783,-33.795,-18.647
4.796,-16.683,4.193,-15.58,4.016,3.38,-24.52,-15.965
4.629,-15.469,4.061,-14.603,4.458,1.967,-13.994,-12.749
5.086,-20.902,4.224,-20.731,4.689,2.138,-19.915,-18.855
5.174,-23.749,3.903,-24.28,4.321,2.811,-27.796,-27.18
4.129,-17.211,3.073,-15.016,3.597,2.069,-18.653,-20.106
2.463,-9.407,1.733,-1.504,1.994,-0.22,-1.575,-2.083
0.802,-9.176,-0.162,1.922,-0.418,-2.717,5.553,5.951
-0.699,-11.836,-1.544,-3.041,-1.575,-3.989,2.082,-0.251
-2.003,-7.304,-1.747,-3.077,-0.855,-3.885,0.441,-5.126
-3.015,4.315,-1.958,4.539,-0.635,-3.916,3.274,-1.737
-3.826,11.442,-3.795,7.468,-3.137,-5.721,2.155,1.295
-4.338,8.933,-6.549,2.348,-7.004,-8.801,-0.451,2.453
-4.116,3.414,-7.537,-0.666,-8.393,-11.02,3.213,5.159
-3.996,0.714,-7,1.814,-7.475,-12.077,9.993,4.948
-5.275,-3.3,-7.758,0.031,-8.124,-12.998,9.916,-2.68
-7.337,-12.957,-9.748,-11.529,-10.298,-13.289,-1.406,-15.013
-8.598,-18.417,-10.794,-21.829,-10.876,-12.43,-16.944,-23.924
-8.375,-12.907,-10.698,-23.414,-9.891,-11.604,-27.135,-24.737
-7.517,-6.625,-10.993,-22.273,-10.089,-12.142,-26.398,-19.643
-7.621,-8.184,-12.264,-20.937,-12.277,-13.546,-17.646,-13.799
-9.053,-13.506,-13.373,-15.865,-14.128,-14.128,-11.179,-11.001
-10.456,-15.379,-13.325,-7.124,-13.717,-13.545,-9.643,-8.623
-10.5,-14.517,-12.664,-1.299,-12.297,-12.888,-8.23,-4.824
-9.732,-14.007,-12.463,-1.447,-12.111,-12.723,-4.814,-2.354
-9.809,-11.7,-12.852,-2.822,-13.039,-12.825,-1.775,-1.466
-11.122,-5.678,-13.455,-2.455,-13.693,-13.194,-1.842,-1.058
-12.535,1.686,-14.012,-0.569,-13.85,-13.846,-3.419,-1.543
-13.34,3.402,-14.338,0.684,-14.25,-14.41,-4.839,-3.725
-14.128,-1.993,-15.086,0.355,-15.723,-15.342,-4.909,-4.451
-14.99,-6.452,-16.672,0.278,-17.684,-17.48,-3.684,-1.571
-15.01,-7.017,-17.811,0.374,-18.35,-19.75,-3.173,0.165
-14.395,-5.988,-17.71,1.739,-17.926,-20.076,-0.889,1.19
-14.56,-4.469,-17.677,3.886,-18.351,-18.533,2.243,5.034
-15.846,-4.9,-18.628,1.952,-19.689,-17.477,0.274,7.053
-16.739,-10.666,-19.105,-6.177,-19.64,-18.334,-6.52,0.329
-16.483,-19.658,-18.193,-16.583,-17.811,-20.148,-13.048,-13.909
-16.856,-22.53,-17.902,-21.23,-17.407,-21.731,-13.929,-23.508
-18.894,-18.607,-19.449,-19.654,-19.649,-22.99,-9.387,-22.246
-20.922,-17.913,-21.057,-19.207,-21.474,-24.02,-5.53,-18.219
-21.645,-22.696,-21.485,-21.394,-21.217,-24.542,-5.949,-17.453
-21.82,-26.195,-21.958,-22.374,-21.129,-24.571,-8.381,-17.767
-22.607,-25.292,-23.615,-20.211,-23.044,-24.818,-8.893,-16.684
-24.301,-26.552,-25.411,-19.341,-25.431,-25.82,-9.182,-16.853
-26.537,-33.123,-26.166,-21.911,-26.49,-27.174,-9.917,-18.522
-28.403,-35.821,-26.521,-20.18,-26.83,-27.921,-5.986,-14.901
-28.751,-27.752,-27.087,-9.703,-27.154,-27.826,2.995,-3.821
-27.761,-12.736,-27.335,4.3,-26.944,-27.723,11.98,8.294
-27.103,-1.115,-27.001,13.599,-26.156,-28.079,16.741,13.948
-27.481,3.755,-26.476,17.466,-25.47,-28.379,19.836,15.315
-27.763,11.012,-26.122,23.221,-25.337,-28.084,27.795,21.647
-27.138,23.822,-26.074,31.739,-25.843,-27.351,38.436,32.163
-26.086,32.306,-25.948,36.312,-26.151,-26.859,42.28,37.695
-25.219,26.575,-25.244,31.963,-25.15,-26.863,35.559,33.427
-24.594,11.283,-24.364,22.867,-23.683,-26.626,26.122,24.282
-23.977,-0.493,-23.811,15.99,-23.2,-25.497,19.098,16.877
-23.817,-7.914,-23.719,8.279,-23.673,-24.684,9.95,9.005
-24.521,-14.141,-24.171,-1.192,-24.383,-25.815,1.424,0.869
-24.616,-13.187,-24.155,-4.275,-24.236,-27.356,0.911,-0.786
-23.241,-2.04,-22.857,2.358,-23.016,-26.642,7.318,5.365
-22.428,8.029,-21.729,9.523,-22.3,-24.863,12.759,11.323
-23.508,5.038,-22.086,6.905,-22.852,-24.921,11.279,8.837
-24.682,0.067,-22.93,3.479,-23.58,-26.077,8.573,4.632
-24.056,11.315,-23.002,13.936,-23.649,-25.712,13.665,10.358
-22.524,31.288,-22.584,31.842,-23.329,-24.341,25.734,23.459
-22.112,36.391,-22.362,39.437,-22.953,-23.998,35.162,32.473
-23.067,22.8,-22.397,34.384,-22.512,-24.541,36.402,32.851
-23.743,14.32,-22.448,32.914,-22.105,-24.838,36.679,33.524
-22.593,23.552,-22.259,40.485,-21.932,-24.3,39.939,38.485
-20.325,33.906,-22.005,43.609,-22.07,-23.284,40.666,38.545
-19.229,30.969,-22.008,35.177,-22.093,-22.978,36.709,31.324
-20.178,21.866,-22.107,23.87,-21.64,-23.564,32.268,25.914
-21.736,19.345,-22.015,20.98,-21.198,-23.926,32.152,26.877
-21.883,17.276,-21.383,20.93,-20.685,-23.3,30.591,23.306
-20.625,5.132,-20.326,12.835,-19.65,-22.133,20.105,8.95
-19.984,-5.698,-19.866,4.581,-19.139,-21.369,7.352,-1.572
-20.937,-4.501,-20.497,5.452,-20.157,-21.475,2.135,0.573
-22.332,-0.667,-21.439,9.354,-21.713,-22.152,5.404,6.284
-22.664,-5.192,-21.794,6.032,-22.23,-22.485,6.699,5.396
-21.994,-14.131,-21.746,-4.653,-21.794,-22.356,-3.694,-3.613
-21.363,-18.936,-21.77,-15.087,-21.359,-22.589,-19.81,-15.992
-20.828,-22.659,-21.407,-23.508,-20.892,-23.04,-28.797,-25.991
-20.137,-29.127,-20.549,-30.124,-20.484,-22.94,-25.406,-28.717
-19.945,-34.687,-20.106,-34.063,-20.684,-22.573,-18.361,-28.329
-20.778,-36.296,-20.564,-35.876,-21.193,-22.964,-16.665,-30.861
-21.925,-34.129,-21.529,-34.758,-21.712,-23.971,-17.486,-32.312
-21.746,-31.345,-22.138,-33.577,-22.242,-24.229,-22.13,-34.063
-19.956,-30.286,-21.964,-35.654,-22.482,-23.648,-36.264,-40.733
-19.348,-32.994,-22.09,-39.09,-22.956,-23.768,-51.574,-45.65
-22.151,-39.81,-23.842,-40.543,-24.661,-25.361,-53.066,-42.843
-25.442,-46.268,-26.208,-40.563,-26.663,-27.385,-43.316,-38.798
-25.047,-51.109,-26.842,-44.49,-26.837,-28.232,-38.358,-43.367
-22.29,-52.609,-25.802,-49.66,-25.416,-27.652,-42.149,-53.184
-21.724,-45.518,-25.634,-47.34,-25.168,-27.364,-46.703,-55.112
-24.58,-32.097,-27.704,-38.557,-27.649,-29.124,-44.918,-44.721
-28.055,-22.168,-30.314,-31.412,-30.884,-32.007,-37.409,-32.344
-29.638,-23.055,-31.127,-31.228,-31.95,-33.46,-32.399,-29.975
-29.664,-31.816,-30.19,-35.133,-30.623,-32.84,-32.732,-34.717
-29.416,-40.615,-29.386,-37.875,-29.073,-31.784,-36.328,-38.271
-29.357,-44.708,-30.15,-39.215,-29.481,-32.142,-41.722,-40.178
-29.392,-43.813,-31.969,-41.5,-31.87,-33.868,-45.331,-41.975
-29.424,-42.539,-33.173,-46.036,-33.951,-35.108,-45.849,-44.195
-29.857,-42.71,-33.436,-49.539,-34.285,-35.464,-44.23,-45.072
-30.83,-42.587,-33.39,-50.472,-33.614,-36.195,-41.388,-43.71
-31.489,-39.636,-32.851,-49.552,-32.777,-36.96,-37.756,-41.848
-31.208,-31.198,-31.909,-44.563,-32.079,-36.365,-34.681,-39.543
-30.766,-24.406,-31.681,-39.228,-32.078,-35.033,-35.5,-38.75
-31.087,-27.535,-32.211,-37.769,-32.654,-34.564,-36.617,-39.354
-31.051,-33.908,-31.672,-36.149,-32.194,-34.268,-31.371,-36.144
-29.269,-29.934,-29.497,-29.246,-30.151,-32.338,-21.966,-27.537
-27.427,-14.98,-28.094,-18.049,-28.854,-29.419,-17.507,-19.321
-27.687,-4.65,-29.056,-11.353,-29.861,-28.017,-23.086,-18.526
-28.427,-5.149,-30.235,-12.071,-31.003,-28.516,-29.289,-20.331
-26.93,-6.871,-29.106,-12.378,-29.942,-28.103,-24.74,-15.701
-24.196,-5.71,-26.518,-7.872,-27.589,-25.211,-14.101,-8.199
-22.836,-6.419,-24.73,-3.807,-25.694,-22.23,-11.072,-6.581
-22.658,-11.19,-24.105,-6.937,-24.54,-21.284,-18.583,-12.272
-21.984,-12.6,-23.426,-11.453,-23.664,-21.135,-22.328,-16.638
-20.736,-6.354,-21.929,-9.272,-22.38,-20.278,-14.601,-13.983
-19.939,-0.648,-20.225,-4.508,-20.622,-19.224,-6.444,-9.682
-19.643,0.375,-19.077,-0.463,-19.148,-18.695,-4.776,-6.119
-19.293,3.048,-18.461,5.864,-18.322,-18.973,-0.372,2.508
-19.25,12.676,-18.417,15.533,-18.202,-20.142,14.11,17.956
-19.546,21.372,-19.072,20.443,-19.039,-21.151,25.153,26.643
-18.863,16.954,-19.586,13.396,-20.065,-20.877,19.155,17.726
-16.643,5.41,-18.232,5.67,-19.002,-19.069,8.234,6.204
-14.673,3.705,-15.088,10.504,-15.757,-16.336,10.056,9.763
-14.696,17.302,-13.071,22.019,-13.914,-14.8,21.961,22.477
-15.404,31.623,-13.445,24.027,-14.68,-15.484,25.338,24.877
-14.871,29.616,-14.102,13.54,-15.077,-16.618,13.976,11.847
-13.72,16.59,-13.565,5.72,-13.867,-16.847,4.325,1.426
-13.115,8.404,-12.503,9.193,-12.935,-16.065,7.327,6.101
-12.956,8.602,-11.94,17.279,-13.28,-13.962,14.589,16.448
-12.856,9.436,-12.021,20.459,-13.594,-11.132,13.584,18.068
-12.643,7.827,-12.164,17.334,-12.856,-9.359,5.811,11.994
-12.315,9.069,-12.047,15.294,-12.091,-9.098,3.006,10.797
-12.417,12.214,-12.281,17.627,-12.69,-9.071,6.19,15.271
-13.311,12.756,-13.251,23.298,-13.99,-8.886,9.721,19.065
-13.678,12.785,-13.283,31.98,-13.511,-8.726,14.434,24.353
-12.186,17.846,-10.926,41.988,-10.84,-7.401,22.743,32.9
-9.885,27.477,-7.956,48.444,-8.589,-4.409,29.615,37.156
-8.508,31.564,-6.606,46.179,-7.879,-1.904,28.845,31.622
-8.162,28.415,-6.451,42.63,-7.51,-1.644,27.673,27.165
-7.955,25.011,-5.943,44.653,-6.88,-2.41,31.684,31.401
-7.729,18.92,-4.917,41.829,-6.148,-2.725,31.221,32.221
-7.718,5.829,-4.274,27.208,-5.268,-3.209,20.246,21.841
-7.315,-9.82,-4.091,8.002,-4.202,-4.624,5.759,8.392
-6.075,-17.462,-3.672,-4.461,-3.142,-5.836,-2.157,1.472
-4.455,-13.23,-2.869,-6.976,-2.353,-5.238,-2.837,0.329
-3.038,-4.353,-2.351,-4.703,-2.186,-3.752,-0.617,0.766
-2.033,3.705,-2.492,-0.141,-2.51,-3.692,3.994,3.83
-1.498,8.253,-2.772,3.543,-2.58,-5.034,8.066,6.566
-1.718,8.141,-2.819,3.867,-2.144,-5.798,8.52,5.263
-2.095,4.98,-2.341,2.983,-1.081,-4.724,6.298,3.599
-1.305,1.224,-0.848,3.21,0.78,-2.502,6.876,7.516
0.375,0.513,1.083,6.888,2.534,-0.535,15.595,17.781
1.896,3.741,2.277,13.059,3.427,1.493,24.476,24.642
3.372,12.398,2.544,20.443,3.724,4.189,25.95,24.151
5.13,26.567,2.585,28.963,3.634,5.947,29.188,27.616
6.889,38.539,3.327,36.542,3.919,5.733,40.74,39.678
8.279,42.086,4.893,40.811,5.325,5.558,46.774,47.171
8.89,38.236,5.978,38.076,6.455,6.932,34.749,38.903
9.039,34.34,6.052,31.953,6.37,8.623,19.815,26.563
10.442,33.962,6.912,30.003,7.175,9.835,18.218,24.663
13.2,32.258,9.191,30.144,9.631,10.975,21.846,27.546
14.316,28.984,10.513,28.601,11.008,11.46,20.419,25.853
12.643,27.022,9.769,26.031,10.026,10.849,16.522,20.913
11.401,27.708,9.375,28.177,9.044,10.936,18.376,22.359
12.893,30.698,11.247,37.411,10.223,13.264,25.568,32.077
14.778,30.929,13.486,42.057,12.422,15.333,27.933,35.888
14.763,25.585,13.698,31.784,13.504,14.025,20.199,24.828
14.851,19.623,13.054,14.468,13.649,11.574,8.208,7.985
17.337,21.611,14.063,8.453,14.404,12.045,5.048,1.222
20.619,28.504,16.569,15.439,16.124,14.589,12.981,6.882
21.744,27.891,17.988,20.148,17.215,15.824,19.867,13.423
20.633,21.083,17.253,18.739,16.61,15.815,18.517,15.056
19.282,16.12,16.267,16.366,15.824,16.28,11.302,13.302
18.016,11.589,16.04,13.749,15.909,16.243,5.169,10.55
16.255,2.945,15.522,8.044,15.891,15.021,0.628,5.142
14.993,-5.068,14.471,0.083,15.22,14.532,-6.604,-4.469
15.201,-3.499,13.744,-2.099,14.319,15.534,-10.567,-9.604
16.197,-0.241,13.733,-0.436,13.817,16.336,-8.027,-7.199
16.352,-7.634,13.397,-5.421,13.355,15.409,-8.505,-7.204
14.637,-18.565,11.436,-15.19,11.459,13.312,-16.942,-13.955
11.797,-20.248,8.806,-18.632,8.557,11.661,-23.296,-19.489
9.535,-14.979,7.614,-13.944,7.093,10.976,-19.244,-17.816
8.452,-17.848,7.783,-13.907,7.382,10.632,-15.888,-17.5
7.367,-32.555,7.439,-22.964,7.315,9.514,-23.337,-24.468
5.413,-43.921,6.097,-29.076,6.153,7.023,-31.993,-29.629
3.654,-40.983,4.87,-26.25,4.928,4.211,-29.819,-26.413
3.453,-30.744,4.341,-22.462,4.289,2.764,-22.291,-21.614
4.515,-26.892,4.232,-27.352,4.31,2.712,-24.646,-25.612
5.128,-27.957,3.87,-36.165,4.415,2.201,-34.115,-34.172
4.27,-23.498,2.724,-37.789,3.64,0.369,-36.516,-36.174
2.925,-14.795,1.105,-32.894,2.05,-1.478,-32.002,-33.022
2.483,-7.919,-0.408,-27.478,0.199,-2.317,-27.19,-30.335
2.772,-4.938,-1.484,-25.001,-1.526,-2.299,-22.419,-29.451
2.676,-4.825,-1.599,-23.77,-1.968,-1.66,-16.561,-28.242
1.788,-7.127,-0.933,-21.169,-0.901,-0.887,-14.736,-25.1
0.012,-13.392,-1.466,-19.797,-1.068,-1.201,-19.307,-22.26
-2.995,-22.305,-4.473,-21.651,-4.358,-3.283,-23.532,-21.858
-7.065,-32.927,-8.603,-28.154,-8.708,-6.652,-24.61,-27.064
-11.351,-42.947,-12.182,-38.056,-11.751,-10.537,-23.582,-36.997
-13.85,-46.834,-14.085,-45.857,-13.084,-12.655,-29.17,-45.861
-13.327,-44.452,-13.987,-48.882,-13.355,-11.216,-51.987,-51.869
-12.535,-43.363,-14.012,-49.931,-14.161,-9.865,-75.895,-55.671
-14.178,-51.013,-16.105,-56.175,-16.28,-12.681,-81.813,-60.429
-16.475,-58.903,-19.058,-65.545,-18.687,-17.186,-80.286,-67.067
-17.578,-53.666,-21.141,-66.569,-20.678,-19.436,-80.669,-69.93
-19.071,-43.254,-22.516,-58.067,-22.528,-20.1,-71.938,-65.248
-22.216,-41.5,-23.858,-48.892,-24.209,-21.401,-54.425,-56.021
-25.328,-44.976,-25.149,-46.204,-25.371,-23.463,-47.263,-50.289
-26.673,-42.696,-26.223,-47.524,-26.232,-25.574,-51.488,-49.595
-26.834,-38.467,-27.142,-49.266,-27.191,-27.466,-52.514,-50.454
-27.289,-44.266,-28.155,-55.691,-28.107,-28.994,-51.089,-55.406
-28.512,-54.277,-29.387,-64.656,-28.825,-29.937,-54.34,-63.083
-29.934,-55.802,-30.562,-68.464,-29.719,-30.354,-60.629,-66.301
-31.068,-48.337,-31.552,-65.806,-31.175,-31.043,-63.412,-62.453
-31.997,-39.141,-32.654,-61.724,-32.938,-32.547,-60.643,-57.638
-33.395,-36.334,-34.446,-62.022,-34.808,-34.796,-57.49,-59.764
-35.919,-40.27,-37.122,-64.466,-37.109,-37.598,-58.026,-65.172
-38.812,-43.945,-39.666,-63.023,-39.686,-39.622,-61.645,-65.808
-40.564,-44.118,-40.959,-56.533,-41.643,-39.498,-62.371,-60.406
-40.95,-47.835,-41.104,-51.826,-42.214,-38.268,-57.331,-54.597
-41.039,-57.601,-41.23,-55.84,-42.01,-37.939,-54.657,-55.963
-41.426,-58.965,-42.19,-62.872,-42.421,-38.563,-62.127,-63.307
-41.584,-49.186,-43.176,-66.396,-43.276,-38.671,-76.244,-69.986
-41.361,-46.908,-43.045,-67.142,-43.591,-37.847,-82.895,-71.538
-41.257,-58.12,-42.308,-65.855,-43.418,-36.919,-75.817,-68.411
-41.171,-66.458,-41.948,-63.046,-42.929,-36.566,-65.305,-64.612
-40.57,-60.583,-41.529,-59.804,-41.761,-36.923,-60.177,-60.677
-39.629,-52.561,-40.512,-61.412,-40.262,-37.711,-62.939,-59.997
-39.674,-54.387,-40.451,-69.699,-40.089,-39.06,-71.223,-66.703
-41.229,-57.501,-42.304,-76.411,-41.665,-41.09,-77.474,-74.923
-42.618,-52.082,-43.696,-75.736,-42.736,-42.66,-77.074,-76.52
-42.692,-44.968,-42.866,-70.384,-42.054,-42.472,-72.009,-71.713
-42.706,-49.21,-41.882,-67.287,-41.568,-40.968,-68.853,-69.346
-43.603,-58.913,-42.776,-66.515,-42.905,-40.318,-67.377,-69.402
-44.147,-58.025,-43.802,-61.915,-44.213,-41.424,-61.302,-61.601
-43.882,-50.119,-42.979,-53.942,-43.439,-42.158,-52.839,-49.552
-44.531,-47.896,-42.114,-47.895,-42.495,-41.334,-48.531,-44.574
-46.478,-52.138,-43.294,-47.609,-43.836,-40.926,-49.53,-45.93
-47.876,-52.271,-45.134,-48.331,-45.991,-41.824,-50.622,-45.325
-47.432,-43.394,-45.368,-43.593,-46.169,-42.025,-49.445,-42.721
-45.599,-37.942,-44.093,-39.555,-44.35,-40.824,-49.232,-44.763
-43.806,-45.003,-42.852,-42.621,-42.686,-40.243,-48.357,-48.205
-43.177,-55.608,-42.222,-48.192,-42.211,-40.772,-45.443,-46.847
-43.72,-56.715,-41.665,-46.746,-41.842,-40.185,-43.457,-42.098
-44.288,-49.202,-40.741,-38.028,-40.595,-37.418,-43.954,-38.246
-43.908,-44.982,-39.949,-34.24,-39.416,-34.664,-45.64,-38.848
-43.329,-46.103,-40.289,-39.793,-39.642,-34.756,-45.656,-42.361
-43.549,-47.364,-41.531,-48.564,-40.61,-37.356,-46.087,-46.789
-43.818,-49.48,-42.124,-54.878,-40.836,-39.548,-47.43,-50.232
-42.759,-55.024,-40.955,-56.626,-39.808,-39.484,-45.231,-48.494
-40.842,-61.239,-38.699,-56.479,-37.999,-38.196,-40.876,-43.762
-40.123,-61.421,-37.371,-56.948,-36.819,-38.292,-38.381,-42.082
-41.169,-57.296,-38.012,-60.691,-37.34,-40.356,-41.21,-47.579
-42.279,-55.682,-39.581,-67.692,-38.81,-42.143,-49.367,-58.033
-41.906,-57.43,-40.29,-72.447,-39.512,-41.948,-55.951,-63.893
-40.706,-61.291,-39.741,-71.99,-38.983,-40.324,-56.371,-60.96
-40.315,-65.191,-38.921,-67.599,-38.176,-38.199,-53.941,-55.245
-40.528,-69.302,-38.135,-65.795,-37.37,-35.87,-55.417,-55.872
-40.44,-73.687,-37.535,-71.415,-36.504,-34.632,-61.686,-64.297
-40.679,-74.237,-38.242,-79.748,-36.744,-35.716,-70.469,-74.251
-41.944,-73.463,-40.448,-84.886,-39.052,-37.543,-80.274,-81.113
-43.212,-78.413,-42.112,-85.111,-41.663,-37.851,-84.57,-81.628
-42.888,-86.816,-41.275,-83.186,-41.436,-36.869,-81.577,-76.797
-41.526,-88.529,-39.117,-80.6,-38.755,-36.328,-76.966,-71.687
-41.187,-83.395,-38.222,-76.587,-37.153,-36.816,-73.524,-69.257
-42.029,-82.73,-38.76,-74.781,-37.783,-37.421,-71.989,-70.505
-42.299,-86.756,-38.936,-75.842,-38.483,-37.089,-72.247,-72.74
-41.153,-85.424,-37.915,-74.863,-37.757,-35.562,-72.899,-72.858
-39.986,-75.271,-37.137,-68.884,-37.165,-34.696,-69.278,-68.592
-40.407,-62.156,-37.975,-61.131,-38.225,-36.677,-59.574,-59.59
-41.757,-54.039,-39.437,-57.403,-39.65,-40.089,-51.163,-52.408
-42.078,-51.367,-40.103,-57.15,-40.074,-42.07,-49.999,-51.263
-40.685,-53.123,-39.791,-59.103,-39.544,-42.289,-55.28,-54.188
-38.977,-59.748,-38.874,-62.96,-38.402,-41.816,-59.979,-57.403
-38.187,-63.334,-37.898,-63.197,-37.491,-40.777,-57.897,-57.004
-38.029,-54.674,-37.586,-55.788,-37.789,-39.37,-51.402,-52.003
-38.43,-39.168,-38.139,-44.53,-38.796,-39.092,-43.913,-44.016
-39.482,-34.159,-38.901,-39.254,-39.201,-40.283,-39.77,-39.951
-40.639,-43.606,-39.605,-42.693,-39.303,-41.167,-42.223,-44.322
-41.261,-51.443,-40.034,-46.581,-39.418,-40.327,-45.376,-51.14
-40.645,-46.663,-39.318,-45.476,-38.255,-38.039,-43.733,-53.946
-38.86,-37.593,-37.95,-42.106,-36.567,-36.097,-43.932,-51.05
-37.633,-42.198,-37.66,-45.107,-36.897,-35.919,-55.57,-48.502
-38.14,-59.804,-38.441,-54.237,-38.604,-36.237,-70.449,-53.375
-38.68,-66.773,-38.255,-55.733,-38.624,-35.041,-71.676,-58.077
-37.527,-54.916,-36.196,-46.333,-36.407,-33.54,-58.71,-51.369
-35.927,-42.762,-34.156,-38.611,-34.438,-33.826,-46.554,-40.989
-35.612,-44.653,-34.213,-41.793,-34.545,-34.569,-51.277,-44.71
-36.424,-53.44,-35.885,-50.502,-36.008,-34.181,-69.991,-58.893
-36.804,-60.062,-36.886,-57.173,-37.013,-33.445,-84.814,-67.05
-35.961,-68.479,-36.607,-65.573,-37.246,-33.442,-91.456,-72.588
-35.749,-78.889,-37.098,-77.931,-38.135,-35.426,-95.988,-84.455
-37.526,-82.975,-38.874,-87.734,-39.661,-39.158,-97.565,-95.07
-39.081,-76.074,-39.503,-89.089,-39.93,-41.226,-91.683,-95.535
-38.322,-63.244,-38.125,-84.42,-38.686,-40.242,-79.426,-89.904
-36.52,-54.888,-36.951,-80.171,-37.65,-39.5,-68.327,-84.228
-35.404,-49.019,-37.287,-72.103,-37.71,-40.497,-63.821,-74.725
-35.114,-35.855,-38.024,-53.622,-38.503,-40.621,-60.61,-57.536
-35.753,-20.708,-38.022,-32.194,-39.223,-39.194,-48.417,-36.641
-36.852,-17.578,-36.898,-20.733,-38.441,-38.221,-33.164,-20.537
-37.267,-25.307,-35.299,-20.717,-36.22,-37.947,-29.863,-16.273
-37.076,-29.204,-34.812,-21.588,-35.118,-37.136,-33.045,-20.368
-36.531,-25.019,-35.33,-17.826,-35.862,-35.372,-28.218,-22.775
-35.267,-18.852,-35.145,-11.074,-36.008,-33.439,-18.254,-16.952
-33.916,-13.247,-34.112,-4.102,-34.62,-32.548,-15.974,-7.954
-33.798,-9.758,-33.734,-3.576,-33.971,-32.654,-21.366,-10.552
-34.65,-11.78,-34.192,-12.821,-34.782,-32.301,-24.899,-27.426
-34.339,-22.267,-33.603,-27.351,-34.033,-30.917,-29.852,-44.143
-31.928,-33.37,-31.319,-35.233,-30.874,-29.471,-40.828,-45.172
-29.058,-29.967,-28.954,-25.622,-28.637,-28.125,-48.287,-29.439
-27.411,-13.243,-27.531,-5.625,-28.546,-26.07,-45.478,-12.297
-27.018,1.361,-26.91,8.238,-28.625,-23.839,-35.616,-1.303
-27.256,3.999,-27.098,9.368,-28.205,-23.63,-17.308,10.094
-27.642,2.266,-27.642,7.124,-27.792,-26.92,18.687,19.796
-26.983,11.164,-27.113,14.287,-26.902,-30.552,55.71,21.379
-24.456,27.257,-24.994,27.075,-25.016,-29.421,53.233,26.156
-20.923,35.095,-21.979,31.493,-21.999,-24.695,14.413,37.872
-17.162,29.527,-18.546,20.137,-18.154,-21.681,-17.682,25.128
-14.401,13.551,-16.178,-2.601,-15.763,-21.178,-29.755,-20.686
-14.424,-10.174,-16.44,-26.272,-16.609,-19.92,-42.075,-56.833
-15.926,-34.506,-17.611,-44.563,-18.275,-17.544,-60.737,-64.468
-16.378,-47.317,-17.492,-54.392,-18.238,-16.978,-68.935,-67.426
-16.841,-50.885,-17.52,-57.823,-18.291,-18.2,-66.818,-76.677
-19.193,-60.289,-19.367,-63.639,-20.073,-18.636,-75.747,-85.009
-21.901,-77.272,-21.439,-75.895,-21.589,-18.609,-96.571,-90.868
-22.853,-87.123,-22.438,-85.813,-22.118,-19.884,-103.469,-91.782
-22.562,-77.075,-23.493,-79.385,-23.857,-21.318,-82.547,-79.754
-22.245,-51.944,-24.685,-56.788,-26.319,-20.924,-53.886,-57.39
-21.629,-25.081,-24.51,-31.004,-26.613,-19.511,-39.71,-33.919
-19.438,-0.92,-22.372,-8.09,-24.294,-18.307,-30.172,-10.395
-15.695,21.231,-18.651,15.444,-20.363,-16.352,-4.63,14.019
-12.465,39.298,-14.295,38.852,-15.476,-13.197,29.246,33.979
-10.714,50.746,-10.819,52.288,-11.327,-10.762,44.528,44.287
-9.067,61.827,-9.105,59.407,-9.808,-10.126,43.689,53.964
-6.663,79,-8.24,75.554,-9.999,-9.023,53.71,73.146
-4.411,92.121,-6.819,93.317,-9.237,-6.151,74.824,89.518
-3.152,91.54,-4.899,95.249,-7.11,-4.366,86.384,91.122
-2.204,87.598,-3.084,87.368,-4.849,-5.157,85.403,88.208
-0.188,100.988,-1.094,92.296,-2.543,-5.399,88.985,96.443
3.493,132.015,1.558,114.31,0.165,-2.51,104.367,114.966
7.575,147.911,4.168,125.96,2.512,1.733,113.749,122.743
9.685,125.922,5.494,106.644,3.731,4.368,99.751,104.424
9.613,83.218,5.887,68.974,4.42,5.736,66.229,69.275
9.561,49.597,6.828,39.651,5.569,7.963,35.588,40.881
10.672,35.559,8.847,32.008,7.76,10.691,27.704,34.824
11.894,35.028,10.733,37.949,10.366,11.763,37.743,43.061
12.275,46.47,11.065,48.173,11.563,11.162,50.2,51.533
12.35,65.453,10.497,60.141,11.139,11.089,58.883,59.986
12.487,75.856,10.459,68.986,10.699,12.334,64.308,69.823
12.477,69.239,11.145,67.998,11.258,13.725,62.983,70.624
12.705,53.291,12.197,55.798,12.613,14.714,50.786,55.502
13.235,41.642,13.236,44.16,13.695,15.873,38.057,39.978
13.584,37.733,13.836,41.491,13.84,17.145,34.264,38.033
13.88,34.905,13.728,38.794,13.391,17.4,31.311,38.855
14.498,29.839,13.306,29.103,13.011,16.513,22.045,29.562
14.743,22.378,13.328,18.562,13.243,15.378,14.192,16.436
13.527,15.204,13.671,15.56,13.884,14.264,16.955,13.411
11.823,11.596,13.658,17.341,14.093,13.677,22.431,18.869
11.651,12.047,13.205,16.153,13.569,13.844,20.504,21.888
13.189,17.596,13.021,13.541,13.246,13.689,18.039,22.418
15.207,26.826,13.641,14.773,14.078,12.565,23.901,25.311
16.467,35.13,14.543,22.154,15.568,10.992,38.069,33.467
16.191,38.687,14.987,33.451,16.549,10.15,53.757,46.302
14.638,41.755,14.823,45.11,16.389,10.821,64.634,58.971
13.524,52.321,14.779,56.282,15.841,12.57,71.318,68.027
14.618,65.539,15.753,65.23,16.303,14.784,74.751,72.352
17.069,74.077,17.182,74.011,17.451,17.185,75.649,76.199
18.275,79.758,17.982,84.899,18.097,19.018,77.456,84.187
17.386,83.527,18.045,92.843,18.044,19.237,82.545,92.097
16.207,82.087,18.061,93.186,17.86,18.806,85.443,91.594
16.889,73.622,19.137,86.463,18.714,20.253,78.131,80.631
19.096,64.267,21.379,79.517,21.019,23.076,67.06,70.781
20.678,60.446,23.119,77.011,23.07,24.227,61.797,70.142
20.687,60.118,22.773,75.507,22.861,23.007,61.107,70.615
20.072,59.296,21.048,73.344,21.042,21.566,63.01,67.772
19.944,56.727,20.287,71.499,20.373,21.581,65.447,66.192
20.412,54.181,21.191,67.837,21.634,22.481,63.297,64.412
21.445,50.429,22.321,56.551,22.94,23.389,51.876,52.818
22.94,42.337,22.833,39.232,23.305,24.039,37.338,34.208
23.844,34.499,23.165,29.668,23.691,23.594,34.99,28.767
23.459,34.498,23.591,34.214,24.58,22.093,45.196,40.936
22.957,43.262,24.052,43.461,25.285,21.185,53.771,52.114
23.958,49.64,24.907,45.181,25.893,21.812,54.392,50.694
25.746,43.96,26.21,40.027,27.127,23.204,52.932,44.565
26.401,34.995,27.278,38.263,28.573,24.376,51.904,43.915
26.25,31.992,27.811,39.319,29.368,25.378,45.933,45.232
26.846,30.206,28.397,36.966,29.827,26.807,38.38,42.808
28.281,24.903,29.651,33.332,30.78,28.942,37.727,38.755
29.674,22.068,31.1,34.318,31.826,31.247,43.394,36.81
30.921,26.902,32.221,39.895,32.534,32.718,48.264,37.261
32.187,31.246,33.423,41.626,33.558,32.712,46.047,35.85
32.459,30.183,34.276,38.641,34.407,31.466,40.33,32.987
31.459,30.986,33.936,39.982,34.072,30.501,39.812,34.971
31.082,36.646,33.439,46.28,33.747,31.103,47.369,41.431
32.732,40.659,34.357,48.09,35.192,32.761,52.937,42.277
35.248,36.489,35.937,39.66,37.358,34.282,41.092,32.309
36.493,27.469,36.335,28.934,37.559,35.058,21.644,23.924
36.545,20.468,36.192,24.044,36.393,35.376,13.28,24.302
36.442,14.947,36.875,19.387,36.584,35.454,9.975,20.254
34.993,7.089,36.967,9.655,37.273,34.802,7.455,6.575
32.035,-2.956,35.468,1.665,36.302,33.816,14.641,-2.165
30.672,-8.148,34.479,4.553,35.132,33.478,31.69,4.458
32.313,-3.974,35.33,12.685,35.866,33.315,47.477,14.451
35.048,6.13,36.518,13.625,37.308,32.725,42.191,12.472
37.681,18.038,36.954,9.166,37.569,32.959,6.518,5.406
39.856,26.042,37.202,8.112,37.158,34.683,-26.975,7.332
40.347,27.84,37.469,14.675,37.304,36.435,-21,19.566
39.108,28.36,37.649,27.028,38.062,37.418,6.597,32.741
37.457,29.334,37.866,36.208,38.675,37.306,23.466,36.117
36.28,27.776,38.057,35.062,38.893,35.273,32.414,29.537
36.225,22.584,38.294,27.201,39.459,33.076,40.637,21.078
37.42,16.982,38.607,20.464,40.195,33.885,37.298,12.795
38.93,10.239,38.789,11.816,40.156,36.766,11.975,0.699
38.927,-3.558,38.638,-3.868,39.611,37.776,-16.719,-10.338
36.479,-19.246,38.061,-15.115,39.048,36.469,-13.259,-9.433
34.002,-20.147,37.723,-8.25,38.687,36.112,18.275,1.68
34.345,2.435,38.237,15.844,38.88,37.616,39.161,16.698
36.425,37.071,38.853,46.581,39.288,38.581,41.54,38.344
37.469,66.973,38.71,74.817,39.317,38.146,55.89,68.658
37.677,88.582,38.44,96.495,39.11,38.67,88.092,97.49
39.857,101.513,39.625,105.885,39.874,41.57,102.753,105.496
44.577,100.153,42.534,99.575,42.434,44.604,84.458,88.209
48.652,82.5,45.218,81.862,45.093,45.895,56.828,65.587
49.917,58.826,46.372,62.918,46.071,46.588,41.328,54.906
50.363,46.238,47.496,54.454,47.005,47.825,38.689,53.355
51.938,47.575,49.974,56.248,49.839,49.194,41.718,52.465
52.458,50.238,52.098,56.345,52.563,49.629,48.297,51.444
49.844,44.558,51.792,45.716,52.382,48.427,53.405,47.436
46.642,32.843,50.037,29.426,50.405,46.337,49.377,37.75
46.171,25.43,49.226,22.671,49.545,45.1,41.539,33.072
47.482,26.923,49.447,28.123,49.864,45.292,40.917,40.657
47.366,30.436,48.484,32.494,48.97,45.4,48.597,49.516
45.563,26.428,45.742,27.144,46.55,44.237,52.711,45.263
44.726,17.646,43.635,20.389,45.193,43.046,43.993,31.661
45.734,16.407,43.776,23.363,45.774,43.44,30.602,26.107
46.18,22.171,44.191,29.33,45.477,44.718,25.751,29.953
44.701,24.706,42.861,28.151,42.868,45.092,31.929,31.202
43.499,20.74,41.515,23.154,41.266,44.266,39.836,30.548
43.878,14.066,42.186,21.287,43.059,43.244,42.331,34.671
43.889,8.215,43.376,21.847,45.425,42.801,39.594,36.709
42.035,-0.949,42.721,15.002,45.192,42.483,29.754,26.527
39.451,-15.901,40.813,-1.321,43.436,41.382,17.023,11.198
38.518,-29.016,40.18,-14.828,42.893,40.136,11.56,2.203
39.659,-33.881,40.812,-17.745,43.199,39.949,13.507,-0.591
40.573,-32.16,40.318,-13.661,42.299,40.478,15.063,1.567
39.922,-27.619,38.601,-7.157,40.662,40.489,14.41,10.511
38.712,-18.598,37.735,3.033,39.994,39.423,20.532,24.586
37.92,-5.84,38.51,15.449,40.734,38.544,34.832,35.324
37.372,1.04,39.847,22,41.875,39.486,43.404,35.678
36.82,-3.035,40.62,18.778,41.965,41.053,38.356,29.305
36.528,-12.015,41.078,9.028,41.601,40.374,27.227,22.703
36.641,-16.246,41.697,0.731,42.203,37.463,23.188,20.165
36.755,-16.197,41.709,-3.255,42.482,35.488,27.928,20.095
35.666,-22.532,40.305,-9.239,40.959,35.562,29.716,15.402
32.788,-34.752,38.21,-16.162,39.256,35.341,24.661,9.702
30,-39.16,36.603,-13.862,38.757,34.17,22.105,13.957
28.937,-29.272,35.247,0.951,37.789,34.15,27.55,27.874
28.002,-15.179,33.084,17.199,34.747,35.04,33.618,39.217
25.453,-7.766,30.499,23.852,31.164,34.049,35.122,40.884
22.896,-3.28,29.403,26.349,29.641,31.491,38.773,40.542
22.419,3.239,29.95,32.522,29.703,30.322,48.342,45.453
23.202,8.599,30.069,39.766,29.093,30.591,57.384,52.414
23.57,10.021,29.315,43.15,28.238,30.259,57.726,55.225
23.218,11.016,28.879,44.736,28.434,29.21,53.403,54.73
22.729,17.794,28.954,50.958,28.859,28.833,56.635,58.511
22.62,26.785,29.071,57.931,28.811,29.297,65.409,66.546
22.609,28.979,28.889,57.467,28.788,29.406,68.421,71.35
22.206,24.319,28.232,52.011,29.093,28.741,62.956,69.497
21.57,22.173,27.23,50.111,29.167,27.826,58.619,66.822
21.437,31.002,26.38,56.575,27.977,27.502,67.18,72.735
22.005,43.254,26.098,63.807,25.797,28.115,82.032,81.543
21.885,44.625,25.848,60.798,24.431,28.124,85.152,79.006
20.526,35.018,25.051,48.41,24.629,26.624,73.569,65.663
19.838,26.137,24.302,37.361,25.383,25.216,62.323,54.763
20.995,27.782,24.44,37.236,26.108,25.136,61.776,55.141
22.478,34.194,25.158,42.5,26.769,26.088,62.357,60.263
22.025,29.929,24.979,38.728,26.285,26.958,53.004,57.649
19.392,8.749,22.923,18.491,23.739,26.313,33.392,39.739
16.659,-24.504,19.735,-18.628,20.199,23.773,3.359,4.63
15.616,-60.982,17.042,-65.454,17.795,20.36,-36.706,-41.933
15.437,-90.147,15.399,-104.175,17.058,17.174,-73.837,-86.022
13.693,-99.539,13.933,-113.325,16.251,15.024,-84.491,-104.162
10.617,-86.928,12.709,-92.046,14.801,14.69,-66.035,-86.994
9.213,-67.984,12.487,-65.852,13.717,15.515,-43.706,-59.299
9.562,-56.975,12.212,-52.52,12.597,15.164,-32.646,-43.796
8.582,-53.846,10.647,-47.606,10.984,12.643,-27.411,-37.627
5.691,-51.402,8.656,-42.97,9.579,9.784,-21.054,-32.79
3.212,-44.46,7.602,-37.016,8.592,8.557,-13.039,-27.264
1.859,-33.308,7.08,-29.41,7.742,8.294,-6.617,-21.118
0.723,-21.491,5.777,-19.068,6.661,7.263,-2.884,-13.661
-0.107,-14.541,3.664,-10.638,4.773,5.381,1.273,-4.709
-0.39,-14.448,2.041,-8.792,2.699,3.661,7.537,3.225
-0.194,-15.13,1.925,-9.755,2.309,2.729,10.997,5.889
0.256,-9.223,2.293,-7.003,3.023,2.182,11.054,5.186
-0.091,1.074,1.422,0.077,2.255,1.346,13.968,8.293
-1.356,3.759,-0.148,3.825,0.2,0.533,15.861,12.247
-1.947,-1.744,-0.908,2.222,-1.1,0.273,11.366,10.943
-1.358,-1.799,-0.938,3.261,-1.422,0.348,7.128,8.029
-1.851,4.818,-1.696,8.35,-2.319,0.076,9.419,8.697
-5.046,7.104,-3.435,12.496,-3.982,-0.284,16.293,15.077
-7.887,3.876,-3.843,13.998,-3.8,0.392,20.094,19.796
-6.647,5.147,-1.992,13.551,-1.086,1.051,14.867,10.477
-3.269,10.101,-0.687,8.931,0.507,-0.049,2.757,-7.286
-2.369,4.622,-2.006,-1.411,-1.449,-1.424,-6.83,-15.961
-4.607,-9.939,-4.463,-9.525,-4.736,-1.437,-6.476,-11.846
-7.451,-18.062,-6.3,-9.373,-6.626,-1.572,-2.141,-4.991
-9.806,-19.784,-7.939,-9.759,-7.676,-3.305,-5.294,-3.982
-11.937,-34.063,-9.831,-27.7,-9.164,-5.762,-23.765,-17.625
-13.002,-68.263,-11.224,-67.315,-10.474,-7.601,-57.011,-51.202
-12.119,-95.104,-11.665,-100.593,-10.888,-8.248,-83.887,-84.21
-10.759,-87.477,-11.779,-96.265,-11.019,-7.819,-80.418,-86.282
-11.356,-58.885,-12.628,-63.964,-11.91,-7.682,-52.647,-58.635
-13.624,-35.769,-14.11,-34.424,-13.51,-9.058,-24.576,-27.092
-14.935,-18.426,-14.606,-14.411,-14.315,-10.796,-3.966,-5.046
-13.901,3.351,-13.117,4.982,-13.132,-10.808,13.034,9.845
-11.627,21.32,-10.896,16.909,-10.988,-9.269,20.284,15.848
-10.017,24.307,-9.971,13.621,-10.054,-8.321,15.518,13.331
-9.379,21.353,-10.294,9.614,-10.496,-8.495,13.103,14.412
-8.804,26.545,-10.3,20.597,-10.64,-8.219,24.276,26.137
-8.363,36.818,-9.639,38.286,-9.787,-7.019,39.713,39.314
-8.867,35.887,-9.317,40.361,-8.989,-6.283,39.952,39.048
-10.285,22.577,-10.116,25.024,-9.731,-6.789,25.542,25.757
-11.062,16.861,-11.088,15.216,-11.285,-7.2,16.4,16.089
-9.883,27.128,-10.427,22.699,-11.152,-6.192,20.794,18.9
-8.183,39.015,-8.633,35.588,-9.422,-4.603,29.54,27.238
-7.767,38.598,-7.568,38.666,-8.122,-3.342,30.804,28.973
-7.923,30.351,-7.301,32.382,-7.612,-2.19,23.264,21.628
-7.958,25.975,-7.274,27.008,-7.522,-1.831,15.339,15.85
-8.54,26.733,-7.712,26.878,-7.924,-3.072,13.833,19.156
-9.361,30.706,-8.439,32.8,-8.711,-4.859,20.93,29.295
-9.527,38.018,-8.773,42.461,-9.567,-5.832,33.405,40.069
-9.262,45.965,-8.47,49.66,-9.753,-5.892,43.683,45.251
-8.743,50.978,-7.865,51.137,-8.947,-5.432,45.754,42.631
-8.091,52.236,-7.815,47.891,-8.634,-5.525,41.367,36.835
-7.967,51.335,-8.641,42.062,-9.753,-7.384,35.395,32.92
-7.596,45.95,-8.909,30.848,-10.243,-9.726,24.553,25.124
-5.886,35.309,-7.672,14.413,-8.695,-10.209,9.603,8.97
-4.41,26.589,-6.346,3.257,-6.993,-9.198,2.057,-4.757
-5.101,24.266,-6.23,3.598,-6.715,-8.492,5.15,-6.182
-6.765,26.874,-6.529,11.214,-6.826,-8.132,11.486,1.288
-6.49,30.687,-5.886,18.661,-5.883,-6.883,15.71,8.101
-3.722,34.054,-4.626,23.679,-4.634,-4.797,19.424,11.683
-1.131,38.253,-4.099,28.938,-4.699,-3.179,23.823,17.55
-0.726,43.094,-4.094,34.828,-5.233,-2.234,26.215,25.779
-1.081,49.436,-3.218,40.734,-4.333,-1.094,27.994,29.731
-0.234,55.778,-1.525,44.448,-2.42,0.237,30.893,27.273
1.198,58.258,-0.371,45.558,-1.084,1.221,33.514,26.939
1.931,57.117,-0.14,46.286,-0.572,2.096,34.451,33.24
1.968,53.447,-0.228,44.347,-0.388,2.981,32.177,35.407
2.082,49.595,-0.246,40.047,-0.321,3.358,27.803,29.008
3.291,48.279,0.404,37.552,0.283,3.738,23.461,23.304
5.559,49.982,2.154,38.488,1.966,5.067,21.944,23.723
7.494,51.303,3.8,40.004,3.528,6.41,24.587,25.793
8.267,46.587,3.769,36.167,3.351,6.026,26.875,22.662
8.533,42.793,3.017,31.488,2.488,4.516,27.057,17.725
9.452,51.994,4.085,37.044,3.595,4.631,29.678,21.357
10.892,66.932,6.897,49.024,6.445,6.81,35.108,32.953
11.766,67.732,9.017,48.999,8.388,8.275,33.052,35.468
12.303,50.485,9.588,29.411,8.521,7.872,18.18,18.002
13.4,32.449,9.604,6.942,8.044,7.284,2.89,-3.827
14.424,21.264,9.682,-4.915,7.987,7.679,-5.429,-14.177
13.899,10.082,9.381,-9.851,7.957,8.516,-12.643,-17.841
12.053,2.195,8.549,-11.027,7.373,9.047,-19.976,-21.477
10.979,3.469,8.057,-9.47,6.922,9.58,-24.744,-24.858
11.8,8.052,8.265,-7.792,7.105,10.738,-26.532,-25.75
13.274,7.58,8.431,-8.216,7.271,11.877,-26.7,-24.518
13.846,3.345,8.404,-10.356,7.183,12.012,-26.08,-23.482
14.052,2.491,9.361,-11.201,7.91,11.855,-24.643,-23.18
15.295,6.548,11.762,-9.499,10.103,12.56,-22.911,-23.676
16.843,13.511,14.073,-4.152,12.597,13.624,-18.489,-21.291
16.972,20.104,14.962,3.285,14.015,13.937,-9.837,-13.01
16.223,24.262,14.951,9.983,14.258,13.743,0.021,-2.413
16.447,27.906,15.219,17.007,14.182,14.434,6.76,5.908
17.888,31.52,15.901,23.043,14.439,16.082,9.009,9.365
19.629,36.556,16.416,25.875,14.861,17.07,10.24,10.097
20.886,42.913,16.878,26.022,15.284,17.089,11.171,11.246
20.856,45.352,17.535,25.095,15.766,17.043,11.607,12.329
20.034,42.164,17.94,23.099,16.185,16.566,12.547,11.257
20.316,36.439,17.841,16.805,16.366,15.171,9.589,5.837
22.119,32.675,17.815,9.337,16.521,14.189,2.461,0.607
24.007,33.028,18.49,8.235,17.163,14.984,-0.966,1.621
24.952,37.269,19.451,13.812,17.95,16.625,3.791,5.421
25.259,43.893,20.076,19.468,18.39,17.652,10.43,5.49
25.373,47.365,20.535,19.579,18.978,18.217,9.929,2.061
25.048,45.066,20.941,17.955,19.668,18.711,6.729,1.91
24.918,39.581,21.266,19.063,19.94,19.175,8.464,5.572
26.5,35.535,21.942,21.365,20.462,20.279,10.965,7.738
29.049,37.312,22.846,24.223,21.655,22.056,8.525,9.027
29.711,42.412,22.857,26.12,22.156,22.83,4.275,10.613
28.272,46.521,22.003,26.181,21.375,21.878,5.195,11.58
27.671,47.773,22.005,24.825,21.014,20.958,9.354,10.686
28.623,46.636,23.35,22.196,21.924,21.39,10.089,7.16
29.16,45.338,24.899,19.351,23.228,22.541,6.791,3.445
28.88,40.022,25.958,14.874,24.486,23.336,1.536,0.482
28.519,29.041,26.195,10.788,25.237,23.346,-1.759,-0.859
28.117,21.671,25.632,12.485,24.835,23.234,0.299,1.16
27.985,26.336,24.935,19.92,23.693,23.563,7.205,6.806
28.338,38.493,24.239,28.263,22.474,23.416,15.507,15.719
28.056,44.594,23.216,31.538,21.307,22.011,20.531,21.874
26.569,42.801,22.643,30.807,20.866,20.514,22.043,19.942
25.595,43.226,23.667,32.334,22.088,20.572,22.412,15.46
26.218,47.299,25.487,36.816,24.154,21.788,24.198,16.666
26.746,47.046,26.088,38.856,25.052,22.273,28.115,21.234
25.527,39.683,24.767,34.57,23.898,21.343,28.889,21.527
23.6,32.878,23.035,29.598,22.021,20.227,26.14,20.676
23.192,30.529,23.019,28.378,21.866,20.173,25.369,21.77
24.466,28.926,24.249,27.513,23.388,20.625,23.39,18.68
25.757,29.031,24.491,27.34,23.958,20.514,14.477,12.335
26.467,32.482,23.843,29.663,23.1,20.504,7.53,10.488
27.455,38.307,24.108,33.63,22.993,21.704,14.229,16.131
29.297,45.232,25.182,35.98,24.167,23.223,23.798,22.44
31.221,50.275,25.403,33.369,24.681,23.217,19.965,20.748
31.913,51.179,24.65,28.864,23.929,21.89,8.002,14.884
31.264,48.304,24.267,26.819,23.526,21.129,1.841,13.482
30.62,46.546,24.497,28.118,23.892,21.637,4.736,17.891
31.095,46.542,24.581,27.786,23.903,22.542,7.449,20.698
31.819,41.024,23.978,18.877,23.207,22.292,3.833,13.621
31.466,29.477,22.695,4.518,22.3,20.383,-0.06,-0.122
31.334,20.093,21.908,-6.549,21.969,19.065,-3.534,-11.904
32.957,21.389,22.498,-8.742,22.536,19.836,-14.291,-17.322
34.278,33.182,23.026,-2.718,22.722,20.593,-27.371,-15.664
33.086,44.312,22.073,4.889,21.386,19.753,-26.016,-8.928
31.367,45.601,21.187,7.702,20.235,18.971,-11.144,-2.332
31.567,38.95,22.097,4.076,21.264,19.546,-2.743,-2.156
32.13,32.745,23.228,-0.253,22.832,20.107,-5.985,-6.086
31.071,28.905,22.745,-0.437,22.639,19.664,-9.332,-6.884
29.371,25.165,21.678,2.488,21.402,19.219,-5.707,-3.581
28.09,24.605,21.53,8,20.838,19.482,1.858,0.966
26.664,25.721,21.941,12.584,21.275,19.625,4.672,3.027
25.003,22.903,21.819,12.487,21.692,18.959,1.541,1.838
24.099,17.667,21.374,10.28,21.487,18.588,-1.429,0.462
23.578,15.699,21.289,10.347,21.315,19.359,-1.138,1.859
21.528,16.505,20.693,12.838,20.899,19.854,2.404,6.755
18.094,11.591,18.749,12.202,19.091,18.825,6.327,10.937
15.943,2.159,16.995,8.767,17.171,17.509,8.221,12.246
16.183,-0.926,17.194,8.882,17.644,17.448,8.78,13.528
16.733,1.738,18.218,10.889,19.511,17.625,8.994,15.355
15.639,0.529,17.814,8.204,19.299,16.552,7.329,14.998
13.219,-7.836,15.801,0.364,16.389,14.834,2.324,9.704
10.706,-15.21,13.734,-5.114,13.569,13.309,-1.401,2.369
9.372,-14.152,13.126,-5.12,13.075,12.076,-0.727,-2.247
9.535,-9.481,14.059,-4.526,14.459,11.413,1.248,-3.471
10.055,-9.335,15.215,-4.525,15.983,11.628,1.617,-2.322
10.053,-13.793,15.528,-3.386,16.498,12.467,0.073,-1.648
9.373,-14.874,14.8,0.521,15.678,12.913,1.566,-0.411
8.281,-9.682,13.649,7.118,14.231,12.552,9.238,5.779
7.728,-4.185,12.992,13.356,13.446,12.147,17.485,15.426
8.297,-0.888,12.771,16.809,13.497,11.768,19.279,21.186
9.142,1.848,12.267,15.266,13.512,10.596,14.216,16.218
9.059,5.336,11.334,10.679,12.799,8.88,9.793,6.012
8.113,6.404,10.406,6.364,11.263,7.95,8.166,1.084
6.846,-0.668,9.645,1.413,9.454,7.943,2.888,-0.516
5.357,-13.505,9.079,-4.23,8.478,7.958,-7.222,-5.028
4.373,-24.419,9.099,-10.494,8.937,8.06,-16.704,-11.854
4.838,-27.11,9.659,-15.35,9.811,8.597,-18.647,-15.47
6.184,-22.384,10.092,-16.146,9.849,9.184,-13.864,-15.195
6.464,-19.242,9.655,-15.537,8.924,9.015,-12.283,-15.921
4.902,-22.056,8.106,-16.433,7.492,7.523,-17.969,-17.845
3.239,-25.241,6.394,-18.233,6.226,5.569,-24.813,-18.544
3.004,-21,5.56,-15.684,5.543,4.588,-23.371,-14.223
3.586,-11.094,5.674,-6.874,5.649,4.439,-10.718,-3.583
3.871,-3.928,6.388,0.642,6.72,4.077,4.579,5.066
3.609,-1.539,6.934,1.258,7.835,3.561,10.258,4.995
2.749,-2.133,6.379,-1.137,7.425,3.465,5.167,1.579
1.039,-3.498,5.04,2.877,5.662,3.587,4.13,5.988
-0.845,-4.587,4.251,12.327,4.342,3.806,13.454,17.073
-1.403,-3.686,4.398,16.309,4.244,4.346,21.24,22.941
0.166,5.486,5.33,16.125,5.214,5.11,22.799,23.301
2.96,21.214,7.055,20.487,7.083,5.795,26.091,26.106
4.538,31.178,8.347,27.903,8.623,5.63,33.089,31.592
3.739,26.845,8.013,28.686,8.585,4.35,33.383,31.871
2.353,14.833,6.897,22.034,7.532,3.308,23.949,25.085
2.263,10.454,6.288,18.985,6.865,3.52,17.936,21.147
2.774,14.685,5.878,21.988,6.539,4.199,21.785,23.171
2.088,17.113,4.526,24.273,5.104,4.356,26.906,24.434
0.609,13.261,2.585,20.477,2.824,4.059,22.033,20.43
0.278,7.132,1.479,12.168,1.624,3.612,9.902,13.67
1.192,6.313,1.638,9.678,1.812,3.321,6.877,12.762
1.74,8.976,2.491,13.168,2.362,3.469,13.602,17.044
0.929,8.149,2.95,12.369,2.594,3.27,13.93,16.119
-0.843,5.593,2.029,7.595,1.931,2.041,4.481,7.765
-2.654,5.837,-0.108,7.29,0.071,0.701,-0.995,1.041
-3.793,6.907,-2.117,10.523,-1.961,-0.224,3.584,2.955
-3.938,3.463,-2.987,6.412,-2.905,-1.421,5.364,6.521
-3.502,-1.175,-3.159,-3.379,-3.094,-2.463,-2.542,3.771
-3.065,-1.296,-2.986,-7.49,-2.934,-2.207,-10.52,-1.783
-3.055,-1.669,-2.376,-7.376,-2.184,-1.714,-11.013,-4.385
-3.978,-7.077,-2.392,-10.511,-1.862,-2.876,-7.404,-4.269
-5.541,-14.293,-3.94,-17.258,-3.163,-4.987,-7.113,-6.394
-6.513,-16.806,-5.605,-21.211,-4.769,-6.058,-9.537,-9.431
-6.018,-14.323,-5.363,-19.982,-4.31,-5.588,-10.899,-9.773
-5.293,-13.743,-4.335,-18.708,-2.931,-4.806,-12.44,-11.602
-6.967,-18.319,-5.52,-19.583,-4.301,-5.042,-15.787,-16.782
-11.004,-27.116,-8.69,-23.12,-8.161,-6.45,-22.668,-23.345
-14.461,-35.941,-11.103,-28.363,-10.882,-8.923,-28.579,-28.271
-15.396,-39.798,-11.551,-31.423,-11.156,-11.47,-26.983,-28.408
-14.362,-38.539,-10.708,-30.559,-10.333,-11.901,-23.248,-26.421
-12.984,-34.507,-9.743,-26.701,-9.693,-10.307,-23.549,-26.178
-12.098,-32.087,-9.175,-24.877,-9.306,-9.02,-25.669,-28.039
-11.542,-32.739,-8.777,-26.719,-8.688,-8.87,-25.721,-27.701
-11.206,-33.451,-8.75,-28.19,-8.158,-9.111,-24.571,-22.865
-11.605,-33.051,-10.01,-29.026,-8.998,-9.782,-25.616,-20.05
-13.164,-32.684,-12.573,-31.578,-11.623,-11.527,-28.182,-23.514
-14.849,-36.406,-14.549,-38.492,-13.99,-13.475,-31.867,-29.777
-14.801,-43.278,-14.119,-46.754,-13.647,-13.555,-36.933,-33.38
-12.94,-46.657,-11.952,-49.217,-11.268,-11.672,-39.898,-33.514
-11.77,-46.037,-10.649,-46.075,-9.989,-10.707,-36.364,-31.394
-12.832,-43.248,-11.064,-40.721,-10.551,-12.056,-26.933,-25.596
-14.212,-38.509,-11.167,-35.256,-10.51,-13.427,-18.246,-20.979
-14.145,-32.694,-10.123,-30.056,-9.286,-13.305,-13.024,-21.361
-13.661,-29.096,-9.753,-26.37,-9.104,-12.941,-11.5,-22.432
-14.198,-32.192,-11.012,-28.778,-10.566,-13.741,-16.193,-24
-15.15,-38.893,-12.216,-35.588,-11.496,-15.307,-23.283,-27.309
-15.171,-41.328,-12.047,-39.514,-10.911,-16.332,-25.05,-29.404
-15.217,-36.637,-12.202,-37.081,-11.147,-16.992,-19.516,-27.416
-16.884,-30.99,-14.166,-32.954,-13.658,-17.958,-14.792,-24.484
-18.948,-32.879,-16.282,-33.888,-16.292,-18.728,-18.714,-25.619
-19.162,-39.92,-16.55,-36.567,-16.827,-18.896,-25.14,-26.647
-17.774,-43.974,-15.674,-34.891,-16.013,-18.693,-26.512,-24.063
-17.165,-41.7,-16.03,-29.638,-16.266,-18.688,-24.669,-21.831
-18.062,-35.061,-17.748,-24.623,-17.82,-18.87,-22.916,-21.911
-18.466,-26.193,-18.152,-19.573,-18.145,-18.047,-18.896,-20.653
-17.178,-14.345,-16.262,-9.555,-16.28,-15.672,-10.059,-13.329
-15.252,-3.444,-14.311,2.657,-14.414,-12.949,-3.723,-3.942
-13.887,2.172,-13.977,10.015,-14.229,-11.562,-4.263,1.613
-13.183,5.093,-14.119,13.08,-14.488,-12.019,-4.016,5.911
-12.67,7.996,-13.278,15.663,-13.691,-13.212,1.943,11.87
-12.123,8.448,-12.119,16.947,-12.757,-13.686,7.887,16.109
-12.089,0.524,-12.18,10.333,-13.047,-13.478,4.841,11.508
-13.013,-10.907,-13.492,-1.204,-14.118,-13.805,-3.976,1.169
-13.81,-11.347,-14.328,-4.49,-14.501,-14.585,-6.677,-2.295
-13.464,0.456,-13.892,1.551,-13.789,-15.043,-2.109,2.426
-12.948,11.508,-13.756,6.184,-13.575,-15.829,0.891,5.487
-13.641,10.897,-15.265,3.038,-15.545,-17.497,-1.621,2.044
-15.45,2.023,-17.576,-2.402,-18.844,-19.231,-3.452,-1.036
-16.597,-5.399,-18.735,-4.522,-20.645,-19.8,-3.347,-0.177
-16.093,-11.057,-18.373,-7.632,-20.15,-18.947,-8.969,-4.042
-15.931,-18.081,-18.431,-13.639,-19.691,-17.984,-19.514,-14.335
-17.78,-25.966,-19.882,-18.647,-20.621,-18.016,-25.951,-21.254
-20.24,-30.478,-21.179,-18.283,-21.523,-18.75,-22.518,-17.918
-21.375,-28.035,-21.077,-12.599,-21.149,-19.515,-13.823,-9.01
-21.317,-23.08,-20.709,-9.574,-20.668,-20.154,-11.038,-6.201
-21.199,-22.485,-21.398,-15.197,-21.531,-20.678,-18.535,-13.661
-20.979,-28.05,-22.164,-27.044,-22.599,-20.528,-32.414,-26.492
-20.098,-34.372,-21.762,-35.542,-22.188,-19.427,-43.195,-35.809
-19.025,-36.133,-21.064,-34.464,-21.238,-18.396,-43.183,-35.362
-18.786,-34.621,-21.493,-29.12,-21.767,-18.725,-35.109,-28.572
-19.314,-30.147,-22.494,-24.458,-23.188,-20.029,-26.907,-22.272
-19.548,-23.181,-22.336,-20.235,-23.097,-20.569,-24.596,-19.54
-19.513,-16.706,-21.328,-15.132,-21.792,-20.21,-25.945,-17.595
-19.599,-11.909,-21.031,-10.139,-21.497,-20.303,-24.64,-13.774
-19.085,-8.08,-21.163,-7.848,-21.95,-20.719,-19.865,-9.837
-18.188,-3.562,-21.048,-6.036,-21.902,-20.887,-13.73,-5.919
-18.41,0.197,-21.54,-3.554,-22.178,-21.829,-8.267,-2.915
-19.436,2.869,-22.674,-2.711,-23.225,-23.781,-3.691,-2.567
-19.316,5.57,-22.798,-6.252,-23.374,-24.898,-2.424,-5.153
-18.156,4.446,-21.705,-14.448,-22.085,-24.481,-8.618,-10.391
-17.659,-0.152,-20.968,-18.022,-20.979,-23.94,-16.407,-12.209
-17.719,-3.304,-21.07,-11.903,-21.01,-24.158,-15.619,-6.152
-17.271,-4.799,-21.252,-4.691,-21.666,-24.445,-6.341,1.356
-16.663,-8.07,-21.18,-4.699,-22.27,-23.525,-1.925,-0.195
-17.117,-13.506,-21.241,-10.466,-22.657,-21.491,-12.015,-11.114
-18.611,-15.726,-21.463,-13.899,-22.714,-20.265,-25.139,-17.589
-19.552,-13.38,-21.512,-13.207,-22.517,-20.826,-26.851,-13.302
-19.608,-10.809,-21.919,-12.541,-22.983,-22.002,-19.692,-7.786
-20.127,-12.421,-22.951,-14.829,-24.133,-22.501,-16.919,-10.147
-21.03,-19.285,-23.6,-20.861,-24.638,-22.112,-23.239,-19.36
-20.86,-25.01,-23.236,-25.741,-24.064,-21.333,-27.414,-25.949
-19.884,-27.908,-22.563,-28.402,-23.106,-21.191,-26.215,-26.945
-20.13,-33.534,-22.744,-33.319,-22.651,-22.401,-30.29,-28.729
-21.602,-41.036,-23.433,-39.028,-22.702,-23.701,-39.971,-32.609
-22.214,-44.384,-23.327,-39.824,-22.591,-23.382,-42.463,-33.251
-21.932,-40.544,-23.033,-33.722,-22.74,-22.253,-34.272,-29.112
-22.249,-36.028,-23.718,-30.138,-23.41,-22.216,-30.508,-27.851
-23.075,-38.869,-24.635,-36.986,-23.787,-23.26,-37.887,-32.198
-23.349,-45.675,-24.745,-45.263,-23.85,-23.779,-41.97,-34.009
-22.756,-47.839,-24.174,-44.907,-23.918,-23.241,-33.779,-30.163
-21.63,-43.865,-23.382,-40.557,-23.579,-22.677,-24.524,-27.124
-20.148,-42.319,-22.578,-44.298,-22.745,-22.552,-30.414,-33.816
-18.466,-45.735,-21.81,-54.25,-21.826,-22.734,-46.65,-47.077
-17.119,-45.489,-20.866,-55.98,-20.737,-23.449,-51.077,-50.576
-16.867,-41.085,-19.965,-48.224,-19.597,-24.353,-38.27,-40.709
-18.09,-40.491,-20.383,-43.879,-19.836,-24.687,-28.264,-33.632
-19.998,-45.909,-22.564,-50.71,-22.176,-24.675,-37.31,-41.084
-20.895,-49.806,-24.457,-58.658,-24.32,-24.667,-51.433,-52.114
-19.663,-47.256,-23.824,-54.633,-23.502,-23.88,-50.586,-51.145
-17.549,-44.945,-21.842,-44.744,-20.993,-22.381,-41.984,-42.44
-17.091,-45.588,-21.244,-40.417,-20.144,-21.794,-38.159,-37.196
-18.35,-43.5,-21.658,-40.513,-20.843,-22.164,-34.381,-35.316
-19.402,-37.071,-21.25,-36.582,-20.865,-21.742,-24.99,-30.219
-19.673,-32.887,-20.355,-29.335,-19.956,-20.254,-19.351,-24.145
-20.009,-37.113,-20.376,-30.303,-19.489,-19.394,-26.856,-26.702
-20.867,-43.663,-21.532,-38.967,-20.399,-20.098,-36.885,-35.327
-21.487,-44.955,-22.385,-43.11,-21.505,-20.976,-37.056,-39.251
-20.985,-42.793,-21.481,-37.858,-20.675,-20.208,-31.124,-35.007
-19.516,-40.227,-19.479,-29.205,-18.425,-18.051,-27.167,-27.721
-18.013,-37.217,-18.336,-26.015,-17.274,-16.881,-27.086,-24.939
-17.295,-32.264,-18.316,-28.359,-17.406,-18.168,-27.126,-26.385
-17.177,-26.797,-17.967,-29.838,-17.115,-19.944,-23.886,-26.388
-17.057,-21.26,-17.218,-25.018,-16.765,-19.908,-15.454,-20.692
-16.674,-13.099,-16.896,-13.241,-17.179,-18.916,-2.961,-8.639
-16.053,-3.853,-16.145,1.48,-16.574,-18.399,10.124,5.762
-15.297,7.065,-13.936,19.462,-13.798,-17.41,25.428,21.137
-13.905,24.468,-11.297,42.084,-11.046,-14.841,45.662,39.697
-11.782,47.489,-9.853,65.245,-10.258,-12.236,68.779,61.746
-10.086,62.92,-9.242,78.042,-9.912,-11.162,83.211,77.858
-9.073,55.805,-7.978,69.255,-8.15,-10.314,75.769,73.106
-7.723,32.691,-6.162,45.608,-5.965,-8.344,52.138,50.474
-6.271,11.268,-5.05,21.468,-4.674,-6.411,25.42,24.562
-6.172,-3.445,-5.051,0.775,-4.146,-6.185,1.244,1.621
-7.368,-15.564,-5.661,-16.815,-4.329,-7.433,-15.778,-16.49
-8.506,-27.154,-6.562,-30.389,-5.418,-8.69,-23.252,-27.767
-9.311,-34.176,-7.737,-35.443,-7.153,-8.959,-22.863,-29.913
-9.932,-35.794,-8.788,-31.997,-8.764,-8.063,-20.332,-26.277
-9.923,-36.328,-9.009,-28.295,-9.101,-6.772,-21.653,-25.292
-9.014,-33.476,-8.02,-26.199,-7.754,-6.019,-24.414,-26.131
-7.106,-21.579,-6.299,-18.137,-6.081,-5.515,-18.682,-18.718
-4.401,-5.524,-4.685,-2.078,-5.184,-4.476,-2.158,-1.435
-2.406,2.17,-3.527,11.088,-4.334,-3.345,11.837,12.1
-2.602,5.799,-2.855,18.083,-3.112,-3.361,18.129,17.384
-3.427,20.357,-2.021,29.694,-1.837,-4.081,27.578,27.193
-2.404,39.935,-0.447,46.778,-0.661,-3.735,43.044,44.477
-0.379,48.862,0.942,57.908,0.117,-2.339,54.426,57.3
0.56,45.32,1.311,55.602,0.689,-1.126,52.25,55.798
0.405,38.534,1.075,46.9,1.207,-0.223,42.935,45.119
0.457,35.567,1.004,43.675,1.347,0.716,40.13,39.085
1.195,33.522,1.296,43.753,1.039,1.176,41.551,39.452
1.612,25.626,1.396,37.764,0.327,0.654,35.827,36.35
1.354,8.564,1.337,22.927,-0.044,0.208,20.352,23.407
1.532,-6.97,1.712,9.484,0.541,1.173,7.809,9.777
2.578,-3.719,2.506,10.696,1.566,3.297,10.207,9.708
3.392,13.165,3.228,21.763,2.6,5.38,19.984,18.987
2.959,23.787,3.404,28.165,3.325,6.291,24.208,24.232
2.166,22.861,3.333,24.852,3.561,5.704,20.293,22.219
2.551,21.686,3.619,21.44,3.486,4.625,17.062,20.959
3.805,26.046,3.972,28.336,3.054,4.542,23.398,27.328
4.33,27.461,3.835,37.505,2.47,5.478,32.506,34.106
3.732,21.283,3.525,35.771,2.512,6.065,32.113,31.002
3.671,11.85,4.217,24.871,3.968,6.274,22.77,20.106
5.16,7.08,6.165,17.672,6.371,6.952,17.052,13.272
6.624,10.665,7.582,17.552,7.731,7.159,18.622,13.861
6.88,13.258,7.277,13.427,7.366,6.045,16.94,11.291
7.308,8.889,6.733,5.505,7.136,5.448,11.777,4.4
8.824,3.28,7.424,3.353,8.225,6.521,11.509,2.726
9.517,0.825,7.96,3.875,8.927,6.494,13.755,6.68
8.013,0.621,6.574,-0.502,7.414,4.052,9.498,6.379
6.32,1.862,4.573,-6.277,5.159,2.704,-0.109,-1.639
6.523,8.405,4.393,-1.75,4.898,4.153,-1.248,-3.395
7.842,18.522,5.996,13.174,6.455,6.027,8.699,7.801
8.469,20.54,7.363,23.279,7.361,6.885,16.405,16.564
7.798,8.801,7.515,19.317,6.889,7.248,14.882,12.619
6.393,-6,7.336,9.241,6.668,7.501,9.733,4.986
5.318,-8.259,7.528,5.991,7.324,7.698,7.958,4.534
5.292,-2.008,7.501,6.612,7.462,8.012,6.969,5.895
5.569,-2.206,6.607,1.389,6.296,8.136,3.144,0.74
5.574,-5.591,5.752,-5.026,5.43,8.02,-0.974,-4.85
6.464,-0.171,6.655,-3.186,6.839,8.826,-3.05,-2.908
8.268,11.88,8.95,6.979,9.52,10.72,-0.595,5.149
8.926,17.377,9.957,15.665,10.291,11.988,3.863,10.56
7.717,12.2,8.322,15.108,8.094,11.549,4.746,7.762
6.333,3.207,6.116,5.996,5.736,10.107,0.548,-0.857
5.995,-6.257,5.523,-8.314,5.615,8.762,-8.669,-12.253
5.839,-14.172,5.828,-19.737,6.2,7.746,-17.048,-20.51
5.053,-19.649,5.957,-24.025,6.003,7.085,-20.362,-22.419
4.277,-24.652,6.121,-26.504,6.003,7.044,-22.529,-23.567
4.529,-27.112,6.595,-29.595,6.85,7.445,-25.025,-26.494
5.517,-25.339,7.283,-31.38,7.874,7.753,-25.555,-28.206
5.332,-22.951,7.363,-31.361,7.873,7.451,-23.599,-27.765
3.678,-26.347,6.153,-34.017,6.575,6.315,-24.591,-30.094
2.655,-35.763,4.465,-41.404,5.201,4.814,-30.714,-36.709
3.062,-43.733,3.958,-46.655,5.052,4.247,-33.642,-39.697
3.953,-46.505,5.251,-44.954,6.393,5.322,-29.646,-35.585
4.763,-43.646,6.829,-38.744,7.871,6.469,-24.331,-29.464
4.944,-37.378,6.837,-34.781,7.69,6.148,-23.439,-27.983
3.928,-31.856,5.536,-34.524,6.091,5.58,-26.673,-31.876
3.035,-26.412,4.731,-31.206,5.032,6.267,-27.996,-32.569
3.742,-19.884,5.134,-23.132,5.316,7.235,-21.598,-23.561
4.62,-13.313,5.77,-13.887,5.948,7.005,-7.01,-8.428
4.202,-8.643,5.893,-7.236,6.275,5.913,6.241,2.474
3.929,-4.708,5.779,-3.369,6.638,5.195,10.195,4.62
5.33,1.567,6.142,1.795,7.401,5.909,8.818,3.892
7.043,5.047,7.001,6.636,8.227,7.757,7.177,3.271
6.818,2.357,7.182,7.873,8.114,8.452,8.104,2.864
5.16,0.023,6.188,7.707,6.883,7.327,13.134,5.202
4.238,3.09,5.277,10.874,5.955,6.98,20.866,11.561
4.375,7.56,5.475,17.016,6.441,8.66,25.389,17.526
4.185,4.472,5.935,16.59,7.273,10.053,19.958,14.241
3.289,-3.827,5.583,7.499,7.008,9.04,11.621,4.817
3.015,-5.111,5.054,-0.045,6.428,6.551,12.844,3.317
4.012,3.464,5.132,0.866,6.667,4.8,21.698,12.484
5.093,11.906,5.2,6.003,6.856,4.6,25.493,19.88
5.007,9.64,4.5,5.311,5.872,4.935,18.509,15.144
3.889,0.72,3.372,-0.708,4.422,4.662,11.264,5.454
2.806,-2.715,2.806,-3.828,3.973,3.943,10.325,2.465
2.275,2.657,3.026,-1.993,4.314,3.554,8.492,5.256
2.09,9.996,3.331,2.098,4.058,3.824,4.107,7.605
2.185,10.215,3.211,4.152,3.118,4.339,2.525,6.608
2.421,4.036,2.969,3.141,2.647,4.828,2.671,3.293
2.372,-4.357,3.361,-1.889,3.398,5.696,-3.64,-3.36
1.564,-15.654,3.918,-13.114,4.339,5.996,-15.742,-13.846
0.064,-24.254,3.175,-24.344,3.646,4.106,-22.054,-21.587
-1.076,-21.4,1.408,-26.275,1.556,1.288,-18.956,-21.944
-0.891,-7.787,0.329,-17.623,-0.129,0.085,-12.697,-16.575
0.289,3.794,0.332,-9.942,-0.671,0.362,-11.386,-12.908
0.877,1.007,0.095,-13.794,-0.946,0.126,-16.239,-16.931
-0.276,-10.482,-1.069,-20.179,-1.76,-1.14,-18.408,-21.317
-2.117,-14.494,-2.103,-15.609,-2.498,-2.225,-13.058,-16.226
-2.972,-5.919,-2.349,-3.105,-2.574,-2.611,-5.966,-4.965
-3.168,2.947,-2.647,2.893,-2.797,-2.82,-5.508,-0.439
-4.06,3.023,-3.478,-0.402,-3.786,-3.077,-8.453,-4.749
-5.067,1.527,-3.756,-1.208,-4.419,-2.935,-4.159,-5.496
-4.69,2.353,-2.905,0.915,-3.832,-2.121,2.003,-1.867
-3.885,-1.682,-2.592,-5.18,-3.458,-1.671,-4.973,-6.709
-4.619,-16.497,-4.043,-22.532,-4.448,-2.918,-24.964,-23.607
-6.462,-34.956,-5.865,-39.768,-5.675,-5.095,-40.489,-39.769
-7.037,-39.635,-6.087,-41.461,-5.69,-5.561,-39.878,-41.654
-5.429,-27.644,-4.907,-29.515,-4.785,-3.836,-31.966,-33.189
-3.965,-15.223,-4.672,-20.296,-4.999,-3.224,-27.111,-26.118
-4.76,-14.483,-6.407,-21.822,-7.148,-5.214,-26.378,-24.705
-6.857,-20.686,-8.074,-26.278,-8.945,-6.871,-27.447,-26.197
-8.525,-24.715,-7.909,-26.124,-8.443,-6.7,-26.968,-26.406
-9.333,-27.12,-7.242,-26.382,-7.349,-6.643,-26.326,-26.416
-9.596,-27.765,-8.111,-27.747,-8.235,-7.52,-27.842,-26.61
-9.943,-23.523,-10.055,-23.796,-10.519,-8.277,-29.112,-24.037
-11.293,-17.517,-11.683,-16.955,-12.409,-9.056,-26.924,-19.771
-13.376,-13.408,-12.865,-14.823,-13.603,-10.666,-23.467,-17.772
-14.243,-12.785,-13.606,-20.118,-13.883,-12.266,-24.694,-20.884
-12.999,-15.757,-13.437,-25.67,-12.861,-12.397,-27.717,-25.171
-11.122,-20.456,-12.361,-23.861,-11.177,-11.019,-26.543,-24.777
-10.373,-23.544,-11.252,-18.829,-10.104,-9.637,-23.291,-21.825
-10.849,-22.416,-11.172,-19.117,-10.542,-9.595,-22.917,-22.28
-11.952,-21.484,-12.51,-26.841,-12.354,-10.761,-28.284,-28.767
-13.719,-23.751,-14.674,-33.515,-14.45,-12.215,-34.041,-34.441
-15.285,-24.816,-16.251,-32.035,-15.712,-13.124,-32.692,-31.527
-14.987,-22.323,-16.283,-27.835,-15.881,-13.533,-27.756,-24.696
-13.628,-17.97,-15.513,-26.837,-15.637,-14.238,-27.126,-22.173
-14.112,-15.06,-15.457,-27.529,-15.895,-15.371,-30.214,-24.504
-16.521,-15.294,-15.92,-25.794,-16.194,-16.202,-29.111,-25.689
-17.557,-17.473,-15.258,-21.011,-15.138,-16.019,-22.586,-22.321
-16.444,-17.906,-14.119,-14.632,-13.841,-15.07,-15.118,-16.355
-15.739,-13.907,-14.378,-8.542,-14.279,-14.318,-9.073,-10.781
-15.9,-10.369,-14.892,-8.228,-14.929,-13.806,-8.842,-10.745
-15.415,-9.293,-14.027,-10.986,-14.149,-12.765,-12.254,-14.957
-14.784,-5.513,-13.265,-8.044,-13.687,-12.02,-10.386,-13.537
-15.706,-0.324,-14.327,-2.817,-14.943,-13.502,-4.092,-4.67
-17.606,-0.748,-15.936,-2.837,-16.275,-15.981,-1.974,1.894
-17.99,-7.859,-15.829,-6.372,-15.844,-15.979,-5.846,0.134
-16.348,-12.693,-14.232,-7.234,-14.467,-13.633,-7.765,-3.017
-15.015,-11.255,-13.254,-8.059,-13.914,-12.273,-7.735,-4.502
-15.588,-12.498,-13.97,-15.316,-14.515,-13.017,-14.521,-11.569
-16.562,-18.941,-15.328,-22.045,-15.567,-13.621,-22.581,-20.563
-15.822,-20.811,-15.456,-18.819,-15.853,-12.692,-18.464,-18.869
-14.012,-13.245,-13.886,-11.063,-14.347,-11.805,-6.098,-7.171
-12.96,-5.949,-11.965,-11.707,-12.019,-11.628,-4.02,-2.46
-12.674,-8.8,-11.081,-20.855,-11.122,-10.786,-15.335,-12.651
-12.351,-18.292,-11.063,-25.38,-11.552,-9.664,-22.912,-22.314
-12.503,-27.447,-11.163,-22.777,-11.402,-10.077,-20.144,-20.617
-13.881,-32.341,-11.773,-22.331,-11.151,-11.853,-17.773,-17.335
-15.079,-33.456,-13.022,-28.798,-12.289,-12.972,-24.764,-23.195
-14.344,-34.61,-13.697,-37.239,-13.689,-12.445,-35.321,-32.716
-12.747,-35.725,-13.102,-39.215,-13.341,-11.28,-37.323,-33.268
-12.572,-36.922,-12.338,-36.276,-11.967,-10.864,-33.104,-27.592
-14.367,-39.322,-12.978,-34.991,-12.14,-11.607,-31.455,-26.587
-16.511,-39.418,-14.269,-34.068,-13.629,-12.3,-29.904,-28.782
-17.088,-31.173,-13.999,-27.439,-13.754,-11.651,-21.394,-24.415
-15.955,-14.437,-12.117,-12.751,-12.057,-10.291,-7.213,-10.357
-14.255,-0.231,-10.184,3.602,-10.113,-9.174,4,4.403
-12.93,3.889,-8.989,13.683,-8.95,-8.461,9.706,12.493
-11.856,3.245,-8.184,16.372,-8.349,-8.324,14.915,17.13
-10.374,6.528,-7.016,18.925,-7.368,-8.392,24.158,23.99
-8.676,17.493,-5.436,27.99,-5.782,-7.73,35.158,33.214
-7.442,30.077,-4.18,35.792,-4.442,-6.561,38.538,37.765
-6.848,37.541,-3.852,35.916,-4.237,-6.226,34.943,36.181
-6.63,40.988,-4.469,37.505,-5.272,-6.737,36.558,36.767
-6.328,44.438,-5.177,47.627,-6.245,-6.649,47.333,43.827
-5.337,49.501,-4.553,58.312,-5.262,-5.357,56.421,51.402
-3.596,50.3,-2.77,55.32,-2.913,-3.672,51.34,49.387
-1.931,41.984,-1.614,39.306,-1.755,-2.237,36.218,37.707
-0.649,28.592,-1.057,23.715,-1.529,-0.541,22.64,24.37
0.326,16.711,0.008,15.136,-0.338,1.063,14.287,14.524
0.432,11.938,0.686,12.924,0.81,0.947,12.196,12.077
-0.125,13.898,0.161,13.286,0.312,-0.473,14.796,15.751
-0.43,15.513,-0.257,12.334,-0.541,-0.955,16.36,18.184
-0.654,9.921,0.313,7.779,0.072,-0.111,9.904,13.02
-1.282,-0.749,0.8,0.76,1.358,0.412,-2.442,2.851
-1.554,-7.494,0.482,-2.73,1.41,0.155,-6.433,-1.431
-0.727,-10.779,0.033,-3.049,0.243,0.283,-0.058,0.472
0.228,-14.228,-0.237,-3.931,-0.734,0.761,3.86,0.115
0.373,-13.755,-0.512,-3.996,-0.814,0.572,0.441,-3.14
0.263,-9.245,-0.659,-4.342,-0.45,-0.235,-5.982,-7.244
0.507,-6.502,-0.606,-8.088,-0.319,-0.912,-12.947,-13.247
1.038,-6.649,-0.373,-13.412,-0.425,-0.827,-19.077,-20.002
1.332,-6.6,-0.155,-16.893,-0.692,-0.103,-21.387,-23.888
0.471,-18.621,-0.753,-30.704,-1.612,-0.348,-30.981,-34.376
-1.974,-61.283,-2.869,-72.431,-3.584,-3.045,-65.681,-68.448
-4.716,-112.846,-5.455,-120.848,-5.765,-6.659,-108.606,-110.645
-5.791,-126.051,-6.344,-129.946,-6.47,-8.083,-118.601,-120.592
-5.497,-95.531,-5.512,-94.905,-5.685,-7.102,-89.671,-91.705
-5.846,-60.525,-5.033,-56.223,-5.235,-6.133,-57.357,-58.646
-7.274,-44.672,-5.712,-38.591,-6.073,-6.211,-43.045,-42.747
-8.422,-36.555,-6.553,-30.365,-7.375,-6.215,-36.164,-33.292
-8.391,-26.466,-6.761,-21.067,-7.947,-5.504,-28.838,-22.601
-7.512,-17.21,-6.441,-11.975,-7.569,-4.819,-22.099,-14.149
-6.273,-7.022,-5.83,-0.663,-6.791,-4.258,-13.207,-6.488
-4.776,9.585,-4.94,16.793,-5.951,-3.098,1.148,5.506
-3.206,31.638,-3.711,37.678,-4.889,-1.896,20.281,23.808
-2.071,48.141,-2.272,51.897,-3.415,-1.981,37.311,41.791
-1.497,51.839,-0.912,56.403,-1.715,-2.371,46.197,50.799
-0.53,53.979,0.441,63.567,-0.05,-0.738,51.93,55.519
1.559,74.996,2.082,88.6,1.494,1.973,70.95,74.629
4.4,112.615,4.388,126.788,3.399,3.624,105.131,110.666
7.821,130.052,7.752,143.709,6.642,5.664,121.339,128.215
11.521,108.766,11.083,120.016,10.33,9.005,100.384,105.402
13.852,78.771,12.109,83.663,11.616,10.772,70.734,71.789
13.956,67.75,10.908,64.857,10.281,10.002,59.012,56.567
13.392,61.266,9.906,53.22,9.275,9.601,50.705,46.178
12.747,25.677,9.351,16.381,9.21,10.168,16.077,10.252
10.316,-34.21,7.344,-42.229,7.834,8.691,-36.7,-44.086
6.527,-70.861,4.498,-78.427,5.218,4.995,-66.242,-73.86
4.574,-67.052,3.473,-77.231,3.885,2.964,-62.669,-68.295
5.55,-56.605,4.389,-70.093,4.338,4.213,-57.752,-61.671
6.866,-62.621,4.445,-77.96,4.241,5.32,-69.422,-73.457
5.783,-71.238,2.016,-88.371,1.896,3.026,-82.657,-87.319
2.99,-72.875,-0.954,-90.899,-1.022,-0.578,-88.001,-91.327
1.128,-80.657,-2.225,-96.243,-2.236,-1.837,-95.669,-96.266
0.289,-96.269,-2.869,-107.491,-2.977,-1.606,-105.185,-105.44
-1.563,-99.747,-4.603,-106.181,-5.167,-2.615,-99.711,-103.051
-4.27,-80.576,-6.274,-81.466,-7.206,-4.305,-74.165,-80.697
-5.785,-55.31,-6.209,-52.177,-6.919,-4.669,-48.148,-54.406
-6.266,-45.953,-5.604,-42.522,-5.708,-4.486,-41.433,-44.68
-7.363,-49.184,-6.247,-46.727,-6.052,-5.566,-45.809,-46.602
-8.736,-44.985,-7.218,-41.843,-7.273,-7.059,-39.773,-39.459
-8.746,-27.84,-6.793,-23.497,-7.064,-7.011,-21.209,-20.005
-6.929,-13.61,-5.102,-9.036,-5.284,-5.401,-7.768,-5.732
-4.96,-13.589,-3.878,-8.191,-4.053,-4.326,-6.985,-5.554
-4.774,-14.502,-4.324,-7.796,-4.498,-5.304,-5.935,-6.746
-5.809,-3.576,-5.343,2.657,-5.168,-6.949,4.052,0.982
-6.555,8.442,-5.571,13.823,-5.101,-7.525,15.012,10.81
-7.326,0.245,-6.014,6.002,-5.679,-7.789,8.134,4.646
-9.624,-37.121,-8.458,-33.176,-8.242,-9.106,-29.379,-31.908
-13.783,-79.466,-12.471,-81.826,-12.145,-11.388,-76.263,-79.383
-17.698,-88.137,-15.495,-96.465,-15.21,-13.748,-90.967,-93.945
-18.825,-57.828,-15.929,-65.411,-15.902,-15.388,-61.99,-63.217
-17.611,-16.546,-15.108,-17.16,-15.298,-16.147,-15.658,-16.537
-16.885,15.825,-15.45,22.789,-15.803,-16.921,23.612,20.393
-17.128,39.974,-16.842,50.046,-17.353,-17.868,48.695,43.562
-15.899,56.459,-16.856,62.386,-17.529,-17.223,55.472,50.963
-13.045,62.722,-15.112,59.842,-16.117,-14.941,48.819,44.841
-11.426,61.882,-13.828,53.131,-15.244,-14.141,43.195,39.499
-12.212,61.041,-14.024,53.422,-15.492,-15.951,45.113,44.261
-13.314,67.32,-14.214,64.551,-15.351,-17.057,51.877,55.693
-12.694,75.477,-12.974,76.979,-13.802,-14.986,55.463,63.508
-11.314,71.718,-11.323,75.597,-12.095,-12.211,49.101,59.764
-11.103,56.778,-11.095,60.469,-12.074,-11.998,36.749,46.978
-11.948,47.498,-12.303,48.996,-13.518,-13.754,31.74,37.532
-12.219,56.832,-13.224,56.946,-14.42,-14.645,43.323,44.027
-10.97,74.142,-12.449,74.677,-13.597,-13.312,60.229,59.919
-9.652,77.584,-11.057,77.86,-12.433,-11.631,62.334,64.505
-10.212,58.946,-11.064,55.877,-12.53,-11.862,41,45.829
-12.215,18.78,-12.453,10.739,-13.4,-13.256,-1.474,3.264
-14.298,-31.912,-14.296,-42.425,-14.425,-14.538,-48.526,-47.135
-16.217,-64.322,-16.612,-73.775,-16.276,-16.286,-73.537,-74.957
-18.31,-60.545,-19.647,-67.364,-19.429,-18.805,-66.595,-67.519
-20.19,-35.344,-22.207,-38.302,-22.456,-20.676,-42.497,-41.403
-20.796,-8.269,-22.382,-6.557,-23.085,-20.536,-15.423,-13.736
-19.88,15.427,-20.471,20.321,-21.305,-18.742,8.483,9.578
-18.574,24.37,-18.953,30.517,-19.51,-16.895,16.656,18.022
-18.455,10.166,-19.232,16.927,-19.341,-17.007,6.108,8.663
-19.757,-5.38,-20.081,0.748,-19.819,-19.192,-3.024,0.927
-20.88,2.713,-19.878,6.434,-19.475,-20.615,4.811,9.751
-20.758,22.809,-19.181,24.563,-19.103,-19.892,19.043,24.482
-20.342,23.204,-19.674,24.952,-20.189,-19.113,18.037,23.495
-20.648,2.344,-21.337,4.016,-22.053,-19.609,1.214,5.065
-20.87,-9.297,-22.135,-9.548,-22.62,-19.865,-9.609,-7.645
-20.219,1.097,-21.071,-0.181,-21.438,-19.044,-2.466,-0.116
-19.674,16.222,-19.459,17.789,-19.96,-18.642,13.054,17.047
-19.964,19.499,-18.399,25.294,-19.106,-19.142,21.828,25.837
-20.247,13.699,-17.88,21.201,-18.76,-19.217,20.363,21.85
-19.45,11.178,-17.726,17.158,-18.456,-18.383,15.612,14.618
-17.962,15.809,-17.777,18.067,-17.881,-17.767,13.728,12.426
-17.091,23.436,-17.697,22.14,-17.297,-18.011,16.982,17.489
-16.602,28.456,-16.783,26.325,-16.417,-17.536,20.651,24.159
-15.557,27.569,-15.222,25.707,-14.922,-15.552,18.184,23.185
-14.627,21.808,-14.589,17.21,-14.207,-14.198,10.262,14.485
-14.801,12.662,-15.31,4.683,-15.252,-14.575,2.83,6.094
-15.587,3.147,-15.667,-1.109,-16.216,-15.134,2.145,5.443
-15.854,-3.338,-14.718,2.859,-15.23,-14.984,6.722,10.355
-15.451,-5.65,-13.926,7.809,-13.669,-14.665,8.784,11.096
-14.862,-4.41,-14.3,7.457,-13.577,-14.149,4.934,4.539
-14.493,-2.796,-14.856,2.99,-14.408,-13.501,-0.702,-2.549
-14.854,-1.303,-15.104,-0.685,-14.881,-13.823,-2.613,-2.866
-15.484,0.933,-15.412,-3.294,-14.936,-15,-3.944,-0.155
-15.13,1.49,-15.415,-8.003,-14.822,-15.504,-9.274,-2.434
-13.965,-1.259,-14.825,-13.269,-14.662,-14.831,-14.869,-8.317
-13.607,-6.177,-14.563,-16.628,-14.991,-14.018,-16.976,-13.166
-14.64,-10.332,-15.117,-16.925,-15.821,-14.219,-15.928,-14.749
-15.676,-13.895,-15.216,-15.073,-15.824,-14.981,-13.61,-12.706
-15.698,-18.581,-14.063,-13.081,-14.437,-14.727,-11.098,-8.891
-15.168,-21.473,-12.906,-11.49,-12.972,-13.247,-9.839,-6.388
-14.496,-19.306,-13.154,-11.835,-12.819,-12.254,-12.08,-7.377
-13.683,-10.602,-14.372,-12.004,-13.868,-12.774,-14.078,-8.14
-13.139,3.204,-15.157,-7.635,-15.009,-13.755,-10.515,-4.9
-13.47,16.521,-15.557,0.431,-16.023,-14.297,-3.426,-0.166
-14.038,23.321,-16.018,7.646,-16.857,-14.539,1.202,3.602
-13.399,21.912,-15.471,10.411,-16.281,-14.587,3.181,8.319
-11.786,18.687,-13.501,12.199,-14.092,-14.106,8.247,16.8
-10.895,18.106,-11.496,17.348,-11.919,-12.566,15.264,24.874
-11.556,16.501,-10.513,22.482,-10.917,-10.905,18.815,26.979
-12.701,12.261,-10.266,23.325,-10.632,-10.766,18.987,25.592
-12.698,10.671,-10.065,22.64,-10.161,-11.348,19.407,25.556
-11.385,17.203,-9.593,26.226,-9.368,-10.731,22.989,28.373
-9.883,24.541,-8.909,28.304,-8.617,-9.209,24.628,28.198
-9.414,21.968,-8.628,20.752,-8.442,-8.598,19.161,20.644
-10.022,15.572,-8.976,12.293,-8.776,-9.059,12.361,13.199
-10.102,15.914,-8.883,12.48,-8.483,-9.069,10.113,12.024
-9.052,21.144,-8.124,16.964,-7.711,-8.45,11.942,14.767
-8.337,22.383,-8.058,17.417,-8.086,-8.171,13.572,15.815
-8.433,17.634,-8.598,13.445,-9.052,-8.044,12.629,13.095
-8.076,11.122,-7.951,9.24,-8.427,-7.179,10.266,9.961
-7.023,2.135,-6.147,3.512,-6.557,-5.682,4.501,5.261
-6.213,-7.594,-5.078,-3.304,-5.47,-4.58,-4.772,-2.542
-5.454,-10.897,-4.951,-6.261,-5.12,-4.09,-10.593,-7.164
-4.355,-6.16,-4.654,-3.231,-4.437,-3.714,-6.44,-2.634
-4.114,-0.632,-4.434,1.866,-3.87,-3.859,1.997,6.232
-5.399,-3.345,-4.828,0.628,-4.006,-4.644,0.335,6.218
-6.827,-9.676,-5.292,-5.203,-4.462,-4.902,-10.223,-3.069
-7.273,-7.669,-5.642,-4.949,-5.251,-4.604,-12.512,-5.991
-7.333,0.887,-6.262,3.172,-6.442,-4.881,-1.159,3.553
-7.573,2.446,-6.671,8.097,-7.074,-5.246,6.568,10.37
-7.563,-9.729,-6.33,-2.223,-6.714,-4.769,-4.694,-1.081
-7.224,-23.088,-5.96,-19.369,-6.322,-4.332,-21.632,-19.149
-7.009,-21.826,-6.069,-22.025,-6.242,-4.435,-22.068,-20.341
-6.971,-9.033,-6.186,-8.833,-5.924,-4.328,-8.546,-5.627
-7.103,-2.994,-6.361,-1.18,-5.648,-4.359,-2.593,2.288
-7.801,-15.034,-7.135,-11.095,-6.116,-5.23,-11.409,-6.995
-8.856,-31.106,-7.993,-21.813,-6.879,-5.915,-17.212,-16.341
-9.229,-32.322,-7.837,-17.833,-6.833,-5.314,-11.147,-12.736
-9.162,-22.521,-7.285,-8.861,-6.363,-4.752,-5.706,-6.47
-10.03,-16.62,-7.798,-7.869,-6.865,-5.864,-7.922,-5.95
-11.604,-20.19,-8.789,-13.069,-8.026,-7.181,-12.008,-7.764
-12.342,-25.709,-8.717,-14.803,-8.322,-6.419,-12.19,-8.556
-11.645,-28.165,-7.51,-13.994,-7.298,-4.332,-12.551,-11.401
-10.443,-32.853,-6.273,-20.025,-5.877,-3.417,-18.933,-19.021
-9.889,-41.901,-5.945,-31.706,-5.296,-4.2,-28.42,-27.628
-10.082,-50.623,-6.766,-42.419,-6.063,-5.382,-37.399,-35.431
-10.506,-53.148,-8.374,-49.418,-7.698,-6.694,-44.086,-41.996
-10.887,-50.421,-9.801,-52.552,-9.083,-8.337,-46.998,-45.423
-11.358,-48.581,-10.065,-50.59,-9.396,-9.126,-45.822,-45.036
-11.867,-47.375,-9.21,-41.309,-8.884,-8.087,-40.841,-40.134
-11.965,-45.628,-8.39,-31.059,-8.441,-6.644,-34.734,-33.888
-11.563,-44.936,-8.283,-27.155,-8.391,-6.734,-27.561,-28.368
-10.964,-43.27,-8.145,-25.774,-8.109,-7.709,-18.5,-20.753
-10.688,-36.529,-7.879,-20.185,-7.646,-8.235,-10.952,-11.63
-11.164,-25.808,-8.466,-11.478,-7.897,-8.578,-7.374,-5.37
-11.869,-18.573,-9.675,-6.261,-8.894,-8.812,-6.995,-4.202
-11.847,-16.598,-10.506,-4.726,-9.959,-8.608,-7.422,-4.617
-10.458,-17.945,-10.42,-6.062,-10.044,-8.275,-10.667,-6.268
-7.544,-26.052,-9.2,-14.261,-8.389,-7.706,-19.803,-14.228
-4.216,-39.447,-7.588,-26.079,-6.412,-6.491,-29.117,-25.443
-2.573,-47.346,-7.057,-33.275,-6.291,-5.85,-31.204,-31.065
-3.543,-40.686,-7.841,-30.846,-7.637,-7.391,-24.745,-26.624
-5.534,-26.113,-8.333,-20.719,-8.095,-9.613,-14.757,-16.131
-6.239,-19.717,-7.408,-11.252,-6.811,-9.831,-7.162,-7.658
-4.882,-24.607,-5.692,-9.013,-4.752,-8.391,-4.001,-5.246
-2.466,-32.8,-3.882,-15.984,-2.165,-7.327,-7.96,-10.911
-0.897,-38.836,-2.331,-26.723,0.512,-7.219,-17.877,-20.948
-0.87,-42.558,-1.953,-33.086,0.739,-7.068,-24.291,-26.353
-1.267,-41.835,-3.066,-31.559,-2.205,-6.293,-19.279,-23.186
-1.49,-31.735,-4.175,-21.903,-4.563,-5.449,-6.645,-13.748
-2.135,-21.383,-3.988,-12.28,-3.826,-4.863,1.026,-6.559
-3.226,-25.747,-3.393,-12.899,-2.079,-4.624,-2.908,-9.677
-3.824,-39.354,-3.553,-22.075,-1.458,-5.133,-14.506,-20.595
-3.314,-42.419,-3.715,-27.382,-1.378,-5.992,-21.781,-26.335
-2.102,-29.34,-2.671,-19.578,-0.707,-5.957,-14.358,-16.738
-1.666,-16.949,-1.381,-6.578,-0.039,-5.064,1.054,-0.572
-2.83,-16.887,-1.42,0.373,-0.333,-4.514,11.771,8.657
-3.748,-21.044,-1.546,3.218,-0.267,-3.934,15.609,11.565
-3.032,-18.721,-0.201,8.381,1.244,-2.464,17.436,15.03
-2.419,-9.017,1.098,15.855,2.386,-1.294,20.072,20.775
-3.063,0.372,0.744,19.971,1.727,-1.324,21.29,23.709
-3.301,5.827,-0.248,21.151,0.36,-1.488,22.551,22.783
-1.85,9.665,-0.206,22.726,0.091,-1.232,24.831,21.443
0.014,10.665,0.703,20.972,1.22,-1.209,22.509,18.177
0.778,7.698,1.209,13.826,2.365,-1.389,15.618,11.973
0.864,3.719,1.295,5.841,2.773,-1.131,10.549,6.428
1.376,4.926,1.839,4.749,3.001,-0.342,11.594,7.346
2.631,10.631,2.853,10.142,3.425,0.929,16.126,13.407
3.651,9.573,3.304,10.987,3.573,2.008,17.378,14.189
3.161,0.068,2.506,5.083,2.78,1.694,14.329,8.764
2.041,-6.03,1.598,1.769,1.728,0.744,12.863,7.583
2.675,-0.537,2.67,8.099,2.652,1.548,19.098,15.982
5.039,10.572,5.934,19.417,6.348,4.579,28.411,26.242
6.166,16.076,8.604,24.843,9.713,7.27,30.909,28.572
5.326,16.114,8.732,23.934,9.826,7.831,28.999,25.981
5.603,16.894,8.337,23.985,8.8,7.866,30.397,25.809
7.758,20.405,9.291,28.225,9.71,8.693,34.766,29.03
8.742,23.692,10.021,31.886,11.304,9.232,35.52,31.262
7.624,24.088,8.975,29.746,10.827,8.98,31.106,29.13
7.271,25.886,7.604,25.946,8.905,9.064,27.277,25.715
9.562,30.868,8.006,24.799,8.441,10.062,24.508,22.972
12.658,33.705,9.69,25.164,9.918,11.076,20.422,20.224
14.119,31.185,10.876,24.007,11.253,11.548,16.825,17.368
13.99,27.019,11.37,19.74,11.658,11.872,15.11,14.298
13.943,26.89,12.127,15.176,12.259,12.189,13.925,12.61
14.815,27.721,13.209,11.181,13.243,12.627,11.217,10.883
15.867,24.339,13.977,8.539,13.729,13.637,8.74,8.121
16.852,19.481,14.868,9.267,14.366,15.247,7.903,7.563
18.309,18.231,16.391,11.496,16.054,16.63,7.521,9.304
19.635,21.375,17.666,14.327,17.617,17.09,8.898,11.205
19.994,23.849,18.1,17.161,18.034,17.109,12.071,11.959
20.138,25.297,18.342,19.076,18.055,17.434,15.297,12.649
21.225,30.272,18.977,20.125,18.419,18.168,16.412,13.94
22.402,35.568,19.406,19.549,18.621,18.487,14.616,13.863
22.008,35.02,19.026,17.795,18.313,17.706,13.296,13.2
20.802,28.639,18.819,14.863,18.508,17.135,13.119,12.267
20.757,23.931,19.673,12.596,19.774,18.103,12.278,10.482
22.273,26.058,21.131,13.38,21.322,19.727,11.158,9.726
24.346,31.019,22.603,16.268,22.447,20.921,12.653,12.266
25.925,35.468,23.811,21.627,23.184,21.99,18.746,18.59
26.764,38.227,24.499,27.462,23.849,23.406,23.796,23.693
27.011,39.248,24.463,30.512,24.152,24.493,23.917,24.888
27.055,41.719,24.275,32.003,24.053,24.502,23.807,26.538
27.764,48.25,25.22,34.985,24.834,24.298,28.141,31.664
29.464,62.44,27.624,46.722,27.047,25.514,41.503,44.076
31.384,93.663,30.495,81.428,29.55,28.089,74.55,75.332
32.97,145.936,33.172,143.541,31.748,30.509,131.138,131.332
35.181,190.726,36.252,198.279,34.595,33.082,180.362,181.844
38.624,187.332,39.725,198.983,38.27,36.947,180.602,182.809
41.599,139.406,41.915,149.789,40.913,40.367,135.285,137.548
42.863,86.585,42.514,92.877,41.961,41.428,83.157,86.388
43.68,59.114,43.315,58.976,43.257,41.668,53.345,57.101
45.399,59.489,44.803,51.88,45.174,43.301,48.745,51.55
47.329,69.656,45.69,57.621,46.079,45.619,56.871,57.157
47.864,71.958,45.423,60.577,45.576,46.25,62.937,59.984
46.75,60.125,44.487,50.397,44.569,44.613,55.157,50.44
45.275,42.211,43.498,31.816,43.621,42.668,38.03,33.784
44.68,31.076,43.268,21.256,43.345,42.604,27.596,25.286
44.972,29.562,43.995,24.374,44.256,43.962,28.64,28.1
45.714,33.847,44.831,32.177,45.693,44.546,32.342,32.929
46.965,37.219,44.931,32.924,45.878,44.315,29.562,30.975
48.048,34.794,44.111,26.048,44.011,44.489,22.938,24.135
47.939,28.657,43.534,20.36,42.611,44.822,19.171,20.543
47.22,25.314,44.271,21.895,43.852,45.082,19.98,22.839
47.073,29.651,45.175,29.901,45.354,45.632,26.632,28.709
47.355,34.291,45.136,33.119,45.105,45.913,33.325,31.544
46.964,29.257,44.789,23.517,44.773,45.412,30.051,26.465
45.67,18.238,44.514,10.004,45.096,44.834,18.625,17.157
44.565,11.534,44.026,6.206,44.835,44.615,12.683,12.774
44.655,12.952,43.893,14.797,44.39,44.691,18.856,18.666
45.675,15.005,44.819,22.351,45.209,45.277,24.46,24.765
46.183,12.229,45.808,18.335,46.567,45.525,19.862,20.032
45.764,10.892,45.772,11.449,46.849,44.461,14.927,11.949
45.868,17.948,45.406,14.95,46.277,43.308,21.414,14.227
46.607,29.569,45.281,26.747,45.71,43.265,34.344,25.775
46.099,31.226,44.739,29.338,45.102,43.386,37.008,30.061
44.066,18.734,43.654,16.902,44.274,42.803,27.45,21.423
42.424,6.15,43.065,3.623,43.663,42.243,19.141,12.292
41.974,5.637,43.204,0.425,43.517,42.078,18.292,10.39
41.791,16.568,42.988,5.846,43.388,41.513,20.663,12.544
41.531,25.824,42.171,10.179,43.121,40.56,18.543,11.2
41.614,22.795,41.55,7.747,42.868,40.052,11.688,4.341
42.235,11.994,41.617,2.644,42.685,40.135,7.387,-1.053
43.039,4.117,42.278,1.102,42.856,40.592,9.826,0.973
43.196,6.108,43.043,8.113,43.472,41.525,18.643,10.295
42.557,14.265,43.478,19.992,44.013,42.728,28.351,20.443
42.169,22.257,43.731,28.824,44.124,43.377,34.977,27.379
42.898,31.184,44.439,34.699,44.464,43.372,39.921,33.424
43.559,42.529,45.183,41.576,45.158,43.105,44.159,39.394
42.21,54.38,44.26,49.714,44.454,42.11,47.835,44.887
40.087,63.516,41.712,54.716,41.755,40.652,51.145,48.699
40.268,70.276,40.077,57.592,39.638,40.168,56.767,51.856
42.642,74.502,40.913,62.126,40.318,40.884,64.03,57.034
44.377,70.788,42.89,63.633,42.531,41.935,66.682,60.984
44.245,58.808,44.186,57.977,44.067,43.037,62.596,58.67
43.359,45.768,44.78,49.189,44.868,44.18,54.642,51
42.664,43.703,45.152,48.858,45.476,45.054,52.437,48.899
42.579,57.778,45.08,61.416,45.497,45.664,62.118,58.331
43.323,74.987,44.611,72.563,44.927,46.03,72.391,66.748
44.144,81.983,44.289,70.269,44.518,45.825,69.493,63.213
44.433,79.885,44.17,59.577,44.416,45.181,55.546,52.338
44.599,79.873,43.892,56.033,44.072,44.482,48.207,47.988
45.062,86.941,43.912,64.954,43.785,44.214,54.559,54.603
45.594,91.231,44.661,71.053,44.068,44.926,57.934,57.406
45.567,85.645,44.973,63.686,43.959,45.915,47.329,47.415
44.943,74.745,43.85,50.078,42.69,45.872,32.624,34.481
44.798,68.997,42.535,42.969,41.466,45.271,27.975,30.98
46.041,72.369,42.847,44.548,41.718,45.93,30.694,34.218
47.401,73.908,43.881,43.352,42.428,47.509,26.376,30.674
46.7,64.777,43.12,33.485,41.293,47.454,15.329,19.351
44.349,50.644,40.948,20.796,38.904,45.588,7.571,9.442
42.221,44.568,39.506,12.98,37.603,44.005,4.072,4.431
40.512,48.018,38.538,9.837,37.042,42.968,-1.236,0.233
38.774,46.523,36.972,5.53,35.784,41.539,-8.422,-6.583
37.909,37.42,35.78,2.777,34.801,39.973,-8.26,-8.171
38.673,32.761,36.048,4.711,35.452,38.952,-0.817,0.214
39.463,34.986,36.61,6.792,36.349,38.534,2.866,7.624
38.446,35.865,36.147,6.953,35.661,38.58,0.542,5.769
36.429,34.878,35.326,9.011,34.258,38.877,1.091,2.131
35.204,39.651,35.242,16.804,33.981,39.283,8.576,6.251
35.166,44.714,36.038,24.237,35.217,39.955,13.719,12.935
35.337,40.708,36.838,24.08,36.575,40.548,11.093,14.439
35.035,35.512,36.519,20.041,36.352,40.438,7.65,13.22
34.963,40.2,35.22,18.992,34.782,39.639,10.307,14.535
35.728,51.538,34.21,23.912,33.666,38.474,18.792,20.765
36.602,55.229,34.206,28.777,33.844,37.354,23.867,25.538
36.877,46.765,34.715,26.466,34.544,36.522,20.789,22.92
37.229,36.36,35.316,19.58,35.343,36.256,16.391,17.497
37.954,31.451,35.964,14.995,36.408,36.919,15.529,13.658
37.549,34.076,36.001,17.78,36.792,37.469,17.432,13.661
35.739,40.923,35.135,24.726,35.607,36.764,19.62,18.558
34.509,45.19,34.177,30.188,33.738,36.146,22.566,25.564
34.606,44.659,33.701,32.784,32.675,36.915,25.831,29.369
34.692,40.855,33.532,29.693,32.859,37.408,24.086,25.834
34.137,37.31,33.299,22.087,33.274,35.841,18.424,18.826
33.581,34.62,32.628,15.63,32.545,33.396,14.546,13.256
33.148,30.991,31.591,13.922,30.987,32.124,13.721,9.388
33.135,26.51,31.378,15.404,30.756,32.332,13.693,8.29
34.212,21.396,32.581,14.2,32.435,32.875,12.954,11.207
35.142,18.216,33.454,10.041,33.56,32.637,12.509,16.067
34.124,17.738,32.471,5.592,32.582,31.615,9.75,15.235
31.618,18.196,30.474,2.777,30.634,30.22,5.022,8.322
29.513,20.012,29.258,5.758,29.213,29.146,6.05,7.385
28.874,22.642,29.512,14.197,28.881,29.465,13.919,15.593
29.04,24.081,30.163,21.537,29.004,30.527,21.349,23.088
29.057,20.918,30.253,21.548,28.956,30.693,22.634,22.532
28.95,16.365,30.238,18.984,29.299,30.139,22.044,19.254
29.149,19.585,30.629,22.638,30.335,29.912,25.818,22.772
29.557,28.289,31.051,28.585,31.143,29.938,29.758,30.7
29.652,34.007,30.933,31.381,30.958,29.729,30.273,35.45
29.562,34.663,30.354,32.554,30.102,29.546,31.819,36.211
29.566,34.343,29.601,35.164,29.01,29.685,38.48,38.238
29.232,35.408,28.79,38.74,28.051,29.867,44.375,42.134
28.629,31.957,28.315,36.32,27.914,29.662,40.294,40.636
28.518,22.182,28.449,26.587,28.56,29.045,29.573,32.513
28.829,13.946,28.689,17.073,29.101,28.443,20.135,22.507
28.701,14.35,28.405,14.458,28.935,27.875,16.014,15.874
28.048,19.818,27.707,17.101,27.997,27.227,17.28,15.451
27.434,19.193,26.707,15.805,26.388,26.501,17.671,15.737
26.901,13.239,25.219,10.306,24.744,25.53,14.576,13.678
26.395,11.817,23.856,8.453,24.15,24.88,11.642,12.607
25.879,16.007,23.028,11.461,24.15,24.855,11.456,13.318
25.066,18.28,22.09,13.171,23.245,24.726,11.206,12.078
24.141,13.281,21.063,8.525,21.874,24.208,7.205,6.179
23.73,6.93,21.031,2.696,21.811,23.486,4.526,2.47
23.749,4.481,22.006,0.747,22.915,22.726,5.92,5.072
22.979,0.796,21.903,-2.164,22.573,21.553,5.676,5.994
21.202,-7.066,19.815,-10.44,20.062,19.38,0.869,0.082
20.111,-13.438,17.98,-19.636,18.337,17.281,-4.853,-7.897
20.212,-11.507,17.738,-20.715,18.578,16.942,-5.218,-10.449
19.492,-6.811,17.371,-16.645,18.288,17.587,-3.598,-9.687
16.428,-10.709,15.404,-17.665,16.054,16.728,-7.975,-12.517
12.802,-19.63,13.151,-20.476,13.731,14.301,-14.007,-15.984
11.445,-20.759,12.46,-15.777,13.105,12.822,-12.69,-14.049
11.99,-14.026,12.628,-7.478,13.127,12.631,-6.604,-9.076
12.281,-15.178,12.167,-10.757,12.452,11.554,-7.92,-10.345
11.758,-28.418,11.372,-25.588,11.809,9.271,-16.879,-18.525
10.9,-37.925,10.994,-34.391,11.915,7.612,-21.536,-22.992
9.905,-36.658,10.478,-32.255,11.478,7.433,-20.097,-21.452
8.989,-32.581,8.999,-28.673,9.24,7.915,-19.542,-21.22
8.521,-32.668,7.198,-30.99,6.605,7.808,-24.233,-26.632
8.207,-35.086,6.114,-36.231,5.458,6.426,-30.643,-33.215
7.752,-33.676,5.747,-34.703,5.493,4.514,-30.669,-32.264
7.452,-28.479,5.459,-25.909,5.344,3.044,-23.164,-23.366
6.815,-24.279,4.512,-18.958,4.187,1.624,-15.178,-15.795
5.441,-23.707,3.132,-19.079,2.719,0.377,-14.169,-17.581
4.49,-21.988,2.551,-19.827,2.396,0.164,-16.578,-21.653
4.946,-14.384,3.28,-14.673,3.489,0.451,-14.625,-16.72
5.857,-7.378,4.142,-9.507,4.496,0.318,-10.919,-9.074
5.491,-5.909,3.448,-8.318,3.498,-0.296,-7.488,-6.227
3.879,-7.238,1.616,-7.602,1.171,-1.106,-2.19,-3.908
