EEG 1,EEG 2,EEG 3,EEG 4,EEG 5,EEG 6,EEG 7,EEG 8
-0.204,-15.352,-12.044,-19.508,-0.988,-2.351,-15.261,-13.504
-0.809,-7.455,-6.422,-12.436,-1.178,-2.825,-5.06,-5.884
-1.14,6.361,5.438,0.928,-1.307,-3.39,11.734,8.542
-2.304,31.569,28.538,25.996,-2.24,-5.148,41.168,35.187
-4.003,52.077,48.135,47.185,-3.594,-6.611,64.234,59.749
-4.217,39.2,38.635,36.068,-3.339,-5.613,51.422,51.881
-2.499,4.145,8.669,3.017,-1.242,-2.881,16.431,17.672
-0.364,-11.472,-6.27,-11.893,0.576,-0.669,0.34,-2.063
1.006,-1.213,0.585,-2.302,1.029,0.381,7.678,4.837
1.193,7.384,7.115,6.625,0.581,0.698,12.58,15.376
0.599,4.39,4.484,5.78,-0.19,0.743,6.676,15.618
0.722,2.459,2.576,4.931,-0.347,1.296,0.818,11.018
2.176,1.665,1.955,2.335,0.682,2.376,-5.742,2.995
3.393,-10.16,-8.003,-11.506,1.86,3.207,-20.676,-11.831
2.747,-24.801,-20.763,-24.565,1.915,3.711,-31.583,-21.04
0.624,-22.828,-18.624,-18.242,0.711,3.738,-23.265,-10.526
-1.131,-7.483,-5.367,-1.68,-1.193,2.604,-7.364,7.801
-0.841,-0.964,-2.57,-0.604,-2.412,1.025,-7.303,8.188
1.479,-11.741,-16.419,-19.498,-1.675,0.714,-24.124,-12.894
4.082,-20.948,-27.863,-33.732,-0.046,1.658,-34.793,-29.122
5.546,-10.899,-21.159,-25.298,0.501,2.21,-25.293,-22.206
5.507,10.525,-3.104,-4.434,-0.297,1.25,-4.982,-3.552
3.723,28.224,14.219,14.471,-1.759,-0.844,14.56,14.174
0.812,41.108,29.312,31.672,-3.234,-2.577,32.838,34.282
-1.325,47.235,38.334,42.458,-3.908,-2.87,44.127,50.569
-1.653,33.4,28.727,29.621,-3.467,-2.289,34.179,42.234
-1.066,5.4,5.875,-0.388,-2.358,-1.814,10.805,15.01
-0.653,-11.198,-7.263,-17.745,-1.142,-1.341,-1.553,-0.709
-0.604,-12.693,-7.064,-17.434,-0.406,-0.803,-1.374,-0.499
-0.722,-13.509,-6.553,-17.032,-0.428,-0.929,-2.96,-2.606
-0.602,-15.824,-8.691,-20.672,-0.546,-1.554,-7.868,-9.483
-0.189,-15.282,-9.832,-21.979,-0.479,-1.775,-11.275,-11.877
-0.234,-18.026,-14.466,-25.054,-1.263,-1.764,-18.65,-13.8
-0.717,-29.186,-27.363,-35.663,-2.873,-1.645,-32.708,-23.491
-0.562,-34.748,-36.746,-41.313,-3.562,-0.891,-37.513,-30.111
0.211,-19.993,-27.155,-27.648,-2.782,-0.189,-20.725,-18.631
0.539,6.043,-3.357,-2.315,-1.768,-0.494,6.474,5.089
0.063,26.676,18.724,19.651,-1.433,-1.266,28.725,26.299
-0.932,41.719,35.007,37.315,-1.865,-2.056,45.265,43.044
-1.801,51.555,44.789,48.784,-2.514,-2.804,52.96,53.745
-1.505,41.192,36.146,38.219,-2.235,-2.523,38.291,43.423
-0.286,14.004,11.973,9.814,-1.096,-1.294,10.649,15.705
0.181,-1.369,-2.692,-6.535,-0.701,-0.831,-1.229,0.013
-0.109,1.949,-0.234,-3.547,-1.095,-1.248,4.631,3.551
0.39,6.418,4.827,0.206,-0.699,-1.303,9.119,7.144
1.471,4.308,3.98,-3.807,0.344,-1.043,6.229,2.777
1.875,2.813,1.55,-7.448,0.789,-0.913,4.842,-0.139
1.734,10.515,6.009,-0.483,0.803,-0.531,13.595,8.409
1.806,25.667,18.786,15.525,1.144,0.135,29.176,25.9
2.33,34.161,28.802,24.945,1.949,0.59,36.743,36.841
3.05,24.043,23.623,15.259,2.903,0.763,26.689,29.374
3.324,3.062,7.822,-3.951,3.527,0.998,9.425,12.786
3.104,-13.961,-5.042,-16.982,3.904,1.673,-2.365,1.452
3.266,-26.131,-13.339,-25.609,4.662,2.815,-12.144,-8.419
3.835,-31.713,-17.039,-30.396,5.58,3.83,-19.048,-17.916
3.732,-21.749,-9.668,-20.767,5.489,4.115,-12.253,-13.218
3.061,-4.155,3.025,-2.823,4.226,3.914,1.752,3.008
3.131,-3.299,1.856,-2.18,3.186,3.876,-0.659,4.664
4.03,-24.657,-17.901,-25.12,3.19,3.913,-22.855,-16.558
4.464,-40.637,-33.428,-42.32,3.307,3.365,-36.218,-32.147
3.845,-28.397,-24.604,-29.977,2.622,2.411,-21.444,-18.45
3.033,0.235,-0.882,-0.826,1.797,2.192,6.308,11.946
2.973,24.771,18.843,22.941,1.644,2.76,27.517,35.884
3.378,44.354,32.792,39.019,1.426,2.415,43.262,48.983
3.398,58.548,43.134,48.928,0.397,0.616,53.47,55.117
3.372,51.058,37.947,40.057,-0.276,-0.523,42.869,46.701
4.373,23.414,15.799,12.921,0.79,0.43,14.184,21.657
6.028,3.777,-1.67,-7.936,2.816,2.004,-5.887,-1.396
6.766,1.817,-4.463,-12.192,3.972,2.445,-8.219,-9.036
5.896,3.222,-2.824,-11.028,3.639,1.803,-5.336,-6.81
4.144,3.67,-0.863,-8.431,2.567,0.84,-2.265,-1.779
2.376,8.975,5.852,0.162,1.522,-0.16,4.64,6.61
0.703,13.553,12.964,8.972,0.573,-1.098,10.437,15.38
-0.276,7.428,10.654,6.715,0.198,-1.137,6.596,14.393
0.482,-2.291,1.81,-2.592,0.975,0.276,-1.919,4.215
2.31,-3.49,-3.697,-7.23,1.886,1.864,-5.186,-2.634
3.554,1.322,-3.875,-5.849,1.921,2.343,-2.23,-0.798
3.365,6.017,-0.227,-1.148,1.52,1.991,4.519,6.163
2.069,14.697,8.769,9.706,1.047,1.522,15.918,17.321
1.336,28.909,20.623,24.434,0.771,1.505,27.973,29.456
2.009,32.698,23.282,26.771,1.176,1.822,26.942,28.378
2.637,19.643,14.1,13.075,1.726,1.543,12.858,12.994
2.748,8.833,6.483,2.077,1.887,0.99,2.399,2.623
3.818,8.416,4.091,0.088,2.445,1.786,-1.696,1.797
5.454,8.847,0.894,-0.409,3.271,3.646,-5.451,0.863
5.585,9.037,-0.901,1.651,2.723,4.313,-5.311,0.769
4.318,13.267,2.644,8.451,0.685,3.097,1.179,6.082
3.144,22.173,10.76,17.762,-1.211,1.313,11.403,16.125
2.276,37.418,23.927,31.655,-2.076,-0.001,26.278,31.538
1.768,52.439,37.319,46.362,-1.901,-0.279,40.39,47.555
2.507,49.054,35.953,44.358,-0.608,0.941,37.117,47.338
4.515,29.235,19.051,24.028,1.225,2.93,17.497,28.287
6.562,16.32,4.195,5.887,2.346,4.17,1.901,9.435
7.776,13.843,-3.321,-3.611,2.346,4.064,-4.685,-0.746
8.032,10.141,-8.628,-10.698,1.875,2.97,-8.74,-6.383
7.481,7.312,-8.487,-11.089,1.682,1.877,-7.16,-5.201
6.373,12.126,-0.437,0.101,1.751,1.824,3,5.35
4.985,19.141,7.639,13.206,1.539,2.453,12.954,16.057
4.012,21.311,9.845,17.838,1.062,2.778,15.025,18.548
4.138,22.123,10.037,18.165,0.532,2.928,13.163,18.553
4.794,22.396,8.494,17.607,-0.156,3.366,10.101,18.233
4.839,19.087,2.926,13.823,-0.685,3.755,5.319,12.558
4.31,15.048,-2.17,9.593,-0.575,3.83,1.276,5.438
3.741,9.26,-5.714,5.65,-0.176,3.964,-2.98,1.95
2.696,0.131,-9.334,1.085,-0.16,4.111,-7.337,0.599
0.91,-4.071,-9.154,0.751,-0.469,3.808,-6.339,0.63
-0.618,2.007,-3.684,7.061,-0.745,3.28,0.528,4.207
-1.14,8.471,-0.5,11.731,-1.01,3.004,4.257,8.344
-1.266,3.595,-6.619,5.91,-1.32,2.926,-1.872,5.281
-1.533,-5.936,-15.329,-3.741,-1.41,2.95,-9.826,-2.079
-1.72,-6.866,-16.293,-5.88,-1.276,2.826,-9.188,-4.096
-2.1,-1.228,-11.752,-2.122,-1.659,1.896,-3.456,-0.62
-2.7,-0.583,-11.001,-1.656,-2.587,0.659,-3.628,0.211
-2.444,-9.503,-17.836,-9.041,-2.898,0.585,-12.753,-6.985
-1.389,-18.533,-24.912,-16.667,-2.641,1.331,-19.997,-14.822
-0.647,-14.756,-21.935,-13.181,-2.781,1.355,-14.398,-11.32
0.055,0.745,-9.814,-0.906,-2.808,0.579,-0.393,1.418
1.294,10.23,-1.982,3.952,-1.862,-0.035,5.486,7.171
2.232,0.816,-7.897,-7.312,-0.479,-0.021,-4.822,-3.276
1.75,-13.598,-16.849,-19.694,0.252,0.126,-16.899,-16.134
-0.065,-14.549,-14.855,-17.512,-0.031,-0.261,-16.155,-15.608
-2.025,-7.25,-6.721,-7.235,-0.949,-0.718,-8.064,-6.249
-3.337,-0.144,0.093,3.628,-2.181,-0.491,0.902,4.541
-3.972,14.089,10.998,20.716,-3.355,0.054,14.905,19.671
-3.605,33.89,24.673,39.049,-3.645,0.41,28.553,34.222
-2.085,36.571,23.626,37.217,-2.706,1.014,24.308,31.287
-0.401,16.354,5.393,14.703,-1.373,2.084,3.986,11.05
0.354,-3.628,-9.636,-3.315,-0.723,2.742,-11.6,-6.474
0.18,-10.9,-13.011,-7.095,-1.061,2.451,-16.473,-13.29
-0.437,-11.73,-12.72,-5.973,-1.918,1.808,-17.357,-14.61
-0.971,-8.944,-11.141,-3.353,-2.343,1.622,-14.605,-11.28
-0.805,-0.623,-5.133,3.61,-1.894,2.066,-6.858,-2.784
-0.156,10.531,3.204,12.348,-1.486,2.221,1.36,5.738
-0.013,20.455,10.033,18.56,-1.981,1.158,7.197,10.894
-0.493,27.758,15.31,22.478,-2.608,-0.272,11.272,14.88
-0.348,26.955,15.295,20.297,-2.016,-0.341,7.788,13.882
1.393,19.308,9.745,12.398,-0.074,1.177,-1.486,6.735
3.949,22.522,13.579,15.498,2.226,2.919,3.479,9.491
5.828,48.577,38.241,41.721,3.9,3.677,33.981,35.765
7.017,85.174,71.675,78.101,4.789,3.717,71.708,73.491
9.161,98.604,83.605,90.708,6.266,4.974,79.491,86.797
12.886,68.975,58.816,61.665,9.746,8.897,45.801,56.823
15.754,25.523,23.185,21.987,13.504,13.598,9.164,17.154
15.379,8.067,9.612,10.167,14.639,15.88,3.136,7.787
13.054,11.747,13.78,18.225,13.615,15.528,11.929,18.181
11.573,10.054,13.062,17.705,12.835,14.566,10.359,17.264
11.781,4.794,7.991,10.637,12.892,14.133,5.47,7.832
12.478,8.94,9.7,12.261,12.927,14.097,8.47,7.801
12.515,9.252,8.057,11.71,12.797,14.276,4.83,7.919
12.159,-3.488,-4.752,-0.963,12.836,14.614,-10.265,-3.176
11.8,-8.211,-10.929,-6.707,12.429,14.512,-13.456,-9.082
11.009,6.827,0.938,7.243,11.128,13.495,3.39,3.776
10.037,19.011,12.378,19.857,10.122,12.531,14.21,17.513
9.71,5.613,1.678,6.73,10.209,12.82,-1.692,6.879
9.305,-18.431,-20.597,-18.664,9.98,13.382,-25.419,-18.378
7.496,-21.675,-25.483,-22.861,8.216,12.416,-26.109,-24.023
4.966,-2.829,-8.638,-2.98,6.036,10.155,-5.973,-3.774
3.622,13.999,9.225,15.046,5.193,8.067,10.34,14.765
4.105,17.953,16.52,19.316,5.895,7.157,14.917,16.794
5.194,16.398,17.816,19.208,6.745,7.544,16.791,14.946
5.435,11.152,14.383,16.898,6.611,8.232,15.809,15.291
4.791,1.361,6.118,9.047,5.998,8.237,8.48,11.648
3.993,-6.562,-0.534,1.525,5.824,7.892,0.885,4.972
3.263,-12.882,-5.159,-3.9,6.018,7.889,-5.482,-2.968
2.654,-20.394,-10.449,-9.193,6.069,7.967,-11.86,-11.247
2.348,-21.411,-10.14,-7.392,5.933,7.793,-10.854,-11.702
1.764,-12.753,-1.33,4.271,5.533,7.518,-0.984,-1.373
0.275,-10.219,1.965,9.111,4.509,6.902,0.957,3.596
-1.062,-27.384,-12.716,-7.869,3.432,5.944,-16.336,-12.127
-1.33,-47.198,-30.067,-28.849,3.119,5.127,-32.995,-31.754
-1.272,-44.414,-27.502,-26.622,3.075,4.435,-26.352,-28.717
-0.976,-25.024,-11.352,-8.109,2.859,3.981,-8.138,-10.231
0.082,-17.477,-7.167,-4.147,2.978,4.145,-7.384,-6.447
1.189,-34.625,-25.196,-26.84,3.489,4.53,-30.752,-28.141
1.362,-54.274,-45.088,-50.598,3.55,4.238,-51.359,-50.24
0.454,-48.044,-41.129,-45.216,2.528,2.98,-43.096,-44.544
-0.719,-23.876,-19.55,-20.103,1.156,1.708,-18.538,-20.839
-0.64,-15.868,-11.18,-11.934,0.956,1.765,-13.578,-14.474
1.06,-36.207,-28.32,-33.089,2.185,3.192,-37.38,-36.994
2.427,-56.913,-46.516,-53.349,3.322,4.397,-57.356,-58.388
1.422,-48.436,-39.669,-43.008,2.731,3.683,-45.571,-49.148
-1.348,-19.104,-16.184,-13.259,0.186,1.138,-16.365,-20.17
-3.332,4.012,0.881,7.786,-2.663,-1.295,3.175,0.77
-2.944,13.73,8.743,14.895,-3.432,-2.002,11.146,8.838
-0.99,17.249,14.904,16.597,-1.788,-1.504,15.068,12.172
0.643,11.777,13.858,10.016,0.158,-1.317,9.125,6.592
0.939,-2.877,2.512,-4.917,0.774,-1.731,-5.742,-7.809
0.426,-13.241,-7.104,-14.601,0.515,-1.845,-15.196,-17.456
0.373,-14.964,-9.099,-14.971,0.618,-1.144,-17.041,-20.613
0.868,-13.225,-7.069,-11.344,0.979,-0.337,-16.634,-22.299
0.732,-8.801,-2.731,-4.861,0.443,-0.251,-13.604,-19.592
-0.364,-4.221,0.705,1.513,-1.024,-0.652,-9.466,-13.313
-2.141,2.294,4.853,10.09,-2.874,-1.525,-0.847,-2.663
-4.618,22.519,20.311,32.344,-5.274,-3.529,21.625,20.291
-6.788,48.295,41.057,58.185,-7.59,-5.857,45.027,44.045
-7.106,44.723,38.528,52.759,-7.998,-6.505,37.703,37.886
-5.825,7.5,8.629,13.951,-6.184,-5.39,2.759,2.615
-4.724,-18.957,-12.522,-12.992,-4.316,-4.496,-16.676,-19.844
-4.713,-8.104,-2.488,-1.758,-4.091,-4.687,-1.036,-5.787
-5.018,14.365,17.51,21.261,-4.491,-4.804,20.816,18.608
-4.373,14.504,17.775,20.229,-3.53,-3.727,16.615,16.584
-2.704,-4.063,1.055,-1.122,-1.208,-1.863,-5.085,-7.488
-1.52,-14.335,-7.915,-12.621,0.487,-0.716,-13.82,-20.31
-1.959,-10.601,-3.693,-7.472,0.367,-0.946,-6.928,-14.068
-3.464,-8.361,-1.19,-3.743,-0.826,-1.836,-4.157,-8.321
-4.653,-12.924,-5.243,-8.964,-1.763,-2.88,-9.804,-12.216
-4.482,-15.027,-6.836,-13.453,-1.779,-3.897,-12.149,-16.289
-3.502,-8.724,-1.499,-9.052,-1.622,-4.576,-5.605,-10.956
-3.588,1.852,6.647,2.366,-2.584,-5.133,4.925,1.911
-5.123,9.005,12.664,13.111,-4.408,-5.899,12.296,11.808
-6.387,5.435,11.459,13.615,-5.554,-6.399,10.008,8.235
-6.536,-7.324,3.057,3.853,-5.485,-6.062,-0.63,-5.227
-6.47,-21.183,-7.755,-8.569,-4.977,-5.122,-13.378,-17.809
-6.536,-37.212,-23.133,-25.267,-4.494,-4.1,-29.687,-32.171
-6.23,-53.072,-40.326,-42.7,-4.173,-3.304,-44.737,-46.898
-5.955,-53.43,-43.534,-42.654,-4.582,-3.043,-42.686,-44.962
-6.635,-34.181,-27.527,-20.398,-5.867,-3.472,-22.259,-23.362
-7.74,-8.707,-4.928,8.164,-7.068,-4.06,1.648,1.947
-7.728,12.505,13.444,30.013,-7.149,-4.048,19.72,21.21
-6.413,25.015,23.448,39.73,-6.294,-3.835,28.108,30.474
-5.033,20.12,18.421,29.711,-5.545,-4.403,18.513,20.227
-4.403,-0.715,0.605,5.047,-5.346,-5.469,-4.286,-4.892
-4.252,-18.188,-13.041,-12.775,-5.132,-6.046,-19.271,-22.738
-4.175,-24.583,-17.351,-18.334,-4.733,-5.986,-22.422,-28.146
-4.468,-27.899,-21.091,-21.799,-4.86,-5.785,-24.262,-30.117
-4.849,-27.448,-22.003,-21.675,-4.96,-5.486,-22.513,-26.709
-4.287,-19.481,-13.817,-13.378,-3.839,-4.881,-13.055,-16.715
-3.238,-14.908,-7.3,-8.375,-2.572,-4.362,-8.962,-13.487
-2.696,-25.949,-16.623,-20.208,-2.429,-4.149,-22.541,-27.24
-2.35,-40.852,-31.851,-37.672,-2.538,-4.044,-38.819,-43.3
-2.177,-37.744,-31.746,-37.152,-2.522,-4.345,-34.507,-38.896
-3.204,-18.587,-16.678,-18.516,-3.585,-5.563,-14.173,-17.226
-5.504,-2.566,-3.109,-1.278,-5.814,-7.519,1.001,0.336
-7.591,5.235,4.169,8.043,-7.574,-9.133,7.325,8.336
-8.638,11.353,10.134,16.18,-8.319,-9.461,12.714,15.137
-8.909,9.918,9.408,17.723,-8.668,-8.452,10.885,14.799
-8.356,-3.339,-1.77,6.954,-8.167,-6.567,-1.917,1.06
-7.198,-14.019,-10.965,-3.472,-6.506,-4.746,-11.145,-11.253
-6.136,-16.121,-12.579,-7.492,-4.839,-3.883,-12.365,-13.954
-5.445,-19.146,-14.106,-12.558,-4,-3.922,-14.242,-15.23
-4.865,-22.736,-15.813,-16.595,-3.454,-3.946,-15.319,-15.925
-4.087,-16.969,-11.525,-10.929,-2.708,-3.297,-8.756,-9.747
-3.385,-4.865,-3.69,-0.38,-2.161,-2.752,0.98,-0.675
-3.096,-2.167,-2.41,0.126,-1.992,-3.444,1.953,-1.83
-3.126,-9.412,-8.033,-8.632,-2.228,-5.018,-4.644,-11.983
-3.37,-11.963,-11.513,-12.046,-3.151,-5.783,-7.646,-15.076
-3.609,-7.041,-10.795,-7.239,-4.281,-4.829,-5.511,-7.704
-3.939,-0.294,-6.908,0.603,-5.147,-4.03,-0.005,0.908
-4.959,10.592,4.578,13.5,-6.131,-5.481,13.16,10.28
-6.275,24.415,20.636,28.963,-6.878,-7.633,28.947,22.525
-6.844,24.954,23.629,29.354,-6.608,-7.954,27.905,24.79
-7.106,6.411,7.452,9.137,-6.111,-7.37,7.586,9.559
-7.957,-11.549,-8.951,-10.266,-6.562,-8.043,-8.825,-6.518
-8.384,-15.026,-12.256,-14.367,-7.188,-9.099,-10.468,-10.738
-7.148,-11.034,-9.795,-10.908,-6.695,-8.409,-7.927,-10.089
-5.444,-8.663,-9.599,-8.441,-5.708,-6.617,-8.127,-10.938
-5.272,-8.041,-9.561,-5.686,-5.766,-6.05,-7.41,-9.296
-6.429,-6.116,-6.405,-0.194,-6.913,-6.966,-2.984,-2.95
-7.325,-3.633,-2.338,5.247,-7.878,-7.62,1.881,3.067
-7.677,-2.268,0.428,8.549,-8.112,-7.31,4.77,6.45
-8.241,-3.983,0.636,8.959,-8.068,-6.965,4.231,6.744
-8.913,-9.355,-2.558,5.729,-7.991,-7.148,-0.524,1.862
-9.039,-12.641,-5.273,2.852,-7.757,-7.286,-4.11,-3.774
-8.841,-7.828,-2.168,6.522,-7.477,-6.918,0.245,-0.706
-9.002,3.338,6.621,16.956,-7.375,-6.631,10.929,11.527
-8.962,9.57,11.984,22.229,-6.952,-6.857,15.326,17.372
-7.544,4.388,7.011,12.872,-5.603,-6.923,7.361,6.873
-5.334,-1.161,-0.1,-0.096,-4.134,-6.421,-0.307,-5.546
-4.053,3.347,1.117,-1.604,-3.768,-5.946,2.958,-4.004
-4.115,11.89,8.018,5.951,-4.299,-6.064,10.507,6.03
-4.537,11.489,9.071,7.45,-4.75,-6.542,8.789,7.713
-4.614,-0.443,-0.448,-3.03,-4.76,-6.6,-3.143,-3.017
-4.39,-14.415,-12.615,-16.094,-4.279,-5.753,-14.399,-15.24
-3.972,-25.941,-21.874,-27.172,-3.253,-4.521,-23.727,-24.867
-3.703,-33.951,-27.788,-36.19,-2.585,-4.326,-31.96,-32.623
-3.956,-29.603,-24.345,-34.062,-3.23,-5.847,-28.008,-31.109
-4.511,-12.133,-9.641,-17.718,-4.522,-7.929,-10.454,-17.495
-5.187,1.456,4.311,-1.318,-5.367,-9.04,3.795,-2.616
-5.648,2.746,9.392,6.111,-5.346,-8.576,7.662,4.886
-5.126,3.73,12.596,12.113,-4.473,-7.021,11.223,8.606
-3.848,7.747,16.378,17.471,-3.355,-5.633,14.297,10.012
-3.007,3.817,13.14,13.014,-2.612,-5.021,7.459,5.148
-2.65,-12.921,-1.115,-3.97,-1.867,-4.321,-10.147,-8.939
-1.802,-40.862,-26.441,-32.146,-0.621,-2.785,-36.68,-35.957
-1.199,-65.351,-50.722,-57.362,-0.071,-1.638,-59.164,-62.405
-2.607,-61.082,-49.853,-53.221,-1.622,-2.427,-52.87,-58.589
-4.937,-29.206,-22.167,-20.245,-3.837,-4.134,-20.167,-24.624
-5.25,-1.465,3.784,8.138,-4.247,-4.685,5.183,2.814
-3.538,4.608,9.98,12.998,-3.064,-4.164,7.176,4.026
-2.325,1.3,6.866,8.077,-2.196,-3.809,2.681,-2.193
-2.129,-0.346,4.839,5.646,-2.088,-3.483,3.011,-0.889
-1.585,-3.092,0.926,1.682,-1.899,-2.701,0.598,-1.145
-0.517,-11.719,-8.582,-9.502,-1.227,-2.067,-11.891,-12.232
0.498,-29.634,-24.855,-30.419,-0.066,-1.919,-34.1,-33.466
1.042,-48.355,-40.819,-51.384,0.975,-2.106,-52.317,-52.255
0.845,-47.584,-40.672,-51.707,0.766,-2.778,-47.605,-49.75
0.613,-23.739,-21.112,-28.518,-0.503,-3.834,-22.221,-26.095
0.985,3.748,3.05,-2.191,-1.538,-5.179,3.472,-2.086
0.828,21.847,20.705,14.529,-2.332,-7.085,20.178,11.729
-1.015,31.898,30.847,24.14,-3.819,-9.037,29.735,20.568
-3.362,26.307,26.193,19.827,-5.399,-9.567,22.991,18.703
-4.653,0.984,4.419,-1.948,-5.736,-8.313,-1.235,0.421
-5.194,-18.485,-11.692,-16.155,-5.084,-6.706,-15.881,-14.368
-5.507,-13.479,-5.841,-6.42,-4.299,-5.782,-7.582,-10.855
-5.531,-3.432,5.347,6.593,-3.676,-5.414,2.051,-3.908
-5.666,-7.867,4.167,3.786,-3.51,-5.595,-2.609,-7.815
-6.418,-17.104,-2.759,-4.972,-4.043,-6.263,-10.299,-14.115
-7.344,-16.596,-3.89,-5.306,-4.993,-6.664,-9.401,-11.67
-7.119,-10.653,-2.143,-1.701,-5.424,-6.17,-7.324,-7.302
-5.527,-9.125,-3.718,-3.18,-4.648,-5.172,-11.469,-10.778
-4.335,-11.869,-6.479,-7.51,-3.384,-4.594,-15.591,-17.904
-4.748,-13.552,-6.447,-8.648,-2.916,-4.82,-14.089,-19.785
-6.16,-9.919,-2.214,-3.504,-3.572,-5.495,-7.588,-13.376
-7.757,0.4,6.89,8.639,-4.821,-6.154,3.245,-0.332
-8.682,13.504,17.995,22.801,-5.896,-6.448,14.317,13.385
-7.656,19.678,21.734,26.716,-5.825,-5.838,15.045,16.179
-4.943,14.031,13.112,15.125,-4.288,-4.281,2.362,4.107
-2.749,0.464,-2.503,-4.441,-2.511,-2.796,-16.088,-13.06
-2.293,-20.223,-21.532,-27.357,-1.828,-2.141,-37.229,-29.916
-2.697,-41.469,-38.168,-46.781,-1.901,-2.011,-53.556,-44.583
-2.794,-42.248,-37.014,-44.784,-1.615,-1.872,-47.061,-45.369
-2.742,-16.691,-15.41,-18.557,-1.318,-1.986,-18.546,-26.089
-3.627,11.663,6.849,8.403,-2.436,-3.179,6.968,-1.241
-5.555,24.053,16.116,20.489,-4.74,-5.015,16.944,14.327
-7.194,25.742,18.864,25.542,-6.258,-5.755,21.235,22.623
-7.121,22.164,18.957,26.637,-5.567,-4.556,22.157,24.566
-5.369,11.343,11.492,17.326,-3.341,-2.417,12.582,15.386
-3.303,-4.021,-2.332,0.436,-1.586,-0.796,-5.505,-1.355
-1.755,-22.247,-18.852,-19.102,-0.91,0.066,-27.189,-21.1
-1.191,-37.538,-32.024,-34.569,-0.771,0.206,-42.888,-36.993
-2.092,-34.487,-29.042,-31.365,-1.446,-0.853,-37.044,-34.004
-3.4,-13.021,-9.314,-9.373,-2.737,-2.384,-13.541,-11.731
-3.724,8.033,10.504,12.325,-3.495,-2.96,6.46,11.023
-3.467,19.833,20.923,23.543,-3.402,-2.691,16.428,24.24
-3.389,25.755,25.283,27.391,-2.801,-2.566,21.656,30.205
-3.06,21.587,22.179,20.903,-1.798,-2.75,16.574,23.958
-2.153,5.902,10.113,3.836,-0.847,-2.919,0.095,4.745
-1.501,-5.587,0.714,-7.634,-0.687,-3.107,-10.411,-8.79
-1.383,-4.826,0.483,-6.655,-1.043,-3.197,-9.084,-7.863
-1.051,-2.245,0.616,-5.814,-1.199,-3.069,-8.954,-6.25
-1.006,-2.805,-2.617,-10.123,-1.665,-3.732,-13.894,-10.319
-2.313,-1.046,-2.59,-11.571,-3.036,-5.893,-15.374,-11.554
-4.048,6.223,4.974,-3.992,-4.243,-7.731,-6.876,-3.697
-4.885,20.154,20.4,14.6,-4.264,-7.402,12.752,14.148
-5.248,37.208,39.063,37.783,-3.884,-6.193,34.229,35.786
-5.301,39.493,44.852,43.926,-3.508,-5.629,35.66,41.528
-4.267,17.135,28.392,23.01,-2.211,-4.835,11.84,21.491
-2.638,-8.312,6.406,-1.929,-0.418,-3.243,-11.712,-3.925
-1.402,-15.758,-3.358,-10.582,0.419,-1.719,-18.947,-15.29
-0.457,-11.43,-4.034,-9.221,0.37,-0.679,-19.371,-15.806
0.285,-6.16,-2.482,-5.639,0.312,0.046,-19.212,-11.808
0.776,1.652,3.065,3.122,0.448,0.62,-13.784,-3.017
1.371,15.317,14.548,18.221,0.633,1.256,-0.556,12.078
1.706,33.888,30.495,36.73,0.538,1.312,19.25,33.753
1.249,53.128,47.091,53.408,0.064,-0.336,39.304,53.258
0.969,58.622,52.454,54.415,0.064,-2.692,42.754,52.013
1.436,39.847,37.965,32.646,0.809,-3.682,23.052,27.856
1.458,13.475,16.786,5.647,1.161,-3.84,0.355,2.43
0.895,0.272,4.894,-9.63,0.977,-4.616,-10.237,-12.27
1.022,-2.348,0.133,-15.662,1.306,-4.948,-15.289,-20.623
1.876,-2.573,-2.244,-15.34,2.121,-3.203,-17.695,-21.245
2.304,1.884,1.247,-5.611,2.407,-0.538,-11.501,-10.448
1.895,12.731,11.332,9.606,1.799,0.323,1.048,4.693
1.51,25.874,23.444,22.625,1.118,-0.962,12.407,15.597
1.71,37.205,33.854,31.795,1.04,-2.292,20.521,22.67
1.826,40.544,37.131,33.904,1.213,-2.624,21.503,24.552
1.381,32.63,30.566,25.333,1.249,-2.633,11.927,16.732
1.097,20.265,20.845,12.629,1.336,-2.506,-1.616,3.91
1.916,7.398,11.282,0.749,1.826,-1.609,-15.343,-8.379
3.288,-5.122,0.49,-10.199,2.39,-0.319,-27.919,-18.808
3.608,-6.377,-3.156,-11.078,2.096,0.083,-27.723,-19.128
2.534,10.914,9.032,5.505,0.882,-0.674,-9.524,-3.576
1.287,33.281,27.878,27.49,-0.21,-1.659,10.891,15.869
0.588,43.681,37.347,38.391,-0.745,-2.051,18.607,25.972
-0.067,44.175,36.451,39.47,-1.44,-1.924,18.203,29.939
-0.401,43.098,32.984,38.083,-2.16,-1.513,15.805,30.336
0.548,38.646,28.388,32.591,-1.682,-0.791,8.995,21.24
1.823,31.718,23.925,24.493,-0.339,-0.411,2.67,8.137
1.886,30.752,24.842,22.768,0.403,-0.865,5.789,6.06
1.349,36.277,30.84,28.996,0.618,-1.069,15.222,17.044
1.564,37.942,33.763,32.631,1.319,-0.078,19.093,26.117
2.583,31.59,29.79,27.545,2.521,1.344,14.142,23.143
3.486,26.879,26.128,22.903,3.317,2.106,10.316,17.855
3.468,30.999,29.035,27.18,2.927,1.831,14.708,21.29
2.87,39.338,35.685,35.695,1.682,0.789,22.615,28.41
2.986,43.76,39.389,39.176,0.972,0.142,24.397,29.396
4.109,40.603,36.182,34.46,1.577,0.771,16.816,23.864
4.932,32.044,27.886,25.416,2.715,1.883,6.038,17.013
4.517,22.282,19.265,16.875,3.173,2.241,-1.796,10.483
3.42,16.591,15.637,13.404,2.72,1.74,-3.425,6.207
2.614,17.399,18.391,16.276,2.295,1.337,0.691,7.395
2.32,20.185,21.516,20.047,2.66,1.904,4.735,11.441
2.36,22.497,21.686,22.003,3.359,3.101,5.976,14.699
2.857,28.143,23.494,26.187,3.699,3.931,8.167,18.74
3.51,37.915,29.606,34.197,3.573,4.032,14.114,25.443
3.53,42.932,33.206,38.153,3.169,3.658,17.3,28.726
3.083,35.689,26.658,30,2.731,3.009,10.04,20.807
3.217,24.476,15.571,16.281,2.472,2.268,-1.231,7.857
4.631,18.079,8.481,6.001,2.91,2.202,-9.097,-1.464
6.618,12.034,2.604,-2.502,4,3.243,-16.166,-9.394
7.236,8.008,-2.144,-6.059,4.001,4.02,-18.213,-11.752
6.175,17.029,2.965,3.957,2.206,3.324,-7.15,0.742
5.821,28.902,11.593,14.599,1.161,2.669,1.558,12.705
7.561,14.158,0.086,-2.734,2.99,3.978,-19.219,-5.602
9.613,-21.986,-29.275,-40.539,5.945,5.991,-56.306,-45.203
10.025,-32.302,-37.807,-51.805,7.051,5.881,-62.853,-59.062
9.331,1.997,-7.847,-19.105,6.09,3.662,-28.171,-29.171
9.046,43.093,29.091,20.764,5.063,2.155,9.334,10.266
9.276,56.412,41.796,35.331,4.853,2.479,22.152,26.682
9.015,52.809,39.275,35.254,4.56,2.815,22.449,28.39
8.469,51.46,39.59,37.925,4.267,2.734,24.159,32.776
8.88,47.413,38.254,37.2,5.161,4.011,20.91,34.304
9.605,37.077,30.423,28.791,6.4,5.814,11.72,25.797
8.925,31.723,25.732,23.611,6.092,5.266,7.969,16.452
7.544,36.037,28.79,26.606,4.694,2.982,12.698,15.959
7.287,39.557,30.597,28.28,3.856,1.994,15.252,18.353
7.985,33.106,23.739,20.873,3.843,2.699,8.325,13.044
8.798,25.468,15.558,12.998,4.13,3.463,1.69,6.624
9.532,32.022,19.197,18.878,4.495,3.869,9.154,14.433
9.781,49.202,34.083,35.682,4.972,4.517,26.244,33.327
9.833,56.289,43.67,43.345,5.929,5.494,32.637,41.476
10.193,44.141,36.704,31.693,7.162,6.016,20.556,28.381
9.821,24.38,20.473,12.555,7.374,5.426,3.298,7.784
8.76,5.469,3.929,-4.71,6.63,4.806,-11.929,-8.512
9.271,-11.587,-11.001,-20.588,6.776,5.799,-27.02,-21.201
11.436,-16.367,-16.626,-26.173,7.95,7.667,-32.082,-24.065
12.5,-1.142,-5.148,-11.909,8.511,8.307,-16.791,-8.862
11.373,21.086,14.941,11.591,8.065,7.554,7.72,14.598
9.435,33.649,28.325,26.826,7.178,6.606,22.702,28.962
7.707,37.675,33.195,32.609,5.981,5.664,26.943,32.164
6.301,38.006,33.699,33.609,4.803,4.721,26.123,30.273
5.467,30.189,27.096,26.803,4.262,4.607,18.5,23.021
5.393,18.726,17.544,16.949,4.424,5.495,9.379,13.658
5.844,15.258,15.291,14.718,5.04,6.559,7.522,10.183
6.679,16.702,16.971,16.446,6.082,7.409,8.427,10.719
7.869,14.495,14.01,13.916,7.169,8.161,5.318,7.81
8.826,11.514,9.59,11.522,7.422,8.741,2.072,3.646
8.892,9.733,7.451,12.499,6.731,9.236,0.383,2.691
8.419,-1.308,-0.712,4.99,6.268,10.108,-10.182,-3.661
7.973,-22.681,-16.996,-14.196,6.873,11.241,-28.917,-18.753
7.402,-32.287,-23.858,-23.375,7.781,11.574,-33.554,-24.66
6.726,-16.23,-9.934,-8.712,7.917,10.52,-14.865,-10.835
6.377,8.019,10.256,13.014,7.448,9.017,7.353,7.99
6.327,18.986,18.949,22.289,7.171,8.277,15.841,16.15
5.991,18.663,18.299,21.782,6.97,8.035,16.2,16.174
5.188,14.974,15.445,18.214,6.057,7.306,14.976,14.543
4.685,6.287,7.383,8.202,4.593,6.285,7.971,9.132
5.046,-1.299,-3.207,-3.292,3.583,5.804,0.219,3.141
5.818,5.174,-4.268,-2.626,3.318,5.69,4.22,5.876
6.18,21.412,4.477,8.159,3.062,4.981,16.437,13.496
5.567,26.702,7.904,10.699,2.234,3.389,18.896,11.829
4.46,12.524,-2.152,-3.098,1.418,1.912,5.913,-2.432
4.19,-2.651,-12.475,-16.749,1.608,1.682,-5.105,-15.5
4.798,1.133,-7.005,-11.659,2.514,2.442,1.052,-12.782
5.06,17.326,9.761,6.35,3.085,3.072,16.499,3.391
4.912,24.263,20.311,15.815,3.598,3.38,22.911,15.021
4.975,14.057,17.009,7.97,4.878,3.904,14.599,10.022
4.814,-4.041,5.728,-8.066,6.079,4.453,-0.679,-5.581
4.155,-26.146,-11.523,-28.387,6.025,4.56,-21.425,-26.446
3.741,-51.378,-34.043,-52.626,5.442,4.613,-45.736,-51.009
3.745,-61.425,-44.846,-62.507,5.531,4.992,-53.367,-61.929
3.397,-42.104,-29.87,-43.304,5.902,5.149,-31.519,-43.545
2.549,-11.633,-4.359,-13.201,5.608,4.677,-0.382,-11.659
1.912,4.102,7.959,1.014,4.614,3.883,14.188,5.625
1.778,4.941,6.179,-1.04,3.41,2.954,13.02,4.214
1.876,2.182,1.767,-6.191,2.613,2.13,8.316,-3.403
1.964,-4.815,-3.742,-12.673,2.719,1.945,1.942,-11.686
1.762,-15.386,-10.229,-19.588,3.281,2.291,-3.65,-15.698
1.27,-19.262,-11.322,-19.683,3.261,2.236,-3.032,-10.946
0.877,-14.865,-7.97,-15.115,2.226,1.215,0.228,-6.457
0.872,-10.386,-8.06,-14.295,0.757,0.161,0.37,-10.326
1.458,-7.317,-11.35,-15.795,0.068,0.45,-0.225,-14.978
2.359,-5.275,-13.724,-16.847,0.614,1.617,-1.21,-15.501
2.838,-14.474,-21.369,-26.499,1.582,2.421,-12.18,-22.873
2.646,-35.955,-37.119,-45.753,2.105,2.776,-30.449,-40.172
1.705,-47.43,-45.183,-54.12,1.628,2.375,-34.431,-47.591
0.073,-35.398,-33.809,-39.723,0.216,0.696,-17.532,-32.628
-1.189,-12.32,-11.524,-15.054,-0.787,-1.176,5.605,-8.792
-1.438,9.108,10.482,7.261,-0.611,-2.104,27.092,10.505
-1.532,26.5,27.41,24.547,-0.524,-2.55,45.876,25.997
-1.602,30.307,29.73,27.316,-1.184,-2.595,47.861,30.454
-0.853,8.565,8.862,4.397,-1.315,-1.54,21.699,9.695
-0.142,-22.101,-19.09,-26.834,-0.772,-0.391,-8.726,-21.456
-1.073,-26.886,-24.927,-32.135,-1.296,-1.029,-8.442,-26.949
-3.098,-3.337,-7.37,-9.743,-3.151,-2.982,17.389,-2.402
-4.15,14.935,6.783,7.138,-4.225,-4.174,33.328,17.539
-3.463,7.363,1.283,-1.758,-3.353,-3.988,24.058,8.822
-2.028,-14.572,-16.566,-24.919,-1.811,-3.209,2.435,-16.491
-0.465,-39.465,-38.805,-50.198,-0.617,-2.036,-23.16,-42.437
1.263,-64.777,-61.616,-74.565,0.483,-0.416,-48.682,-65.431
2.415,-72.498,-69.074,-81.706,0.893,0.559,-54.247,-71.522
2.438,-46.33,-48.831,-57.408,-0.333,-0.063,-28.36,-48.151
1.79,-5.709,-16.474,-19.113,-2.427,-1.518,7.341,-12.5
0.615,19.041,5.339,6.748,-3.776,-2.631,28.719,11.198
-0.476,27.026,16.13,18.21,-3.37,-2.802,38.177,22.641
0.05,28.274,20.673,20.567,-1.464,-1.847,40.167,25.822
1.525,16.848,9.999,6.742,-0.156,-0.787,26.325,12.001
1.837,-5.279,-13.054,-18.228,-0.768,-0.785,4.055,-12.815
1.706,-19.493,-27.881,-34.23,-1.229,-0.859,-7.138,-27.171
2.959,-21.077,-29.632,-37.499,0.295,0.394,-7.376,-28.091
4.385,-19.323,-28.809,-35.959,1.916,2.076,-6.038,-24.421
4.155,-15.793,-26.445,-28.862,1.843,2.857,-0.776,-15.517
3.75,-8.534,-18.924,-17.52,1.769,3.086,10.11,-4.707
4.745,0.324,-9.289,-9.281,2.716,2.808,20.415,-1.051
5.009,10.452,0.212,-2.065,2.431,1.214,28.927,1.376
2.873,16.713,6.61,5.124,0.298,-0.768,33.603,8.584
0.883,8.992,1.749,0.971,-0.995,-1.082,26.617,8.255
1.666,-7.348,-12.534,-15.223,-0.337,0.123,11.223,-4.82
4.389,-20.592,-26.582,-32.77,0.884,1.131,-4.661,-22.231
7.04,-31.076,-38.484,-47.708,2.072,1.87,-19.298,-39.134
8.259,-35.057,-43.64,-52.971,3.159,2.883,-24.074,-46.437
7.35,-23.439,-33.013,-39.775,3.208,3.099,-10.901,-33.995
5.17,-2.895,-12.469,-16.874,2.043,1.978,9.673,-10.648
3.243,10.825,2.119,-1.028,0.82,0.737,22.89,6.033
1.94,14.007,6.983,4.579,0.504,0.087,28.974,12.393
1.615,10.542,6.901,3.508,1.627,0.061,30.291,11.434
2.941,0.398,1.138,-5.574,3.965,0.978,22.739,1.751
4.479,-11.172,-6.951,-16.446,5.77,2.225,14.037,-8.648
3.594,-13.322,-6.402,-15.823,5.58,2.346,19.337,-5.256
0.409,-6.579,3.388,-4.814,4.132,1.098,35.305,8.788
-1.95,-4.476,8.514,-0.379,3.138,-0.202,41.8,14.428
-1.608,-16.03,-1.566,-12.97,3.221,-0.253,29.409,2.385
-0.293,-31.645,-18.097,-30.25,3.69,0.898,12.79,-13.149
0.294,-38.79,-27.37,-37.283,4.019,2.324,5.084,-18.452
1.055,-41.511,-31.606,-39.726,4.421,3.261,0.314,-22.286
2.294,-43.857,-34.533,-43.214,4.74,3.236,-3.26,-29.899
2.572,-38.436,-29.883,-39.193,4.338,2.279,2.913,-28.613
1.642,-25.953,-19.252,-27.439,3.158,1.171,14.319,-16.719
0.819,-17.714,-13.69,-19.442,1.917,0.866,18.379,-7.662
0.969,-13.511,-12.982,-15.189,1.299,1.709,18.769,-2.779
1.621,-6.646,-9.659,-8.171,1.199,2.883,23.726,4.36
1.557,-5.033,-7.929,-5.487,1.197,3.137,25.905,7.298
0.666,-15.704,-13.273,-13.009,1.678,2.747,19.661,0.216
0.426,-27.213,-19.594,-21.416,2.89,2.897,12.608,-9.434
1.028,-29.244,-21.861,-23.694,3.45,3.11,9.987,-14.669
0.811,-27.79,-23.066,-24.215,2.437,2.395,8.859,-16.036
0.005,-30.403,-24.913,-26.943,1.695,1.782,7.173,-16.596
0.453,-32.299,-23.976,-27.932,2.717,2.461,7.785,-16.411
1.437,-27.925,-19.702,-24.19,3.624,3.192,12.01,-13.428
1.004,-21.145,-15.276,-19.271,2.796,2.431,17.623,-8.482
0.039,-17.238,-12.473,-17.517,1.915,1.173,20.697,-5.577
0.38,-18.051,-14.304,-21.259,2.333,1.01,16.909,-8.321
1.282,-19.951,-19.657,-25.902,2.743,1.463,10.781,-13.148
1.475,-19.313,-22.041,-25.097,2.705,2,9.645,-14.311
1.524,-20.915,-22.315,-23.08,3.528,3.565,9.79,-14.11
1.505,-27.18,-25.03,-24.698,4.417,5.561,7.245,-15.198
0.522,-31.66,-28.278,-26.117,3.452,5.799,6.468,-15.276
-0.677,-29.263,-27.529,-23.188,1.753,4.546,11.102,-12.273
-1.013,-23.314,-23.03,-17.895,1.272,3.697,17.622,-7.057
-1.547,-20.581,-19.263,-14.51,1.332,3.23,20.891,-2.483
-2.975,-22.984,-19.083,-14.436,0.986,2.53,19.513,-1.143
-3.701,-28.302,-22.482,-17.843,0.863,2.395,14.335,-4.556
-3.013,-30.929,-24.707,-20.616,1.082,3.036,11.497,-7.447
-2.518,-27.637,-21.114,-17.607,0.867,3.255,16.158,-2.743
-3.018,-24.366,-16.595,-13.322,0.343,2.701,21.837,3.859
-3.378,-23.472,-15.948,-12.646,0.2,2.051,21.808,3.329
-2.747,-20.192,-16.29,-13.167,0.466,1.553,18.258,-2.56
-1.405,-18.157,-17.975,-15.826,1,1.533,12.566,-9.067
0.01,-28.733,-28.532,-28.156,1.674,2.444,-0.737,-20.058
0.826,-49.98,-47.795,-48.9,1.967,3.631,-20.198,-38.049
0.506,-59.023,-57.576,-57.334,1.459,3.981,-27.017,-45.681
-0.777,-41.153,-43.801,-38.56,0.22,3.302,-9.871,-27.149
-1.75,-13.771,-20.016,-10.183,-0.908,2.292,14.095,-1.039
-1.471,-1.029,-7.947,2.605,-0.997,1.734,24.895,7.607
-0.75,-1.014,-7.54,2.238,-0.479,1.75,26.101,6.398
-0.361,-1.025,-7.568,1.885,0.09,2.029,26.179,8.682
-0.045,-5.276,-10.341,-2.917,1.138,2.454,20.13,5.044
-0.223,-17.674,-20.001,-15.843,2.137,2.769,9.333,-7.496
-1.185,-25.306,-27.047,-24.285,2.027,2.601,6.406,-13.569
-1.572,-21.519,-23.767,-21.444,1.657,2.355,13.008,-7.897
-0.712,-16.213,-15.986,-15.719,2.315,2.722,18.639,-0.848
0.035,-18.135,-14.289,-15.464,3.237,3.606,16.198,-0.991
-0.104,-25.562,-21.374,-19.783,3.351,4.728,7.779,-6.459
0.091,-37.098,-34.274,-28.661,3.587,6.315,-5.582,-15.608
1.823,-53.359,-50.929,-45.511,4.941,8.129,-24.585,-32.088
4.083,-61.958,-61.487,-58.644,6.07,8.841,-35.248,-45.057
4.427,-48.893,-53.16,-49.716,5.25,7.593,-21.866,-34.855
2.314,-25.482,-32.939,-26.927,3.145,5.213,2.056,-10.308
0.127,-15.498,-21.945,-16.294,1.729,3.308,9.935,-1.491
-0.362,-18.31,-23.007,-18.726,1.547,2.806,5.593,-9.305
-0.115,-16.712,-21.758,-15.734,1.755,3.313,9.103,-9.642
-0.282,-13.702,-18.845,-11.15,2.072,3.9,13.852,-3.836
-0.596,-18.358,-22.282,-16.07,2.443,4.063,7.993,-6.439
-0.907,-19.148,-23.597,-17.954,1.923,3.566,4.617,-7.507
-1.597,-7.381,-15.166,-5.95,0.027,2.518,14.061,4.673
-2.278,2.483,-8.195,4.957,-1.929,1.747,21.932,15.483
-2.011,-5.119,-14.568,-2.473,-2.134,1.893,13.775,7.272
-1.01,-22.687,-26.642,-19.721,-0.575,2.628,-0.823,-9.741
-0.473,-38.81,-36.016,-33.714,1.212,3.541,-11.866,-20.498
-0.633,-57.35,-50.042,-50.415,2.43,4.527,-26.18,-32.652
-0.733,-71.038,-64.033,-65.433,3.181,4.991,-36.72,-45.387
-0.527,-60.265,-57.925,-58.004,3.328,4.412,-23.915,-38.495
-0.251,-30.133,-33.351,-30.548,2.871,3.528,5.538,-11.773
0.181,-7.715,-14.597,-9.922,2.366,3.347,24.664,9.842
1.099,-5.393,-13.333,-9.301,2.489,3.77,24.152,11.432
2.402,-12.824,-19.206,-16.982,3.319,4.377,16.072,2.202
3.502,-19.698,-22.64,-20.933,4.314,5.328,9.625,-3.975
3.916,-22.657,-22.768,-19.792,5.002,6.347,6.97,-3.55
3.381,-18.069,-18.236,-13.265,4.909,6.342,11.399,1.77
2.112,-6.718,-8.846,-1.839,3.804,5.224,22.659,10.987
1.175,1.622,-1.473,6.576,2.574,4.35,30.811,19.545
1.544,-3.435,-5.357,1.146,2.372,4.437,25.117,16.629
2.838,-17.541,-17.63,-14.883,3.18,4.676,10.811,1.204
3.729,-27.629,-26.421,-27.347,4.229,4.439,1.142,-12.522
3.69,-32.125,-29.595,-32.517,4.966,4.27,-2.354,-16.229
3.26,-33.765,-30.903,-33.524,4.888,4.389,-3.096,-13.359
2.901,-29.533,-29.612,-30.228,3.842,4.172,-0.323,-9.084
2.559,-21.17,-25.563,-24.741,2.604,3.433,4.411,-6.347
1.841,-15.735,-21.238,-20.769,1.739,2.339,7.443,-4.374
0.588,-13.122,-16.494,-16.209,0.846,1.007,10.392,0.285
-0.63,-9.426,-11.183,-9.138,-0.342,-0.005,14.566,6.252
-0.988,-8.585,-10.582,-6.376,-1.24,-0.114,14.445,5.147
-0.374,-11.347,-14.487,-8.873,-1.219,0.666,11.507,-0.112
0.251,-8.404,-13.16,-5.536,-0.649,1.734,15.992,5.921
-0.122,3.595,-2.695,7.228,-0.48,1.971,28.583,22.646
-1.033,14.42,7.988,17.868,-0.61,1.331,36.536,31.116
-1.097,9.698,5.33,12.207,0.067,1.593,27.911,20.708
-0.591,-9.092,-10.267,-6.335,1.206,3.013,9.892,3.253
-1.201,-26.293,-24.376,-21.232,1.13,3.352,-1.913,-6.836
-2.715,-37.369,-31.54,-29.234,0.114,2.047,-8.119,-13.996
-3.798,-45.878,-34.407,-34.188,-0.299,0.806,-12.852,-21.809
-4.942,-48.383,-31.25,-31.377,-0.548,0.192,-10.652,-19.939
-6.506,-41.701,-22.556,-20.071,-1.567,-0.352,-1.674,-7.049
-7.003,-30.548,-15.079,-9.735,-2.333,-0.462,6.399,4.084
-5.957,-20.52,-11.123,-4.437,-1.78,0.273,12.742,8.385
-4.961,-14.473,-7.813,-1.293,-0.78,0.863,18.655,10.471
-5.011,-17.852,-9.387,-5.097,-0.537,0.358,16.516,7.249
-5.346,-31.797,-20.059,-20.291,-0.702,-0.707,3.058,-7.102
-5.074,-47.883,-33.035,-38.556,-0.125,-1.133,-12.788,-26.074
-4.492,-56.253,-39.042,-47.469,1.17,-0.383,-20.149,-34.668
-4.649,-52.011,-35.166,-42.001,1.608,0.654,-14.355,-25.081
-5.668,-41.166,-27.532,-30.205,0.419,0.763,-2.678,-7.983
-6.226,-31.526,-21.759,-20.956,-0.962,0.086,5.877,2.06
-5.739,-20.913,-15.004,-11.881,-1.603,-0.674,12.142,6.2
-5.344,-7.661,-6.192,-0.591,-2.586,-1.431,18.491,12.412
-5.484,1.434,-0.885,6.475,-4.056,-2.189,21.12,17.533
-5.218,-0.899,-3.826,2.248,-4.509,-2.71,14.922,12.164
-4.423,-8.267,-9.695,-5.868,-3.979,-2.86,6.303,2.965
-3.878,-8.092,-9.867,-5.766,-4.031,-2.884,5.082,2.115
-3.687,-5.066,-9.048,-4.368,-4.83,-3.092,4.554,1.405
-3.513,-8.736,-13.545,-10.41,-5.089,-3.113,-2.01,-5.542
-3.499,-12.933,-15.969,-14.085,-4.282,-2.424,-4.814,-6.311
-4.104,-12.048,-11.137,-9.183,-3.357,-1.621,0.65,1.634
-5.142,-15.348,-8.453,-7.98,-3.082,-1.618,1.531,3.344
-5.269,-30.097,-16.157,-19.976,-2.37,-1.723,-9.931,-7.961
-3.644,-44.623,-25.086,-33.439,0.078,-0.651,-20.671,-21.09
-2.041,-43.094,-21.76,-31.509,2.594,0.712,-15.857,-21.85
-2.845,-29.006,-10.003,-17.364,2.073,0.273,-1.338,-10.49
-5.198,-19.281,-4.429,-9.054,-1.12,-1.918,5.64,-1.824
-5.889,-18.583,-7.396,-11.823,-3.193,-3.502,2.307,-3.124
-4.018,-16.528,-9.323,-13.852,-2.364,-2.886,0.281,-4.793
-2.163,-10.163,-8.396,-10.478,-0.917,-1.137,2.8,-1.279
-1.934,-8.062,-10.581,-9.558,-0.759,0.138,1.788,0.304
-1.714,-21.447,-22.512,-21.804,-0.585,1.29,-13.442,-11.175
-0.81,-53.664,-47.264,-50.491,0.473,2.73,-43.849,-39.006
-1.339,-81.152,-67.979,-73.58,0.391,2.87,-64.367,-61.623
-3.79,-73.302,-59.839,-62.374,-1.859,1.024,-49.191,-50.569
-5.475,-40.405,-29.679,-27.426,-3.853,-0.69,-15.234,-15.619
-4.918,-26.81,-14.065,-12.275,-3.337,-0.517,-6.039,-0.504
-3.857,-49.345,-29.628,-33.713,-1.359,0.715,-31.21,-22.547
-4.262,-72.724,-49.2,-57.456,-0.56,1.059,-53.456,-47.657
-5.752,-63.742,-43.791,-50.382,-1.518,-0.098,-44.698,-44.116
-6.671,-32.604,-18.817,-20.645,-2.306,-1.366,-16.71,-20.537
-6.988,-1.968,8.27,11.255,-2.198,-1.738,11.61,5.792
-8.215,23.558,32.393,39.939,-2.858,-2.3,37.028,33.136
-10.114,37.754,46.034,55.953,-4.637,-3.861,50.602,52.174
-10.087,22.414,32.542,39.611,-5.211,-4.676,33.502,40.757
-7.262,-13.421,-0.552,1.57,-3.738,-3.307,-2.501,6.663
-4.243,-31.169,-19.926,-18.375,-2.588,-1.588,-19.59,-12.267
-3.067,-20.412,-14.804,-9.935,-3.001,-1.377,-11.007,-5.312
-3.181,-6.909,-4.395,2.267,-3.673,-1.929,-1.521,5.179
-3.599,-6.464,-2.258,3.303,-3.921,-2.191,-3.178,5.086
-3.557,-8.737,-3.133,0.879,-3.751,-1.903,-6.199,0.796
-2.697,-1.49,1.696,4.87,-2.678,-1.063,-0.641,2.465
-2.04,12.192,11.455,14.505,-1.267,-0.325,11.579,11.445
-2.636,20.765,18.327,21.726,-0.786,-0.362,20.263,20.279
-3.575,14.011,14.788,16.628,-0.53,-0.619,15.345,17.879
-3.501,-5.535,2.598,-0.327,0.814,-0.326,-0.204,2.959
-2.814,-26.406,-11.778,-19.591,2.267,0.206,-17.459,-15.745
-2.472,-44.996,-28.086,-37.748,2.421,0.557,-35.307,-33.393
-2.615,-55.799,-39.582,-47.605,1.65,0.767,-44.91,-41.39
-3.161,-47.67,-32.918,-36.616,0.687,0.715,-32.93,-27.718
-3.844,-25.967,-13.316,-11.42,-0.386,0.534,-9.563,-0.769
-3.97,-9.962,-0.824,5.649,-1.282,0.638,2.276,13.522
-3.269,-6.201,-0.721,7.335,-1.51,0.802,-0.412,6.103
-2.478,-7.038,-2.012,5.208,-1.216,0.825,-4.663,-4.39
-2.184,-10.197,-1.43,4.823,-0.755,1.419,-6.682,-4.656
-2.293,-14.184,-1.636,4.594,-0.295,2.377,-8.13,-0.728
-3.117,-10.103,1.808,8.624,-0.58,1.847,-4.845,3.838
-4.421,1.944,9.649,17.496,-1.711,-0.087,2.318,10.865
-4.584,9.114,13.737,22.391,-1.994,-0.776,4.413,15.484
-3.445,3.049,8.704,16.138,-0.774,0.268,-2.554,10.157
-3.119,-8.43,0.221,5.27,-0.005,0.756,-10.546,-0.274
-4.475,-13.398,-3.309,1.676,-1.084,-0.138,-11.99,-3.174
-5.825,-14.723,-4.418,2.489,-2.765,-1.055,-12.387,-0.241
-5.969,-18.842,-7.87,-0.664,-3.476,-1.385,-16.855,-1.952
-5.857,-22.09,-10.157,-5.094,-3.329,-1.875,-20.292,-7.708
-6.313,-20.245,-7.378,-4.78,-2.812,-2.513,-17.657,-9.144
-6.571,-14.985,-0.918,0.313,-1.874,-2.285,-10.341,-3.309
-5.918,-10.315,5.09,5.507,-0.677,-1.151,-3.724,4.37
-5.138,-7.841,8.077,7.629,0.002,-0.579,-1.852,7.855
-5.409,-7.707,7.444,6.647,-0.605,-1.535,-5.452,5.306
-6.311,-9.373,4.836,4.886,-1.945,-2.836,-10.337,0.374
-6.488,-6.004,7.549,9.902,-2.568,-2.914,-5.673,3.588
-5.855,11.072,22.208,28.574,-2.382,-2.119,14.589,22.321
-5.343,33.045,39.119,49.78,-2.541,-1.648,34.57,43.596
-5.307,33.916,36.09,47.376,-3.157,-1.638,28.371,41.012
-5.646,10.245,13.183,20.89,-3.42,-1.664,1.721,15.829
-6.663,-5.683,0.731,6.12,-3.621,-1.949,-8.39,4.581
-8.377,6.903,15.7,23.223,-4.468,-2.806,12.609,24.941
-9.466,29.226,38.451,48.839,-5.058,-3.489,37.423,49.843
-8.305,31.908,41.349,50.867,-3.791,-2.609,35.47,48.31
-5.258,14.333,24.67,30.258,-0.839,-0.187,12.715,25.979
-2.763,2.492,13.09,15.195,1.612,1.506,-0.422,11.191
-2.429,10.189,19.428,20.208,1.693,0.683,6.594,15.453
-3.384,23.621,30.92,32.05,-0.147,-1.695,16.314,25.089
-3.996,24.091,30.909,32.867,-1.71,-3.232,12.426,23.439
-4.07,13.381,21.576,24.558,-1.759,-2.8,1.746,13.733
-4.416,9.588,18.906,23.297,-1.268,-1.75,1.993,12.863
-4.943,19.027,27.666,33.177,-1.378,-1.653,13.302,23.926
-4.955,29.337,36.368,42.34,-1.843,-2.006,20.448,34.037
-4.218,30.03,35.803,41.162,-1.753,-1.784,15.998,32.971
-3.041,23.889,28.941,31.879,-1.052,-1.418,5.335,22.643
-1.867,11.349,17.509,16.46,-0.354,-1.22,-10.527,6.496
-0.523,-14.544,-4.037,-9.281,0.848,0.119,-36.871,-18.721
0.688,-38.554,-24.917,-31.137,2.499,2.465,-58.097,-40.536
0.402,-29.352,-20.215,-21.37,2.235,2.942,-47.272,-32.193
-0.981,7.376,6.722,13.398,-0.475,0.902,-14.338,1.434
-0.95,25.882,19.16,29.682,-2.248,-0.213,-2.619,18.306
0.978,3.747,-1.478,6.72,-1.066,1.419,-27.913,-3.942
2.415,-24.839,-26.007,-22.183,0.903,3.142,-54.102,-34.46
2.15,-21.034,-20.779,-18.717,1.509,2.753,-46.575,-34.012
1.458,6.416,6.457,9.852,1.477,1.604,-16.9,-6.77
1.229,26.943,27.902,33.269,1.917,1.314,5.582,17.915
0.819,32.888,35.327,42.007,2.043,1.257,13.932,29.012
0.265,34.701,37.219,44.821,1.219,0.724,16.34,33.21
0.907,33.245,35.015,42.438,0.976,0.866,12.4,29.937
2.464,24.944,26.972,32.98,2.12,2.091,1.498,17.968
2.709,19.641,22.491,27.987,2.797,2.443,-3.67,10.778
1.432,28.237,30.617,37.719,2.06,1.261,6.608,19.774
1.122,43.886,44.348,53.434,1.598,0.662,22.264,35.799
2.897,48.643,47.238,56.607,2.426,1.865,24.472,40.259
4.805,39.118,36.399,44.996,3.182,3.406,12.057,31.348
5.436,27.662,24.159,31.816,3.128,3.938,-2.337,19.328
6.163,16.986,14.297,19.669,3.831,4.386,-16.483,3.54
7.42,4.964,4.751,7.318,5.628,5.468,-28.418,-12.781
7.165,1.204,3.279,5.252,6.214,5.556,-26.28,-13.658
4.941,12.405,14.946,18.38,4.604,3.509,-9.409,2.268
2.833,24.783,26.544,31.085,2.652,1.158,2.509,15.214
2.321,20.159,21.932,25.985,2.117,0.865,-5.701,10.738
3.096,6.219,8.68,11.636,2.724,2.295,-20.11,0.043
4.119,4.208,6.126,8.809,3.248,3.278,-19.506,1.309
4.729,16.191,16.136,18.939,3.336,2.679,-6.746,11.692
5.308,28.971,26.597,28.509,3.651,1.514,2.54,16.912
6.362,33.689,29.448,30.128,4.468,1.564,2.581,14.624
6.918,31.594,27.082,27.607,4.957,2.572,-0.937,12.339
6.326,27.44,24.985,24.967,4.907,2.91,-3.246,10.512
6.162,25.782,25.154,23.618,5.444,3.06,-3.161,7.949
7.013,32.331,29.642,28.727,6.365,4.008,2.984,12.903
6.894,46.475,39.177,41.892,5.92,4.292,15.5,28.24
5.246,56.694,47.42,53.266,4.213,2.999,24.718,41.59
4.411,51.276,44.604,50.825,3.259,2.182,19.557,39.73
5.584,36.043,32.54,38.446,3.584,3.224,5.491,26.578
6.778,30.939,26.96,34.054,3.748,4.289,1.187,19.677
6.459,43.509,36.609,45.074,3.323,3.769,12.955,27.822
6.109,61.171,52.216,60.214,3.601,3.081,28.043,42.295
7.042,65.414,56.399,62.221,4.787,3.687,28.602,46.605
7.806,51.648,43.97,47.602,5.224,4.18,13.129,34.654
7.162,37.667,31.561,34.709,4.519,3.334,2.15,21.587
6.23,39.963,34.588,39.193,4.11,2.564,9.342,24.792
6.015,50.632,44.778,50.54,4.187,2.481,21.735,35.809
6.436,50.494,43.831,47.799,4.017,2.093,18.974,30.802
7.113,39.864,32.654,34.226,3.747,1.755,4.698,13.921
7.168,37.257,29.425,32.404,3.443,2.056,0.159,12.602
6.155,46.174,38.331,44.036,2.811,1.91,7.621,26.016
4.538,52.333,45.667,50.28,1.786,0.275,11.761,30.253
3.054,49.393,43.975,44.994,0.826,-1.683,7.311,21.704
2.889,44.014,39.309,38.312,1.084,-1.595,1.044,15.011
4.281,36.956,33.955,31.862,2.69,0.571,-5.988,11.962
5.382,19.159,19.453,15.073,3.899,2.349,-20.524,-0.204
4.709,-1.498,0.228,-4.478,3.454,2.472,-34.676,-16.3
2.94,-2.383,-3.459,-3.702,2.082,1.84,-30.565,-13.828
1.423,13.925,9.871,14.08,1.059,1.33,-14.058,5.1
1.037,19.135,16.489,19.318,0.893,1.017,-11.328,10.479
2.283,2.856,3.501,1.167,1.523,1.131,-29.854,-9.353
4.344,-11.58,-11.536,-16.292,2.348,1.857,-45.825,-27.684
5.489,-2.474,-7.208,-10.394,2.602,2.33,-38.298,-20.955
5.231,21.83,12.577,10.826,2.1,1.394,-16.917,-1.481
4.322,35.642,24.771,22.511,1.132,-0.365,-6.989,6.463
3.725,25.531,15.411,12.152,0.506,-0.854,-18.827,-3.565
3.846,8.599,-0.805,-4.565,0.728,0.114,-34.805,-17.804
3.921,10.358,-0.501,-3.702,0.97,0.463,-32.381,-18.397
3.645,28.736,15.161,14.434,0.789,0.056,-14.054,-3.063
3.605,41.58,26.816,29.504,0.624,0.27,0.115,12.642
2.985,42.373,28.137,33.045,-0.265,0.006,3.607,18.201
0.732,43.812,30.218,35.787,-2.548,-2.205,6.954,21.456
-1.832,44.227,33.28,37.961,-4.556,-4.582,8.737,24.556
-3.08,31.751,26.111,28.967,-4.962,-5,-0.676,19.062
-3.189,19.725,15.985,18.699,-4.924,-4.292,-10.595,11.977
-2.553,28.805,21.013,25.773,-5.181,-4.076,-4.226,17.028
-1.412,48.169,37.297,43.768,-4.953,-4.129,11.237,28.864
-0.886,49.629,41.601,48.221,-4.28,-3.523,12.834,29.58
-1.617,31.525,27.913,33.956,-4.047,-2.706,-2.126,16.221
-2.729,16.238,14.248,18.976,-4.423,-2.91,-14.804,3.304
-3.309,8.447,7.943,9.846,-4.986,-4.049,-21.287,-4.139
-3.384,-0.099,2.103,1.763,-5.563,-4.885,-28.381,-10.084
-3.376,-2.108,0.101,1.115,-6.1,-4.893,-28.448,-8.956
-3.592,9.725,8.885,13.144,-6.147,-4.591,-15.043,3.342
-4.067,25.132,22.667,28.096,-5.576,-4.737,2.271,17.747
-4.658,36.587,34.349,39.011,-5.291,-5.837,16.865,28.446
-5.128,46.914,43.674,47.702,-5.824,-7.514,28.496,37.628
-4.951,46.633,42.502,44.723,-6.181,-8.357,24.707,36.111
-3.824,27.662,24.788,23.412,-5.59,-7.534,1.082,17.063
-2.532,8.405,6.179,2.405,-4.89,-6.136,-20.138,-2.427
-1.977,2.223,-1.041,-5.555,-4.71,-5.51,-27.349,-11.044
-1.86,0.07,-3.601,-8.707,-4.413,-5.264,-30.353,-15.697
-1.443,-0.108,-4.126,-8.252,-3.705,-4.425,-30.302,-15.397
-0.812,8.518,2.436,1.36,-3.218,-3.54,-21.668,-5.764
-0.395,22.603,14.209,15.89,-3.186,-3.508,-7.619,7.255
0.404,35.725,26.605,30.559,-2.698,-3.09,7.278,20.652
2.131,45.918,38.165,44.736,-1.009,-0.903,20.3,35.018
3.456,45.352,41.976,48.816,0.948,1.346,21.816,38.674
3.007,31.076,33.547,36.831,1.543,1.219,9.301,24.727
1.638,17.852,23.59,23.098,0.786,-0.511,-2.082,9.775
0.84,14.449,19.884,18.355,0.206,-1.222,-5.719,6.034
0.538,13.44,16.58,16.143,0.137,-0.589,-10.03,5.947
0.101,11.758,11.211,12.14,-0.464,-0.491,-15.388,3.547
-0.279,15.991,10.409,12.208,-1.576,-1.539,-12.69,3.872
-0.336,24.999,14.778,17.743,-2.079,-2.231,-3.83,9.047
0.076,25.357,13.617,17.495,-1.534,-1.464,-4.354,8.537
0.902,15.403,4.453,7.702,-0.867,-0.355,-15.788,-1.913
1.265,10.208,-0.626,2.024,-1.216,-0.312,-20.767,-7.497
0.521,15.531,4.662,8.613,-2.306,-0.889,-12.759,1.719
-0.667,19.766,11.461,16.231,-2.799,-1.254,-5.718,12.815
-1.294,12.622,9.204,10.668,-2.039,-1.629,-12.299,8.42
-1.067,2.924,2.355,-1.868,-0.849,-2.227,-22.765,-5.606
-0.319,5.409,2.713,-4.571,-0.443,-2.664,-20.347,-9.672
0.635,16.325,9.054,2.193,-0.789,-2.748,-9.139,-1.507
2.001,25.104,14.158,8.545,-0.75,-2.514,-1.009,7.656
3.54,36.051,21.973,17.683,-0.108,-2.134,8.433,17.402
3.982,54.073,36.615,34.428,-0.052,-2.271,23.829,31.884
3.424,62.675,43.748,43.121,-0.611,-2.612,28.153,37.773
3.469,48.058,30.589,30.273,-0.646,-1.786,10.683,23.737
4.113,27.777,11.879,12.459,-0.526,-0.255,-8.655,6.173
4.191,19.633,4.536,5.94,-0.856,0.204,-14.824,-0.673
3.223,16.051,3.623,3.83,-0.977,-0.449,-15.495,-3.696
1.156,10.69,3.144,1.958,-0.876,-1.155,-14.276,-5.259
-0.962,10.182,7.152,5.937,-1.024,-1.703,-7.678,-0.287
-1.234,16.17,15.443,14.095,-0.962,-2.111,0.904,8.477
0.433,24.018,22.811,21.645,-0.378,-1.908,8.136,17.754
2.145,31.123,27.418,28.549,0.173,-0.968,15.002,28.058
2.854,31.469,26.024,28.923,0.341,0.005,14.586,30.544
2.998,22.312,17.143,17.834,0.228,-0.062,2.386,17.044
2.861,14.778,9.47,6.663,-0.205,-1.226,-8.765,-0.062
2.47,14.852,8.111,4.451,-0.716,-2.021,-10.738,-6.064
2.046,15.701,8.287,5.435,-1.003,-1.992,-9.907,-3.202
1.788,16.878,9.07,5.941,-1.263,-2.501,-8.439,1.237
2.023,23.748,13.606,8.572,-1.157,-3.61,-3.066,5.239
2.632,32.211,19.602,12.495,-0.222,-3.856,4.757,9.488
2.695,34.629,23.035,15.438,0.691,-3.245,11.856,15.06
1.961,32.089,24.686,17.832,0.83,-3.208,17.024,20.201
1.475,26.242,23.604,16.252,0.88,-3.888,15.343,17.653
1.838,16.487,17.343,8.334,1.41,-3.873,5.101,6.6
2.352,5.733,8.279,-0.834,2.032,-2.423,-6.968,-3.886
2.345,-7.768,-4.377,-11.916,2.241,-0.346,-20.422,-13.702
1.61,-23.6,-19.826,-25.096,1.542,0.854,-34.256,-25.393
0.262,-27.124,-24.208,-25.85,-0.037,0.56,-34.901,-26.482
-0.879,-11.44,-10.487,-7.803,-1.47,-0.273,-18.852,-9.749
-1.171,4.005,3.377,8.027,-2.002,-0.669,-6.409,5.705
-0.691,-1.872,-2.523,-0.374,-1.611,-0.665,-15.728,-2.617
0.384,-18.563,-18.893,-21.573,-0.554,-0.753,-33.941,-24.408
1.779,-19.281,-21.107,-26.45,0.525,-1.043,-34.491,-29.499
2.877,-0.602,-5.805,-9.962,0.948,-1.163,-16.081,-12.532
2.745,18.997,10.29,9.199,0.122,-1.41,1.368,6.337
1.106,27.785,16.95,18.54,-2.219,-2.684,7.478,14.887
-0.621,28.573,17.418,20.426,-4.706,-4.445,7.308,17.12
-0.698,23.954,14.971,17.579,-4.897,-4.601,4.211,16.116
0.445,13.401,9.137,10.058,-2.812,-2.724,-2.529,11.292
0.628,2.566,2.517,2.073,-1.525,-1.348,-9.55,5.358
-0.433,-3.309,-3.019,-5.364,-2.308,-2.248,-16.736,-4.214
-0.54,-4.466,-6.977,-12.983,-2.824,-3.839,-24.484,-18.776
0.729,-1.035,-5.588,-14.16,-1.836,-4.13,-25.055,-24.911
1.051,5.071,1.317,-6.344,-1.24,-3.888,-16.04,-15.703
-0.564,10.741,8.771,3.653,-2.177,-4.715,-4.465,-2.62
-2.623,20.327,18.238,16.045,-3.556,-6.36,9.91,10.063
-3.799,36.819,33.023,34.145,-4.526,-7.683,28.437,27.332
-3.542,42.258,39.133,41.169,-4.628,-7.632,32.865,35.519
-1.921,21.98,22.383,22.036,-3.489,-5.751,11.359,18.935
-0.334,-2.568,-0.702,-2.585,-2.202,-3.488,-12.668,-4.42
-0.155,-8.082,-8.35,-9.276,-2.203,-2.831,-18.623,-10.913
-1.155,-1.578,-5.251,-4.659,-3.398,-3.742,-14.96,-5.211
-2.182,5.757,-2.078,-0.229,-4.71,-4.858,-11.357,-0.198
-2.359,13.113,2.299,3.767,-5.026,-5.592,-7.119,1.629
-1.75,19.121,10.547,8.881,-3.992,-6.101,-0.039,4.405
-1.371,26.946,23.722,19.789,-2.816,-6.453,14.363,16.191
-2.097,41.155,40.097,37.942,-3.039,-6.836,33.24,36.831
-3.002,47.038,45.411,44.664,-4.018,-7.167,35.508,43.913
-2.32,29.519,28.835,24.707,-3.824,-6.919,11.472,21.084
-0.847,3.096,5.028,-3.42,-2.636,-6.306,-16.27,-9.719
-0.867,-14.899,-9.917,-18.616,-2.079,-5.743,-30.337,-23.567
-1.922,-25.589,-18.418,-24.024,-2.185,-4.846,-35.696,-26.799
-2.018,-27.117,-20.71,-22.806,-2.126,-3.855,-33.106,-27.395
-1.376,-14.907,-11.018,-10.814,-2.089,-3.811,-19.171,-17.256
-1.02,-2.962,1.372,1.277,-2.002,-4.154,-6.996,-1.192
-0.146,-12.096,-2.497,-6.683,-0.643,-3.028,-15.46,-2.503
1.542,-34.312,-19.393,-28.857,1.622,-0.945,-35.343,-22.245
1.919,-38.986,-24.88,-34.887,1.996,-0.543,-36.977,-30.243
-0.111,-18.477,-10.73,-15.125,-0.491,-2.366,-15.585,-11.877
-2.419,7.302,9.33,10.926,-3.223,-4.546,8.127,14.327
-3.033,28.776,28.017,31.981,-4.163,-5.832,26.45,33.799
-2.599,49.167,46.07,51.11,-4.034,-6.138,43.569,50.133
-1.93,55.408,50.904,56.543,-3.606,-5.448,46.23,55.631
-0.628,34.509,30.627,34.395,-2.837,-4.21,22.455,35.837
1.192,7.942,3.186,4.294,-2.231,-3.447,-5.806,5.474
2.995,2.905,-6.294,-5.641,-1.941,-3.054,-13.391,-7.968
4.666,12.447,-1.363,0.86,-1.297,-1.786,-6.763,-2.699
5.842,16.186,1.234,4.952,-0.152,0.389,-2.833,5.516
6.273,13.781,0.154,3.886,1.159,2.044,-2.944,7.9
6.303,17.204,4.07,7.715,2.358,2.601,1.033,8.715
6.006,28.019,14.582,19.796,3.096,2.812,11.283,16.526
5.387,38.168,25.608,32.027,3.275,2.789,21.845,28.569
5.074,39.751,29.119,33.764,3.302,2.279,23.422,30.626
5.378,29.133,21.038,22.841,3.55,2.317,12.448,18.51
5.886,9.113,5.512,5.61,3.998,3.577,-5.381,1.28
6.452,-17.203,-13.964,-16.558,4.582,4.909,-27.584,-19.536
6.784,-42.665,-33.615,-39.807,5.165,5.371,-49.004,-41.853
6.011,-48.285,-38.294,-44.026,5.245,5.361,-50.164,-46.5
4.164,-25.824,-19.564,-19.654,4.394,5.123,-24.295,-24.237
2.541,2.694,4.258,9.644,2.953,4.385,4.341,4.155
2.107,11.733,11.039,17.85,1.978,3.643,12.788,16.211
2.611,4.703,4.113,10.069,2.051,3.728,6.878,13.725
3.579,-0.826,-0.568,4.586,2.809,4.562,1.253,9.58
4.899,0.28,1.616,5.637,3.73,5.34,-0.477,9.14
5.919,5.505,7.757,9.96,4.406,5.242,2.857,12.504
5.624,12.83,16.13,16.333,4.501,4.05,12.276,18.392
3.978,18.746,24.385,22.527,3.887,2.089,22.626,23.225
2.408,17.738,26.232,22.249,2.908,0.378,24.182,21.824
2.118,7.634,17.009,11.431,2.176,0.035,13.984,12.608
2.608,-6.136,1.934,-4.794,2,0.622,-0.347,-0.46
3.662,-21.888,-15.121,-23.552,2.815,1.807,-17.476,-17.13
5.634,-39.716,-33.828,-43.269,4.633,4.19,-36.737,-34.433
6.812,-45.319,-41.293,-49.04,5.745,6.012,-40.626,-36.815
5.522,-26.893,-26.009,-30.818,4.861,4.776,-19.082,-18.038
3.46,2.729,-0.163,-3.084,3.348,2.071,10.578,6.882
2.715,25.624,18.519,17.191,2.689,0.984,30.901,25.633
2.275,39.335,28.856,29.582,1.936,0.87,42.007,38.975
0.834,39.452,30.276,31.059,0.348,-0.016,40.37,41.625
-0.153,19.068,16.63,15.011,-0.338,-0.168,21.672,27.199
0.377,-4.194,-0.608,-2.9,0.583,1.622,3.582,10.345
0.685,-9.893,-4.947,-5.286,0.911,2.982,0.385,4.91
-0.505,-8.428,-2.736,-2.721,-0.361,2.06,0.547,2.34
-2.158,-14.283,-5.219,-7.476,-1.526,0.298,-5.144,-3.792
-3.19,-18.874,-7.754,-10.539,-1.608,-0.343,-8.079,-4.644
-3.788,-10.31,-2.206,-0.878,-1.609,0.192,-0.397,6.165
-4.445,5.904,9.253,16.214,-2.387,0.605,12.873,21.216
-4.964,16.042,18.23,27.232,-3.456,0.009,21.677,27.728
-4.665,13.443,18.919,25.348,-3.716,-0.998,20.112,21.685
-3.584,1.824,11.61,14.534,-2.906,-1.278,10.605,10.64
-2.846,-12.955,-1.077,0.036,-2.236,-0.959,-2.564,-0.671
-2.922,-34.376,-21.661,-23.133,-2.557,-0.982,-24.401,-20.766
-2.925,-59.389,-45.836,-51.775,-3.01,-1.463,-49.404,-47.423
-2.736,-63.358,-51.737,-59.752,-3.11,-2.292,-50.84,-54.053
-3.684,-35.568,-29.679,-35.57,-3.964,-4.052,-21.803,-29.054
-6.05,-2.688,-1.922,-5.3,-5.949,-6.622,8.907,2.488
-7.871,9.837,9.048,5.974,-7.628,-8.534,18.527,14.78
-7.38,8.472,7.166,3.243,-7.728,-8.891,14.426,10.796
-5.208,5.912,3.518,-2.553,-6.388,-8.286,8.136,2.994
-3.382,-0.525,-3.084,-13.113,-4.907,-7.655,-1.331,-7.317
-3.02,-7.827,-11.081,-22.889,-4.807,-7.324,-8.346,-14.932
-3.881,-1.122,-8.574,-16.276,-6.357,-7.393,0.487,-6.022
-5.75,19.598,6.291,5.547,-8.714,-8.32,21.53,18.479
-7.898,30.795,14.684,17.59,-10.725,-9.588,29.791,33.587
-8.54,15.191,0.828,2.362,-11.206,-9.483,11.046,18.916
-7.5,-12.987,-22.85,-24.155,-10.191,-7.853,-16.388,-10.59
-6.404,-33.103,-37.325,-40.771,-8.808,-6.1,-34.07,-30.298
-5.684,-42.805,-42.638,-47.922,-7.505,-4.711,-43.847,-39.451
-4.94,-41.031,-40.658,-45.821,-6.335,-3.648,-43.298,-40.516
-4.74,-25.478,-27.645,-29.498,-5.998,-3.538,-27.826,-28.007
-5.418,-4.626,-8.395,-6.299,-6.757,-4.668,-6.679,-7.157
-6.322,14.179,9.633,14.384,-7.68,-6.191,12.207,12.239
-7.317,29.827,24.617,31.465,-8.098,-7.202,28.351,28.063
-8.523,31.927,29.259,36.739,-8.195,-7.523,31.867,32.419
-9.348,10.383,14.159,19.549,-8.245,-7.253,13.62,15.713
-9.186,-18.739,-10.514,-7.455,-8.348,-6.52,-11.845,-9.219
-7.593,-34.153,-27.051,-25.242,-8.013,-5.346,-28.092,-25.445
-4.734,-38.869,-35.021,-34.824,-6.619,-3.668,-36.839,-34.977
-2.38,-37.472,-36.749,-36.768,-5.169,-2.2,-36.609,-36.162
-1.926,-21.566,-25.867,-22.955,-5.331,-2.183,-21.362,-20.132
-2.169,3.55,-7.273,-2.331,-6.503,-3.404,-2.212,2.02
-1.761,17.512,2.47,4.793,-7.056,-4.794,4.56,8.591
-1.535,18.315,2.277,0.019,-7.395,-6.542,4.042,2.487
-1.97,18.394,2.803,-2.376,-8.209,-8.514,6.399,0.561
-1.65,16.408,2.508,-4.266,-8.079,-8.827,5.409,0.416
-0.163,7.73,-2.928,-10.796,-6.027,-6.783,-2.641,-6.017
0.634,-3.814,-11.034,-18.783,-3.838,-4.396,-12.116,-13.854
-0.176,-13.273,-19.821,-25.449,-3.267,-3.219,-18.733,-16.586
-0.809,-13.255,-23.791,-25.716,-3.307,-2.285,-17.493,-12.756
0.236,-2.027,-18.778,-17.551,-2.488,-0.533,-8.281,-5.77
1.908,11.239,-10.587,-7.556,-1.483,1.224,2.079,1.269
2.486,23.925,-2.461,3.702,-1.738,1.739,13.403,13.221
1.887,40.547,9.421,20.997,-3.235,1.12,28.452,32.157
1.587,50.068,18.299,32.191,-4.265,0.62,34.534,41.428
2.635,35.861,10.519,19.102,-3.392,0.796,18.859,24.524
4.291,10.751,-5.632,-5.415,-1.124,1,-1.816,-2.224
5.392,0.013,-9.426,-14.129,1.361,1.225,-5.842,-11.896
5.749,1.4,-2.432,-8.656,3.359,2.132,-0.609,-7.7
5.531,1.042,1.474,-4.601,4.047,3.252,0.25,-5.177
4.869,0.388,2.04,-1.535,3.343,3.772,0.709,-3.014
4.082,3.178,4.077,4.663,2.532,4.085,5.62,3.878
3.373,4.302,4.325,7.945,2.199,4.458,8.814,8.413
2.707,3.194,1.22,5.837,1.528,4.142,7.954,5.445
2.335,4.505,-1.617,3.023,0.257,3.072,6.788,1.288
2.728,6.642,-4.694,-0.598,-0.756,2.173,4.547,-0.272
3.844,7.809,-8.589,-5.427,-0.777,1.929,1.113,-1.907
5.184,6.219,-13.398,-11.558,0.083,2.214,-4.655,-7.744
6.445,-2.018,-22.083,-22.293,1.046,2.695,-16.148,-19.367
7.418,-7.549,-28.597,-30.568,1.262,2.713,-24.687,-28.426
7.624,4.174,-21.538,-23.116,0.524,1.938,-17.43,-23.915
6.952,27.25,-3.099,-2.483,-0.327,1.095,1.771,-6.727
5.859,43.587,13.798,15.793,-0.565,0.723,18.797,11.768
4.571,49.923,23.25,25.047,-0.822,0.166,29.136,23.907
3.42,51.704,25.908,26.833,-1.276,-0.603,32.976,28.116
3.096,43.502,18.74,17.282,-0.561,-0.298,24.902,20.93
3.649,22.883,3.3,-2.809,1.666,1.309,7.063,3.724
4.689,-2.074,-13.747,-25.772,4.161,3.017,-12.45,-17.592
6.191,-23.866,-29.394,-46.375,6.392,4.46,-29.25,-38.199
7.504,-29.931,-34.659,-52.254,8.018,5.724,-32.658,-44.237
7.268,-12.551,-21.167,-34.531,7.791,5.832,-16.043,-26.271
6.274,13.746,0.754,-8.111,6.268,4.794,7.219,0.146
7.278,36.271,19.658,12.971,6.214,4.604,27.072,19.666
10.369,63.935,42.204,38.893,8.225,6.059,52.488,41.651
12.751,92.39,66.984,69.316,10.423,8.295,77.673,68.564
13.643,89.007,68.482,73.028,12.521,11.258,73.059,72.236
14.796,49.784,41.379,42.658,15.351,14.854,38.761,41.15
16.437,13.853,15.97,14.332,17.714,17.685,10.36,6.694
17.112,0.66,8.374,7.787,18.232,19.17,2.358,-6.605
16.593,-3.218,8.228,9.848,17.906,19.915,2.347,-6.701
15.686,-4.184,10.271,12.787,17.679,19.701,4.876,-4.755
14.857,3.409,18.626,21.543,17.06,18.262,13.213,1.174
14.168,16.944,30.791,34.176,15.879,16.487,23.452,12.652
13.17,25.267,37.439,40.727,14.296,14.917,26.988,22.178
11.691,22.216,33.371,35.754,12.456,13.455,21.345,20.997
10.633,12.543,21.76,23.271,10.911,12.482,11.853,9.932
10.525,7.417,11.654,13.195,9.849,12.023,6.564,1.382
10.804,6.185,5.223,5.946,9.449,11.702,3.59,-0.031
11.173,-4.396,-5.869,-8.98,10.426,11.856,-5.966,-6.904
11.605,-19.492,-18.839,-26.788,12.058,12.06,-15.939,-21.317
11.483,-18.156,-18.71,-29.283,12.254,10.656,-11.039,-25.323
10.653,-0.449,-4.998,-17.246,11.13,7.583,6.223,-13.1
9.897,12.131,6.825,-9.014,10.849,4.858,19.203,-1.918
9.183,10.348,9.565,-9.647,11.455,3.876,23.521,-0.428
7.951,1.673,7.425,-11.686,11.375,4.343,24.451,-0.128
6.988,-9.129,1.279,-16.202,10.728,5.223,19.596,-1.083
7.098,-17.768,-7.097,-23.594,10.087,5.596,8.947,-8.143
7.511,-21.871,-13.829,-28.7,8.995,5.64,-3.054,-17.402
7.454,-29.318,-22.288,-34.648,7.693,6.275,-17.177,-26.788
7.061,-38.104,-29.503,-40.148,7.126,7.114,-26.571,-33.377
6.266,-31.959,-22.626,-31.605,6.968,6.838,-18.776,-27.483
4.66,-12.199,-4.677,-9.712,5.86,5.378,-1.343,-10.838
2.679,-2.807,3.287,2.401,3.705,3.76,1.584,-3.013
1.966,-13.139,-6.177,-6.753,2.176,2.81,-14.695,-13.441
3.349,-22.028,-14.763,-17.235,2.227,2.512,-26.288,-24.116
4.94,-12.975,-7.367,-9.258,2.561,2.174,-17.314,-16.876
4.548,-0.267,5.727,6.531,2.074,1.662,-2.154,-1.532
3.064,-5.88,5.513,6.36,1.829,1.661,-3.206,-1.43
2.562,-26.357,-8.356,-11.118,2.8,2.296,-18.84,-18.169
2.739,-37.941,-17.439,-22.996,3.988,2.71,-26.293,-28.843
1.988,-31.079,-11.574,-16.917,4.111,2.128,-16.322,-22.904
0.055,-18.379,0.018,-4.333,3.135,0.712,-1.127,-12.479
-2.189,-7.659,8.877,5.782,1.572,-0.811,12.748,-2.382
-3.874,6.668,17.991,17.46,-0.262,-2.24,29.367,12.83
-4.544,18.385,23.854,24.326,-1.784,-3.65,39.171,22.528
-4.341,8.465,12.836,9.685,-2.01,-4.329,25.875,8.965
-3.819,-17.493,-10.857,-19.038,-1.054,-3.83,-0.122,-18.655
-3.325,-34.36,-26.972,-37.457,-0.219,-3.007,-15.804,-36.669
-2.699,-37.758,-30.688,-41.608,0.17,-2.538,-18.974,-40.6
-2.077,-37.38,-29.802,-40.616,0.539,-2.207,-17.409,-37.017
-1.831,-33.357,-26.403,-35.611,0.745,-1.7,-11.308,-27.633
-1.262,-22.813,-18.678,-25.135,1.072,-0.807,0.143,-14.213
0.232,-11.884,-9.787,-14.461,1.965,0.31,10.208,-2.69
1.136,-9.482,-6.521,-10.964,2.466,0.714,11.562,1.735
0.215,-14.397,-8.79,-13.808,1.841,-0.008,6.546,0.047
-0.581,-19.577,-10.48,-16.819,1.787,-0.223,1.938,-3.559
0.371,-20.299,-7.437,-15.264,3.511,1.136,2.511,-4.543
1.001,-12.462,1.823,-5.87,4.762,1.924,11.16,0.929
-0.21,4.343,16.118,10.889,3.872,0.634,25.73,11.946
-1.336,17.588,26.807,24.383,2.803,-0.579,33.308,18.953
-1.138,9.717,20.886,19.39,3.024,0.186,20.352,9.873
-0.966,-12.302,2.87,1.538,3.17,1.677,-1.92,-8.348
-1.341,-22.586,-6.496,-6.146,2.522,2.423,-9.698,-15.484
-0.996,-17.091,-2.516,0.552,2.407,3.189,-3.424,-10.162
-0.03,-11.666,2.352,7.174,2.811,4.275,0.908,-5.736
-0.145,-11.577,2.201,7.32,1.896,4.025,-0.375,-6.747
-1.416,-11.838,-0.201,5.392,-0.203,2.531,-2.752,-8.755
-2.302,-14.297,-5.356,1.785,-1.358,2.174,-8.162,-11.471
-2.396,-22.37,-14.527,-6.824,-1.103,2.928,-17.387,-18.832
-2.541,-26.242,-19.688,-13.809,-1.005,2.311,-20.286,-25.386
-2.802,-16.692,-14.173,-10.22,-1.77,0.266,-11.671,-22.015
-2.37,-2.647,-5.026,-0.869,-2.195,-0.787,-1.218,-12.636
-1.62,5.042,0.18,5.466,-1.655,-0.611,4.493,-6.172
-2.038,11.542,6.129,11.179,-1.582,-1.538,12.213,-0.496
-3.329,19.145,14.477,16.57,-2.501,-3.894,21.28,5.699
-3.634,12.499,12.05,8.361,-2.443,-5.312,16.29,0.596
-3.013,-10.452,-4.839,-14.078,-0.721,-4.867,-1.659,-16.349
-2.863,-29.493,-21.911,-33.49,0.764,-3.836,-14.901,-30.407
-2.875,-35.963,-32.118,-44.183,1.104,-3.131,-20.601,-38.823
-2.434,-34.258,-35.77,-47.436,1.02,-2.869,-21.791,-41.862
-2.645,-25.232,-29.169,-38.229,0.636,-3.173,-12.917,-31.031
-4.25,-12.468,-14.932,-20.299,-0.533,-4.079,3.497,-10.78
-6.094,-3.004,-3.301,-5.98,-2.365,-5.157,15.492,2.026
-6.978,3.76,3.451,3.531,-4.033,-5.638,20.823,5.652
-6.939,9.331,8.364,12.284,-4.719,-4.955,22.426,8.518
-6.475,5.616,6.804,13.384,-4.263,-3.263,15.958,6.577
-6.172,-8.615,-1.719,4.855,-3.472,-1.653,3.502,-2.569
-6.231,-23.473,-9.523,-4.287,-3.138,-0.989,-7.215,-11.55
-6.016,-36.306,-16.737,-12.736,-2.84,-0.727,-17.739,-21.286
-5.356,-44.383,-22.748,-18.585,-2.237,-0.085,-25.587,-30.472
-4.749,-37.81,-18.696,-12.22,-2.203,0.666,-21.148,-27.018
-4.46,-18.101,-5.702,3.836,-3.342,0.625,-7.271,-11.265
-5.096,1.669,5.386,17.146,-5.301,-0.91,5.99,4.083
-6.96,16.733,13.471,26.498,-7.345,-3.542,18.375,15.939
-8.435,25.27,19.625,32.254,-8.191,-5.425,26.802,22.373
-7.81,16.606,12.192,21.972,-7.154,-5.135,17.453,11.331
-6.233,-3.712,-7.809,-0.898,-5.934,-4.061,-3.096,-10.865
-6.059,-10.201,-17.172,-9.823,-6.6,-4.474,-7.799,-16.714
-7.257,-0.114,-9.732,0.407,-8.384,-5.951,6.297,-2.021
-8.15,3.937,-3.716,6.986,-8.967,-6.765,16.453,9.291
-8.087,-8.705,-9.894,-4.085,-7.561,-6.725,10.745,2.292
-7.653,-28.012,-21.641,-24.987,-5.184,-6.658,-1.758,-14.575
-7.509,-45.002,-32.108,-45.278,-3.082,-6.93,-12.469,-29.776
-7.632,-60.121,-42.498,-62.83,-1.67,-7.03,-22.74,-42.769
-7.472,-66.48,-48.235,-70.424,-0.832,-6.443,-27.209,-48.996
-7.162,-53.822,-40.577,-59.322,-0.877,-5.803,-16.716,-39.408
-7.704,-30.495,-24.075,-37.488,-2.009,-5.908,1.895,-19.203
-8.749,-16.712,-13.116,-23.141,-3.017,-5.918,10.488,-5.699
-8.615,-19.9,-14.545,-23.998,-2.798,-4.801,2.305,-8.416
-7.595,-28.061,-20.435,-29.186,-2.484,-3.521,-9.644,-17.128
-7.195,-28.918,-20.955,-26.015,-3.286,-3.12,-12.399,-17.663
-6.69,-22.85,-16.117,-15.773,-4.109,-2.86,-7.968,-11.73
-4.676,-11.963,-7.52,-2.781,-3.698,-2.078,-0.827,-5.75
-2.405,4.786,6.271,15.098,-3.06,-1.243,10.669,5.001
-2.345,18.983,18.29,32.231,-3.807,-0.743,20.844,20.892
-3.967,16.013,14.75,32.092,-5.157,-0.205,15.871,25.185
-3.877,4.365,1.635,18.761,-4.985,0.76,2.438,15.026
-1.284,8.965,1.331,17.586,-3.579,1.592,3.396,12.336
0.643,28.17,14.336,30.73,-3.077,1.331,17.562,22.956
0.383,39.008,21.209,36.492,-3.714,0.137,24.456,28.841
0.342,33.475,14.282,26.188,-3.711,-0.609,17.202,20.479
2.025,22.875,3.482,11.528,-2.435,-0.319,6.496,6.85
3.508,16.02,-2.028,2.689,-1.254,-0.098,1.588,-2.561
3.33,8.399,-5.844,-4.236,-0.966,-0.523,-0.614,-9.609
2.502,-0.447,-11.373,-11.344,-1.065,-0.852,-2.982,-15.172
1.971,-2.516,-13.779,-12.256,-1.355,-0.744,-1.362,-13.724
1.489,0.123,-12.018,-7.821,-1.694,-0.57,4.544,-5.765
0.682,-3.185,-13.22,-8.818,-1.551,-0.599,7.022,-1.307
-0.152,-13.585,-21.208,-20.001,-0.822,-0.732,1.667,-7.753
-0.689,-21.404,-29.156,-32.068,-0.228,-1.075,-4.111,-18.454
-1.384,-21.533,-30.155,-35.472,-0.734,-2.151,-2.988,-22.235
-2.465,-17.017,-25.35,-30.729,-2.116,-3.553,2.189,-17.528
-3.327,-13.88,-21.292,-25.724,-3.141,-3.978,2.661,-12.322
-3.562,-17.416,-23.595,-27.768,-3.361,-3.138,-5.98,-14.379
-3.776,-23.12,-26.848,-30.99,-3.421,-2.276,-14.043,-18.264
-4.912,-21.412,-21.441,-23.99,-4.033,-2.577,-10.462,-13.932
-6.526,-13.819,-10.752,-10.404,-5.046,-3.525,-2.032,-6.26
-7.05,-14.461,-9.323,-7.274,-5.587,-3.677,-5.893,-9.698
-6.067,-30.838,-23.075,-21.372,-5.143,-2.616,-24.851,-26.289
-5.024,-45.881,-36.337,-34.03,-4.448,-1.396,-38.561,-37.675
-5.792,-38.285,-31.109,-24.982,-5.186,-1.774,-29.713,-28.623
-8.457,-15.816,-13.328,-3.462,-7.709,-4.235,-10.304,-11.334
-10.661,-8.227,-6.629,2.318,-9.744,-6.499,-8.251,-10.467
-10.286,-26.306,-21.509,-16.417,-9.459,-6.181,-29.341,-29.294
-8.45,-42.923,-38.452,-34.175,-8.456,-4.574,-46.346,-44.756
-7.85,-32.136,-34.863,-26.705,-9.045,-4.488,-37.627,-38.542
-8.912,-5.729,-16.344,-3.375,-10.661,-5.866,-14.776,-17.791
-10.358,11.403,-2.566,12.898,-11.897,-7.405,1.602,-0.248
-11.595,16.65,1.462,16.943,-12.943,-9.31,8.909,7.379
-12.171,18.646,1.348,14.909,-13.75,-11.219,11.49,8.033
-11.3,13.228,-5.003,4.916,-13.131,-11.245,5.173,0.753
-9.553,-3.69,-19.34,-13.354,-11.187,-9.286,-10.176,-14.521
-9.07,-26.291,-36.478,-33.746,-9.946,-7.835,-29.329,-33.678
-10.459,-50.62,-54.418,-54.694,-10.272,-7.999,-50.719,-55.215
-11.841,-65.775,-65.703,-67.488,-10.875,-8.518,-62.818,-69.279
-12.315,-55.876,-56.808,-57.05,-11.271,-9.134,-51.016,-60.247
-12.901,-26.984,-31.668,-28.863,-12.317,-10.549,-24.13,-32.075
-13.928,-2.193,-9.876,-4.808,-13.909,-12.057,-3.4,-6.122
-14.951,10.771,1.737,8.551,-15.193,-12.921,7.766,7.578
-16.061,17.35,8.926,17.356,-16.081,-13.827,15.158,13.126
-16.962,10.045,5.631,13.359,-16.481,-14.594,9.772,6.873
-16.77,-14.118,-12.527,-8.105,-15.749,-13.809,-10.677,-12.072
-15.582,-35.932,-29.733,-27.773,-13.932,-11.541,-27.629,-27.822
-14.327,-44.483,-34.755,-32.887,-11.877,-9.205,-32.094,-31.754
-13.865,-46.379,-32.478,-30.001,-10.521,-7.954,-30.375,-30.106
-14.332,-46.099,-28.452,-26.059,-10.179,-8.108,-26.862,-28.043
-14.599,-43.224,-23.923,-21.783,-10.074,-8.654,-22.285,-25.268
-14.051,-35.329,-17.075,-13.428,-9.83,-8.564,-13.625,-16.582
-13.605,-18.272,-4.184,3.247,-10.033,-8.156,3.706,2.776
-13.468,1.14,9.867,19.712,-10.414,-7.974,20.301,21.473
-12.744,2.422,9.092,16.416,-9.916,-7.877,16.33,17.802
-11.704,-14.66,-6.833,-3.144,-8.803,-7.583,-2.397,-2.569
-11.694,-22.014,-15.586,-10.645,-8.869,-7.583,-7.502,-9.623
-12.851,-7.393,-6.455,2.432,-10.792,-8.89,6.559,3.569
-13.739,9.298,6.36,15.707,-12.595,-11.035,18.448,16.228
-13.144,7.151,5.989,11.821,-12.275,-11.762,13.056,12.393
-11.37,-9.086,-5.631,-3.176,-10.39,-10.267,-1.648,-2.895
-9.461,-23.912,-16.374,-15.641,-8.369,-8.16,-13.059,-17.757
-7.653,-35.953,-24.547,-25.576,-6.294,-6.36,-22.436,-30.377
-5.914,-43.44,-29.545,-32.028,-4.214,-4.683,-28.329,-37.293
-5.049,-36.064,-24.186,-25.811,-3.349,-3.787,-21.985,-30.057
-5.724,-17.015,-10.912,-9.485,-4.456,-4.317,-7.462,-13.008
-7.571,-0.137,0.283,5.468,-6.755,-5.744,4.5,1.471
-9.705,11.693,9.025,17.39,-8.797,-7.193,14.951,11.644
-11.122,18.669,16.842,25.998,-9.548,-8.015,23.919,19.5
-10.88,11.06,13.783,19.718,-8.729,-7.867,18.435,15.335
-9.017,-8.915,-1.883,-1.734,-6.676,-6.955,-1.581,-4.074
-6.782,-23.873,-15.789,-20.613,-4.322,-5.746,-18.906,-23.791
-5.309,-31.74,-23.953,-31.061,-2.972,-4.633,-28.92,-35.283
-4.969,-38.796,-31.436,-37.263,-3.383,-4.107,-34.968,-39.952
-5.39,-38.717,-33.532,-35.201,-4.689,-4.206,-32.6,-35.937
-5.433,-26.299,-24.367,-22.356,-4.953,-4.036,-20.34,-23.261
-4.413,-5.643,-6.026,-2.346,-3.415,-3.008,-0.679,-4.744
-3.064,25.327,21.533,28.335,-1.273,-1.649,31.257,24.787
-2.026,65.909,56.45,69.401,0.326,-0.268,71.127,66.051
-0.351,83.79,73.593,89.165,2.123,2.08,84.047,87.233
2.73,51.432,50.129,60.35,5.157,6.005,49.769,59.742
6.126,2.31,11.044,14.469,8.598,10.206,6.858,14.275
8.718,-16.29,-4.803,-3.345,11.223,13.024,-4.852,-3.865
10.372,-9.93,0.256,2.417,12.881,14.221,2.604,1.674
10.817,-5.217,4.824,7.184,13.478,14.309,6.524,7.156
10.021,-1.817,7.648,10.188,12.748,13.482,11.011,11.622
8.461,7.939,14.079,17.714,10.858,11.841,22.201,21.599
6.563,14.411,17.254,22.003,8.73,10.221,29.626,29.575
5.284,8.977,11.899,15.532,7.843,9.551,25.058,24.816
5.333,-1.355,3.924,3.457,8.458,9.414,14.847,9.882
5.592,-5.11,1.794,-2.476,8.962,8.799,10.214,0.113
5.112,-5.593,3.01,-2.611,8.535,7.916,8.375,-0.761
5.183,-18.496,-5.704,-13.192,8.301,7.734,-6.101,-10.153
6.618,-39.082,-22.551,-33.073,8.632,8.063,-28.058,-29.672
7.602,-41.844,-25.897,-35.982,8.494,7.978,-30.488,-33.67
6.551,-22.117,-8.849,-13.515,7.769,7.605,-9.014,-13.076
4.694,-7.48,5.185,5.674,7.525,7.737,4.976,4.411
4.153,-20.152,-5.111,-4.473,8.274,8.604,-11.042,-6.258
4.638,-43.21,-25.835,-26.978,8.603,9.407,-34.799,-28.677
4.015,-43.717,-28.434,-26.631,6.714,9.093,-31.874,-29.526
1.667,-18.658,-9.836,-0.452,3.448,7.691,-4.547,-5.276
-0.789,7.987,10.937,25.782,1.016,5.815,20.054,21.233
-1.765,22.702,23.488,38.383,0.085,3.993,31.763,36.557
-1.414,27.613,29.38,41.413,0.273,3.157,35.537,41.798
-0.707,18.565,24.035,31.804,1.294,3.823,26.756,33.688
0.033,-2.588,8.076,10.472,2.556,4.715,8.257,14.912
0.72,-16.896,-2.953,-5.399,3.214,4.072,-1.939,-0.874
1.007,-19.32,-5.424,-10.75,3.219,2.617,-3.924,-11.673
0.452,-22.467,-9.999,-15.088,2.881,2.319,-10.419,-20.534
-1.036,-26.779,-16.245,-18.609,1.828,2.43,-17.307,-22.331
-2.342,-19.926,-14.34,-14.362,-0.048,1.069,-13.276,-14.953
-2.258,-2.302,-5.124,-4.145,-1.847,-0.845,-1.819,-4.034
-1.324,9.611,-0.062,1.603,-2.63,-1.357,3.95,3.515
-0.659,9.067,-2.844,-0.858,-2.361,-0.831,1.896,6.544
0.013,5.894,-6.726,-5.326,-1.692,-0.54,0.887,8.221
1.411,6.806,-6.715,-7.362,-1.074,-0.73,3.15,7.701
2.789,1.464,-9.102,-15.206,-0.514,-1.475,-4.26,-4.618
2.556,-23.249,-25.503,-39.515,-0.107,-2.459,-30.362,-33.919
0.376,-50.51,-45.767,-63.541,-0.417,-3.098,-53.567,-60.253
-2.138,-47.905,-42.344,-56.537,-1.532,-3.765,-45.478,-57.73
-3.448,-19.049,-14.536,-22.074,-2.432,-4.299,-15.032,-30.301
-4.179,-0.72,5.944,3.416,-2.789,-3.899,2.69,-6.93
-5.593,-10.546,-0.078,-0.434,-3.677,-3.381,-6.996,-7.113
-7.673,-28.836,-16.248,-15.562,-5.508,-3.949,-23.791,-18.715
-9.568,-35.691,-22.356,-20.026,-7.106,-4.805,-27.105,-20.574
-10.492,-33.814,-20.799,-16.587,-7.658,-4.811,-20.595,-13.381
-10.517,-25.844,-16.273,-10.394,-8.139,-4.99,-10.441,-4.922
-10.22,-4.662,-0.513,6.662,-9.034,-6.554,9.497,10.047
-9.622,20.781,22.213,28.492,-8.943,-8.161,32.078,28.322
-8.455,21.515,24.323,26.17,-7.184,-7.896,29.298,25.584
-6.833,-5.424,0.066,-2.953,-4.899,-6.131,1.132,-0.385
-5.395,-21.819,-14.919,-18.437,-3.251,-4.541,-11.661,-12.43
-4.675,-3.667,2.097,2.119,-2.543,-3.931,9.93,8.636
-4.445,25.954,28.486,30.388,-2.699,-4.403,36.327,34.549
-4.039,31.642,32.017,29.946,-3.084,-5.59,33.856,31.96
-3.308,12.188,12.41,4.217,-2.95,-6.231,9.292,6.795
-2.886,-0.206,-1.907,-10.778,-3.002,-5.902,-0.95,-5.307
-2.84,16.175,9.554,5.902,-3.979,-5.775,19.756,13.82
-2.486,45.224,34.589,34.967,-4.795,-6.38,47.691,43.138
-1.624,51.718,41.008,39.816,-4.38,-6.551,47.358,48.142
-0.605,27.009,18.769,14.072,-3.234,-5.288,17.516,24.705
0.192,-0.7,-6.642,-11.369,-2.299,-3.183,-8.878,1.46
0.708,-11.427,-15.83,-17.255,-1.709,-1.021,-15.743,-6.213
0.649,-11.92,-15.568,-13.423,-1.599,0.466,-14.381,-7.918
-0.412,-8.965,-12.638,-8.132,-2.53,-0.001,-11.078,-8.498
-1.622,-0.728,-3.634,2.364,-3.826,-1.883,-3.043,-2.808
-1.788,6.114,6.08,12.535,-3.967,-2.78,2.309,3.777
-1.105,-2.11,0.951,5.599,-3.008,-2.048,-7.324,-3.333
-0.572,-19.067,-16.365,-14.011,-2.57,-1.36,-23.116,-19.071
-0.611,-22.359,-23.493,-20.456,-3.414,-1.696,-24.545,-21.531
-0.802,-8.118,-12.399,-6.828,-4.401,-2.298,-10.682,-7.083
-1.068,7.717,3.096,9.119,-4.629,-2.939,4.34,8.254
-1.783,16.878,12.268,15.893,-4.765,-4.589,13.75,15.612
-2.451,22.985,16.929,17.144,-5.113,-7.01,18.63,17.867
-1.983,23.935,17.44,13.921,-4.547,-8.145,16.414,14.701
-0.52,16.011,11.293,4.012,-2.996,-7.398,6.154,5.053
0.553,2.505,-0.646,-11.138,-2.361,-6.796,-8.647,-7.758
0.88,-16.115,-18.341,-31.708,-3.064,-7.023,-28.151,-24.603
1.208,-32.74,-34.154,-48.762,-3.368,-6.568,-43.1,-39.474
1.477,-29.641,-32.395,-44.674,-2.849,-5.392,-36.269,-35.818
1.11,-7.207,-14.168,-22.181,-2.866,-5.133,-12.392,-13.945
0.091,15.52,3.737,-0.767,-4.022,-6.26,8.651,8.62
-0.95,31.465,15.889,14.372,-5.292,-7.469,22.958,24.485
-0.959,44.124,26.085,27.355,-5.444,-7.451,34.461,35.516
0.636,45.957,27.36,28.875,-4.191,-5.916,33.6,35.329
2.841,31.665,14.378,12.67,-2.236,-3.612,16.879,20.943
3.897,12.624,-2.208,-7.963,-0.822,-1.998,-1.46,3.878
3.654,-4.444,-15.42,-24.118,-0.356,-1.487,-15.93,-9.606
3.454,-18.162,-25.332,-35.438,-0.134,-1.198,-26.488,-19.658
3.608,-16.47,-23.93,-33.015,0.106,-1.091,-21.901,-18.075
3.489,3.125,-8.939,-14.921,0.109,-1.45,-3.355,-3.102
3.552,14.295,-0.91,-4.841,0.281,-1.246,1.358,2.85
4.376,-6.536,-19.264,-24.838,0.98,-0.096,-25.256,-21.399
4.678,-38.458,-46.343,-54.42,1.18,0.346,-55.456,-54.308
3.286,-41.54,-47.312,-53.78,0.134,-0.727,-50.906,-54.885
1.232,-15.228,-21.305,-22.979,-1.008,-2.045,-17.678,-24.021
-0.231,8.893,3.257,4.864,-1.228,-2.599,9.811,4.219
-1.188,15.817,12.069,14.651,-1.095,-2.396,18.593,16.034
-2.005,14.029,12.462,15.738,-1.37,-1.88,18.711,21.077
-2.23,9.936,9.871,13.32,-1.809,-1.408,14.681,21.67
-1.436,4.307,3.864,6.451,-1.948,-0.905,6.455,14.649
-0.535,2.962,-0.135,2.17,-2.066,-0.655,3.171,8.872
-0.364,12.99,6.07,9.782,-2.317,-1.05,13.408,16.736
-0.362,29.991,19.425,25.292,-2.307,-1.637,29.576,34.269
-0.181,33.927,22.272,28.619,-2.153,-2.011,30.995,39.732
-0.372,15.023,6.288,10.471,-2.352,-2.312,12.464,23.235
-0.547,-9,-13.683,-12.135,-2.503,-2.037,-7.736,0.872
0.862,-22.755,-25.814,-25.753,-1.461,-0.323,-20.593,-14.895
3.757,-27.15,-31.32,-31.599,0.629,2.113,-29.397,-23.771
5.709,-20.819,-27.518,-26.323,1.899,3.345,-27.57,-20.091
5.251,-1.842,-11.255,-7.298,1.468,2.644,-10.205,-1.375
3.463,20.263,9.088,14.055,0.525,0.794,10.895,19.273
1.893,36.397,24.385,27.951,-0.072,-1.385,25.856,31.175
0.813,46.617,34.223,36.607,-0.816,-3.422,35.666,37.193
0.031,43.576,32.897,33.977,-1.527,-4.486,32.443,33.154
-0.037,21.868,15.453,13.427,-0.988,-3.781,12.186,13.6
0.739,2.289,-0.877,-5.299,0.634,-1.997,-2.189,-2.473
1.523,6.974,3.692,0.2,1.63,-0.962,8.079,5.325
1.514,25.668,21.212,20.088,1.286,-1.379,27.58,25.199
0.982,30.16,26.548,26.319,0.642,-1.839,29.176,29.618
0.924,15.081,13.152,13.168,0.739,-0.853,12.994,15.667
1.531,0.663,-1.341,-0.143,1.398,0.884,0.241,3.518
2.145,-6.734,-9.072,-7.561,2.173,2.094,-6.666,-2.511
2.512,-15.813,-16.74,-15.913,2.826,2.947,-16.289,-10.619
2.357,-20.807,-19.973,-17.589,2.559,3.343,-19.458,-13.321
1.066,-11.609,-10.386,-4.387,0.851,2.159,-7.704,-1.978
-1.169,3.976,4.231,12.379,-1.468,-0.509,6.929,12.679
-3.213,12.682,11.67,20.025,-3.1,-2.701,12.734,18.987
-4.124,12.622,11.868,20.152,-3.338,-2.891,12.922,20.493
-3.903,5.838,8.112,14.937,-2.497,-1.966,9.311,18.53
-3.242,-5.111,1.146,4.389,-1.683,-1.759,0.636,8.372
-2.439,-15.07,-6.804,-6.659,-1.254,-2.047,-9.064,-5.901
-1.393,-22.354,-14.682,-15.711,-0.641,-1.555,-17.432,-16.947
-1.003,-23.732,-18.736,-19.632,-0.534,-1.267,-20.591,-19.952
-2.267,-16.172,-14.278,-14.405,-2.09,-2.836,-14.611,-14.082
-4.042,-7.336,-6.216,-5.732,-4.032,-4.998,-5.782,-6.137
-4.65,-2.855,-0.677,0.711,-4.613,-5.572,1.001,0.923
-4.618,3.972,5.088,9.042,-4.654,-5.12,10.957,12.113
-4.965,15.253,12.396,19.079,-5.194,-5.317,23.383,24.416
-4.836,16.396,11.34,16.867,-5.166,-5.81,22.939,22.699
-3.626,-0.007,-2.822,-2.102,-3.922,-5.492,5.748,4.734
-2.748,-15.572,-14.871,-17.509,-2.677,-4.727,-7.427,-8.387
-3.213,-16.405,-13.052,-15.95,-2.175,-4.389,-5.584,-5.707
-4.234,-12.662,-6.366,-9.118,-1.892,-4.429,-0.705,-0.262
-4.639,-13.22,-4.319,-7.19,-1.415,-4.08,-0.515,-0.627
-4.175,-12.678,-3.459,-4.962,-0.947,-3.135,0.01,-0.177
-3.626,-7.167,1.01,2.338,-0.993,-2.519,4.029,5.536
-3.604,0.515,8.116,11.855,-1.719,-2.809,9.475,13.226
-3.413,8.836,15.883,20.71,-2.187,-2.895,14.869,20.079
-1.881,13.573,20.002,24.634,-0.905,-1.283,16.015,21.954
0.403,9.37,15.321,19.69,1.449,1.33,9.462,15.76
1.51,-2.546,1.698,7.326,2.261,2.901,-3.765,3.934
1.564,-22.39,-20.199,-13.763,1.583,3.578,-26.315,-15.948
2.279,-43.758,-42.078,-37.319,1.801,4.639,-49.401,-39.873
3.568,-41.813,-42.325,-38.215,2.921,5.317,-46.022,-42.886
4.464,-6.933,-14.503,-7.423,3.348,4.528,-12.698,-14.36
5.568,30.709,16.567,25.503,3.508,3.328,17.05,16.996
7.649,42.631,28.697,34.345,4.695,3.162,22.541,24.486
9.358,38.425,27.757,29.29,5.95,3.583,18.937,17.964
9.071,35.32,24.478,25.838,5.628,3.596,18.43,13.805
7.927,31.231,17.906,20.758,4.854,3.784,14.403,9.861
7.96,25.255,10.668,13.684,5.414,4.868,8.231,5.434
8.987,27.759,11.598,15.266,6.36,5.979,12.024,9.363
9.81,40.279,20.516,26.684,6.352,6.38,25.21,21.83
10.184,44.912,23.277,30.679,6.331,6.828,29.213,27.218
10.426,31.529,12.222,18.206,7.451,7.921,17.53,17.66
10.674,20.502,3.488,9.067,8.964,9.058,11.611,10.826
10.833,28.565,10.49,18.69,9.695,9.867,23.249,20.497
10.597,38.637,20.066,30.82,9.895,10.702,33.685,32.95
9.907,30.313,16.916,26.624,10.291,11.483,26.327,31.753
9.517,12.928,8.173,13.933,10.916,11.793,11.73,21.125
9.793,7.068,8.659,10.689,11.463,11.378,8.158,13.956
9.567,11.832,16.185,16.419,11.291,9.975,13.354,12.313
8.374,12.793,17.918,18.244,10.205,8.199,13.72,10.222
7.871,8.507,13.133,13.989,9.367,7.479,8.483,6.443
8.658,10.211,12.638,13.877,9.147,7.807,8.112,6.85
9.212,17.011,16.649,18.15,8.511,7.814,10.59,9.75
9.143,9.592,10.14,9.082,7.968,7.306,-2.324,-1.598
9.025,-13.106,-7.835,-13.759,8.471,6.965,-26.882,-26.461
8.253,-21.009,-14.41,-20.693,8.594,6.61,-31.165,-34.18
6.992,0.406,1.725,1.046,7.583,6.25,-7.006,-11.897
7.076,25.286,21.434,24.869,7.467,6.862,15.07,13.56
8.988,27.394,24.052,26.312,9.114,8.517,14.099,17.66
11.111,18.608,17.824,18.377,10.661,9.755,7.382,11.797
12.406,20.096,19.502,21.059,10.835,9.819,11.656,14.542
13.32,23.513,21.929,24.691,10.501,9.838,14.048,17.905
13.882,17.755,16.117,18.786,10.73,10.678,8.772,13.461
13.143,16.307,15.47,18.08,11.127,11.081,13.518,15.428
11.33,29.295,29.048,31.333,11,9.777,32.279,31.204
10.419,40.793,40.891,40.416,11.06,8.158,42.968,42.094
11.03,33.534,34.64,29.856,11.838,8.188,32.27,32.287
11.22,15.377,18.016,11.24,12.194,9.165,15.146,13.746
9.919,4.4,8.365,2.752,11.359,9.264,9.697,6.439
8.247,4.052,9.092,5.303,9.951,8.366,14.605,11.408
7.196,3.823,10.738,7.361,8.949,7.564,16.463,14.041
6.714,-2.182,7.84,3.652,8.963,7.411,10.457,7.861
6.373,-9.494,3.122,-1.185,9.356,7.667,2.706,0.336
6.195,-19.593,-5.732,-9.433,9.235,8.315,-9.022,-8.802
6.497,-34.824,-20.263,-23.911,9.138,9.57,-26.352,-23.351
6.626,-40.606,-26.415,-29.27,9.312,10.516,-32.325,-29.815
5.523,-25.746,-13.487,-13.482,8.437,9.557,-16.445,-16.771
3.49,-4.701,5.675,8.772,6.23,6.973,4.756,3.067
1.958,3.095,12.808,17.241,4.614,5.199,11.675,11.604
1.42,-1.603,7.424,12.018,4.258,5.109,5.214,8.27
0.821,-6.927,0.455,5.092,3.231,4.543,-3.308,3.125
-0.159,-6.437,-0.84,3.694,1.203,2.606,-6.36,1.264
-0.691,1.395,5.269,9.948,0.207,1.279,-0.2,3.817
-1.121,14.613,17.005,22.388,0.363,1.024,13.599,12.754
-1.901,26.497,29.605,34.427,0.458,0.411,27.144,25.252
-1.341,27.468,34.745,35.58,1.498,0.265,29.268,28.763
1.313,13.066,25.811,20.851,4.287,1.967,15.615,15.196
3.106,-8.494,7.556,-1.067,6.148,3.381,-4.085,-5.519
2.015,-27.024,-10.649,-20.294,5.029,2.347,-20.988,-22.936
0.418,-39.404,-24.43,-33.908,3.141,0.991,-33.041,-36.054
0.09,-41.252,-28.482,-35.279,2.588,1.676,-32.851,-37.223
-0.659,-30.094,-19.013,-20.716,2.224,2.712,-17.549,-20.853
-2.328,-17.387,-5.636,-4.923,1.232,2.027,-2.723,-3.449
-3.217,-16.232,-1.408,-3.392,0.686,0.636,-1.736,-2.001
-3.806,-22.471,-4.447,-9.408,0.578,-0.271,-6.126,-8.048
-6.122,-26.491,-7.36,-11.284,-0.561,-1.344,-5.698,-8.472
-9.541,-26.999,-9.507,-10.228,-3.042,-3.17,-3.464,-5.84
-11.58,-26.658,-11.919,-11.791,-5.443,-5.143,-5.791,-7.443
-11.556,-33.552,-19.594,-22.773,-6.575,-6.297,-19.322,-19.61
-10.899,-51.008,-35.585,-42.971,-6.918,-6.609,-40.738,-40.753
-11.097,-63.26,-46.604,-55.112,-7.724,-7.173,-50.24,-52.006
-12.874,-55.022,-38.408,-45.018,-9.591,-8.959,-36.4,-38.221
-15.338,-36.046,-20.41,-24.906,-11.673,-11.302,-16.032,-14.889
-15.735,-28.187,-14.411,-18.613,-11.974,-11.855,-13.697,-10.163
-13.319,-31.761,-21.107,-25.516,-10.095,-9.806,-25.269,-21.935
-11.022,-29.143,-22.581,-25.563,-8.23,-7.59,-28.174,-25.947
-10.607,-18.825,-15.265,-16.222,-7.727,-7.075,-20.421,-18.286
-10.577,-15.778,-11.815,-12.431,-7.562,-7.157,-17.981,-14.322
-9.627,-25.917,-18.192,-20.45,-6.603,-6.441,-27.362,-21.152
-8.462,-35.31,-23.657,-27.231,-5.128,-5.481,-34.253,-27.438
-7.95,-28.987,-16.103,-18.996,-4.157,-5.455,-24.796,-21.082
-7.304,-14.154,-2.761,-4.273,-3.901,-5.942,-10.559,-10.115
-5.659,-3.72,3.812,3.995,-3.873,-5.732,-5.854,-4.064
-4.061,4.934,7.467,10.52,-3.963,-4.97,-2.857,3.742
-3.68,15.828,15.835,21.088,-3.989,-4.535,7.734,14.905
-4.108,19.249,21.577,25.785,-3.672,-4.532,14.807,16.712
-4.569,6.22,14.108,14.895,-3.218,-4.564,5.98,4.735
-4.753,-9.633,2.701,0.881,-2.831,-4.586,-5.75,-6.751
-4.537,-10.524,2.161,-0.106,-2.557,-4.672,-4.96,-7.615
-4.352,-5.489,5.324,3.273,-2.677,-4.661,-2.59,-7.1
-4.91,-10.829,-0.291,-3.059,-3.295,-4.726,-11.564,-14.5
-5.937,-19.434,-7.477,-11.434,-3.901,-5.289,-21.384,-22.657
-6.252,-16.097,-4.35,-7.879,-4.001,-5.815,-17.427,-20.089
-5.397,-2.239,6.159,5.845,-3.778,-5.369,-3.256,-7.008
-4.703,10.547,14.958,18.431,-4.08,-4.885,7.764,6.258
-5.345,12.462,15.735,19.425,-5.181,-5.842,5.475,7.272
-6.174,1.118,6.323,6.455,-5.902,-7.018,-8.876,-6.267
-6.084,-12.9,-5.468,-8.22,-5.522,-6.629,-20.496,-18.854
-6.058,-19.299,-11.227,-14.301,-5.199,-5.885,-22.478,-19.944
-6.755,-20.857,-14.221,-17.113,-6.131,-6.778,-24.226,-19.607
-7.04,-21.115,-17.418,-20.771,-7.37,-8.417,-28.975,-24.492
-6.172,-16.574,-14.78,-18.827,-7.146,-8.677,-28.091,-24.851
-5.578,-5.561,-3.516,-7.406,-6.33,-8.07,-17.06,-13.487
-6.838,11.945,13.314,12.119,-7.351,-8.783,2.86,6.561
-8.985,36.343,34.38,37.286,-9.739,-10.904,27.486,29.741
-9.565,51.369,47.467,50.575,-10.623,-12.113,37.002,40.64
-7.941,35.847,33.886,31.822,-9.248,-10.952,14.741,23.319
-6.193,8.089,7.515,1.376,-7.829,-9.046,-13.545,-4.064
-6.238,7.134,3.628,-0.93,-7.98,-8.868,-11.156,-7.373
-7.525,32.353,24.24,23.511,-8.866,-10.233,13.968,13.063
-8.019,49.1,39.694,39.724,-8.69,-10.697,27.103,28.803
-5.963,39.315,33.277,29.657,-6.142,-8.41,14.881,22.401
-1.648,20.004,17.934,9.966,-1.729,-3.926,-2.942,5.126
1.973,18.935,16.813,8.692,1.716,-0.217,1.463,4.008
2.782,41.829,36.267,31.933,2.239,0.324,30.489,28.25
2.59,63.856,56.134,54.135,1.676,-0.691,53.75,52.278
3.697,56.449,50.445,45.969,2.55,-0.169,42.978,44.478
5.084,23.667,21.659,12.463,4.289,1.829,9.351,10.387
5.23,-9.165,-6.422,-19.238,5.369,3.583,-19.259,-19.89
4.767,-32.291,-24.854,-39.677,5.698,4.637,-37.179,-36.152
4.001,-41.137,-33.152,-47.264,4.821,4.391,-43.52,-40.233
2.367,-21.622,-20.362,-30.157,2.2,2.035,-26.753,-24.223
1.284,19.28,11.53,6.294,-0.054,-0.503,6.217,7.99
2.599,48.948,36.876,32.824,0.381,-0.498,28.437,32.726
5.181,53.672,41.574,36.44,2.157,1.198,30.804,37.879
7.471,47.519,35.9,29.578,3.343,2.563,24.385,31.571
9.588,41.297,29.794,22.538,4.329,3.596,16.473,22.954
10.961,36.259,25.015,17.477,5.037,4.231,9.484,16.971
11.426,33.692,22.646,15.576,5.176,4.45,5.095,15.839
13.461,40.968,27.973,22.144,6.667,6.108,9.295,23.215
18.878,64.692,45.176,41.454,10.89,10.351,27.376,41.876
26.009,87.841,60.612,57.659,16.453,15.776,42.576,56.334
32.256,86.175,56.678,50.907,21.677,20.596,34.349,47.068
36.865,70.145,42.942,32.653,25.954,24.005,15.471,24.731
40.238,72.943,45.205,33.403,28.717,25.948,17.696,21.477
42.973,100.994,68.507,59.628,30.213,27.382,45.193,46.66
46.306,122.893,87.686,81.62,32.311,29.884,64.883,69.556
50.63,118.37,84.299,77.729,35.673,33.551,57.45,66.373
54.115,105.64,71.785,63.96,38.441,36.594,43.152,53.168
55.438,102.076,66.033,58.353,39.411,37.961,39.367,48.095
55.346,100.513,62.99,55.616,39.12,38.113,37.855,45.771
54.455,94.21,56.79,49.044,38.058,37.381,31.414,39.314
52.765,91.8,53.749,45.657,36.565,35.881,28.012,34.863
51.103,92.673,53.581,43.909,35.298,34.171,25.012,30.978
49.982,75.624,39.087,24.73,34.339,32.715,3.857,10.631
47.779,43.035,11.926,-6.064,32.442,30.999,-25.265,-18.686
42.778,35.471,5.203,-9.316,28.128,27.646,-23.332,-19.589
36.261,66.25,30.498,23.168,22.003,22.262,11.433,13
31.338,93.005,54.114,49.005,16.987,16.997,33.478,37.451
29.142,81.315,47.331,38.966,14.913,14.647,16.978,27.626
27.726,48.745,22.533,11.891,14.213,14.89,-14.14,1.917
24.929,32.939,9.921,1.072,12.505,14.401,-24.193,-9.237
21.353,43.192,19.456,13.402,10.139,11.757,-9.608,1.715
19.528,52.738,30.967,23.768,9.586,9.613,-0.051,12.144
20.107,41.975,25.744,13.509,11.463,10.091,-11.79,2.228
20.897,28.231,15.225,-0.09,13.337,11.493,-23.956,-13.047
20.322,34.114,19.67,6.882,13.348,11.775,-15.587,-8.732
18.992,55.907,38.378,31.699,12.154,11.395,7.03,14.822
17.759,79.788,59.774,59.838,10.969,11.424,30.854,43.03
16.809,103.916,82.055,88.271,10.523,12.033,55.927,70.848
16.605,120.996,99.311,108.641,11.498,13.433,74.122,90.193
17.674,106.137,89.584,95.969,14.088,16.137,61.079,79.501
19.23,62.235,54.252,54.653,17.359,19.647,23.86,43.27
19.913,31.665,29.729,27.71,19.95,22.423,3.876,20.09
19.886,32.243,31.21,30.5,21.235,23.684,11.718,24.405
20.281,40.708,37.057,36.93,21.513,24.016,20.215,32.685
21.066,40.974,33.604,33.065,21.433,24.296,17.482,30.87
21.57,39.668,30.837,31.29,21.711,25.132,16.162,29.829
22.256,38.587,32.212,33.908,22.817,26.851,16.719,31.809
23.566,28.95,25.276,26.826,24.148,29.019,6.184,23.596
24.508,18.574,13.394,16.004,24.516,30.522,-7.077,11.496
24.299,28.952,18.696,25.842,23.706,30.666,-0.48,18.844
23.54,55.961,41.238,53.176,22.461,29.781,20.296,42.353
23.166,63.319,48.326,59.678,21.528,28.781,19.446,45.812
23.068,32.901,21.78,26.633,20.968,27.928,-15.798,11.479
21.776,-2.371,-8.824,-10.449,19.933,26.04,-48.491,-26.466
18.291,-3.889,-6.958,-10.705,17.813,22.048,-42.567,-27.039
13.739,21.216,20.375,17.264,15.066,16.954,-9.665,3.129
9.853,42.609,42.268,40.461,12.303,12.825,18.503,30.772
6.906,50.254,49.458,49.215,9.854,10.292,33.052,44.088
4.324,45.823,48.093,47.268,8.243,8.404,36.264,45.946
2.163,25.259,35.666,30.396,7.673,6.567,23.359,31.72
0.704,-4.288,13.98,3.851,7.367,5.162,-0.108,6.556
-0.264,-28.439,-6.382,-18.276,6.67,4.695,-21.238,-13.86
-1.008,-46.482,-22.759,-34.25,5.805,4.908,-37.445,-27.145
-1.734,-55.469,-31.645,-41.389,4.634,4.601,-43.577,-32.644
-2.448,-43.573,-22.993,-28.405,2.818,3.359,-30.255,-19.973
-2.783,-17.847,-1.548,-1.329,1.316,2.537,-6.419,5.725
-3.063,-0.478,15.008,18.584,1.034,2.722,8.789,22.756
-4.501,6.263,24.29,28.851,0.869,2.336,15.19,28.504
-6.827,13.149,34.564,39.902,-0.068,0.867,20.602,35.792
-7.539,13.255,38.461,43.497,-0.324,0.519,16.538,37.394
-5.51,-0.384,27.887,30.366,1.048,2.291,-0.407,22.175
-2.932,-10.907,17.209,17.728,2.529,4.158,-11.524,7.832
-1.887,-1.035,23.372,26.088,2.703,4.569,-2.135,16.754
-1.773,20.39,40.415,47.923,2.2,4.415,16.877,39.405
-1.21,26.892,45.139,54.713,2.36,5.058,20.658,45.495
-0.101,9.739,27.83,35.014,3.173,5.981,2.428,25.516
1.219,-12.736,4.233,6.814,3.926,5.876,-20.456,-1.583
2.543,-25.828,-9.344,-12.32,4.71,4.98,-32.844,-18.97
2.792,-27.354,-9.209,-17.833,5.17,3.694,-31.286,-22.868
1.286,-17.344,1.764,-10.462,4.388,1.655,-18.807,-15.417
-0.746,-3.692,14.394,1.588,2.812,-0.571,-5.112,-4.674
-2.172,-1.379,17.456,5.519,1.609,-1.855,-1.176,-0.398
-3.161,-11.937,10.899,0.06,1.139,-1.887,-5.861,-2.433
-3.855,-19.73,5.313,-3.596,0.986,-1.315,-8.511,-3.54
-4.17,-17.769,4.509,-2.103,0.488,-1.24,-7.46,-4.177
-4.401,-14.874,3.334,-2.254,-0.612,-2.108,-8.641,-7.978
-5.13,-13.861,2.064,-3.032,-2.272,-3.685,-9.586,-9.442
-6.828,-5.498,8.075,5.637,-4.76,-6.041,-1.402,-0.355
-8.631,8.255,18.847,20.107,-7.433,-8.471,10.041,12.394
-8.614,7.991,18.727,19.757,-8.205,-9.032,5.923,9.763
-7.139,-10.018,5.499,2.033,-6.785,-7.719,-12.271,-8.206
-6.638,-29.352,-7.557,-15.543,-5.451,-6.871,-28.524,-25.339
-7.291,-45.094,-18.492,-29.783,-5.086,-7.172,-42.772,-41.217
-7.663,-57.241,-28.177,-41.72,-4.926,-7.571,-54.31,-55.624
-8.118,-52.858,-23.528,-35.991,-5.211,-8.108,-47.29,-49.842
-9.476,-29.347,-1.57,-9.004,-6.292,-8.959,-21.697,-21.342
-10.976,-6.186,18.26,16.129,-7.833,-9.641,-1.066,3.022
-11.547,3.812,24.7,24.318,-9.405,-10.481,3.409,8.095
-11.099,2.453,23.92,21.575,-9.906,-11.359,-0.811,3.189
-10.202,-8.172,18.545,13.572,-8.628,-10.815,-8.786,-4.218
-9.216,-18.998,10.051,4.324,-6.824,-8.924,-15.612,-12.169
-8.051,-21.052,3.475,-2.456,-5.66,-7.462,-17.82,-19.165
-6.594,-22.568,-2.361,-10.558,-4.343,-6.743,-21.211,-27.804
-5.064,-28.943,-8.3,-20.047,-2.441,-6.14,-26.857,-37.183
-4.02,-29.5,-8.723,-22.014,-1.409,-6.008,-26.332,-39.179
-3.916,-18.468,-0.969,-12.051,-2.112,-6.471,-15.82,-28.373
-4.502,-0.473,13.151,7.102,-3.399,-6.728,2.692,-6.206
-5.023,21.988,32.326,32.358,-4.016,-6.279,26.623,22.693
-4.784,38.736,46.276,50.452,-3.807,-5.21,41.183,42.713
-3.4,29.503,36.68,39.653,-2.798,-3.673,27.286,31.812
-1.64,1.304,10.115,8.333,-1.48,-2.399,-0.981,0.292
-0.985,-10.184,-2.458,-6.254,-1.161,-2.32,-8.838,-13.22
-1.129,6.584,7.621,6.573,-1.937,-2.849,7.199,0.812
-0.449,26.127,18.718,20.773,-2.402,-2.838,20.102,15.668
1.057,24.861,14.05,15.856,-1.969,-2.368,13.71,12.11
1.696,8.626,0.913,0.861,-1.512,-2.042,-0.248,-1.489
0.783,-1.276,-3.678,-4.179,-1.599,-1.951,-3.361,-7.681
-0.236,1.412,3.704,3.097,-1.283,-1.639,5.062,-3.158
-0.258,4.833,11.686,8.746,0.179,-0.925,12.371,1.993
0.021,0.377,11.506,4.97,1.866,-0.307,11.599,-0.118
-0.049,-4.304,9.194,0.872,2.792,-0.155,9.639,-4.152
-0.271,2.11,15.318,7.656,2.886,-0.616,15.796,0.36
-0.543,15.762,26.741,20.479,2.198,-1.764,26.374,11.125
-1.021,21.245,29.374,24.406,0.858,-2.839,28.17,14.688
-1.414,11.975,17.941,14.737,-0.393,-2.689,17.802,6.042
-0.931,-0.251,5.279,3.804,-0.611,-1.604,7.505,-3.949
0.748,-8.14,-0.475,-2.794,0.452,-0.684,0.256,-10.974
3.029,-21.643,-10.35,-16.065,2.147,0.43,-14.694,-25.022
4.723,-37.217,-24.446,-31.304,3.35,2.265,-29.063,-39.61
4.456,-34.015,-23.723,-26.62,3.104,3.397,-21.293,-32.912
2.07,-12.014,-5.603,-3.34,1.547,2.479,3.226,-7.733
-0.278,5.477,9.528,13.087,0.168,0.68,18.186,9.407
-0.426,8.664,11.363,13.303,0.042,0.076,17.343,9.547
0.826,6.838,7.808,8.92,0.25,0.564,13.324,5.075
1.336,1.995,1.99,2.39,-0.3,0.405,8.093,-1.109
1.052,-9.489,-8.556,-11.457,-0.873,-0.782,-2.86,-13.75
1.383,-27.242,-24.242,-32.711,-0.478,-1.701,-21.001,-33.496
2.376,-49.644,-45.315,-58.697,0.273,-1.744,-44.277,-58.62
2.685,-60.428,-57.871,-72.136,0.144,-1.951,-53.898,-71.858
1.733,-40.437,-42.765,-53.248,-1.112,-3.185,-32.341,-53.252
0.29,-4.885,-11.845,-17.395,-2.9,-4.845,2.111,-17.594
-1.168,16.283,6.795,4.547,-4.868,-6.311,20.663,4.382
-2.909,23.867,12.596,12.686,-6.925,-7.994,26.492,11.764
-4.528,29.674,18.011,18.67,-8.407,-9.978,31.754,17.022
-4.993,23.58,15.472,12.797,-8.307,-11.016,26.404,12.186
-3.9,3.269,0.44,-6.301,-6.577,-9.994,8.667,-5.307
-2.051,-9.715,-10.743,-17.256,-4.706,-7.836,-0.337,-15.258
-1.119,-8.14,-10.631,-14.152,-4.104,-6.602,5.38,-10.316
-1.944,-6.555,-9.127,-11.409,-4.55,-6.893,9.967,-4.604
-3.144,-10.387,-10.843,-13.574,-5.104,-7.471,6.903,-5.076
-2.842,-11.111,-10.27,-13.155,-5.148,-7.341,4.342,-7.266
-1.728,-7.48,-6.139,-9.628,-4.7,-7.125,5.812,-10.59
-2.348,-6.708,-3.562,-8.013,-4.856,-7.852,8.136,-13.969
-5.011,-10.062,-4.867,-8.871,-6.343,-9.303,8.713,-12.845
-7.045,-15.976,-10.419,-13.938,-7.739,-10.295,3.949,-13.109
-6.885,-23.496,-18.049,-23.117,-7.523,-10.079,-4.714,-20.722
-5.797,-33.756,-26.126,-33.869,-6.379,-8.96,-14.441,-31.677
-5.055,-49.908,-37.818,-48.094,-5.439,-7.85,-27.046,-44.222
-4.641,-61.545,-46.624,-58.554,-4.828,-7.651,-33.707,-52.26
-4.34,-53.78,-40.932,-52.391,-4.606,-8.285,-23.091,-45.193
-4.041,-33.265,-25.978,-34.158,-4.975,-8.641,-3.294,-26.272
-3.786,-19.295,-16.566,-20.532,-5.808,-8.338,9.434,-10.575
-3.878,-18.603,-17.3,-19.262,-6.625,-8.01,10.66,-7.536
-4.525,-22.734,-22.571,-24.62,-7.158,-7.864,6.508,-12.443
-5.3,-24.595,-28.582,-29.976,-7.638,-7.608,1.975,-15.985
-5.454,-24.546,-34.195,-33.47,-7.999,-7.108,-0.87,-14.721
-5.213,-24.402,-36.402,-33.891,-7.844,-6.536,-0.312,-10.737
-5.238,-23.136,-32.441,-29.845,-7.245,-6.284,5.21,-7.055
-5.177,-18.35,-23.851,-22.796,-6.715,-6.617,14.131,-4.97
-4.473,-14.762,-19.368,-20.543,-6.46,-7.13,17.276,-7.212
-3.729,-18.057,-23.907,-26.259,-6.269,-7.074,11.913,-12.653
-4.354,-20.481,-27.264,-28.288,-6.574,-6.987,11.725,-10.937
-6.463,-11.033,-18.715,-16.418,-7.97,-7.977,25.647,4.162
-8.109,2.292,-6.629,-1.215,-9.421,-8.97,40.181,21.026
-7.982,-1.741,-9.721,-3.848,-9.442,-8.189,35.15,19.426
-7.096,-24.117,-28.334,-25.194,-8.433,-6.572,12.912,-1.385
-6.504,-46.672,-47.844,-48.774,-7.588,-5.905,-10.077,-24.14
-5.402,-63.588,-64.786,-69.086,-6.752,-5.51,-29.36,-43.134
-3.405,-73.134,-76.171,-81.43,-5.555,-4.337,-39.565,-56.141
-2.543,-64.52,-69.198,-72.192,-5.122,-3.812,-28.226,-49.688
-4.116,-39.934,-45.94,-45.366,-6.298,-5.338,-1.349,-24.071
-6.323,-16.511,-25.09,-21.596,-8.022,-7.44,20.982,1.382
-7.384,-1.268,-14.248,-7.9,-9.164,-8.293,32.942,16.77
-7.351,6.753,-10.515,-2.59,-9.737,-8.445,36.479,20.674
-6.652,0.947,-17.974,-12.182,-10.065,-8.874,26.096,7.602
-6.304,-16.679,-34.345,-31.533,-10.562,-9.347,7.667,-13.045
-7.249,-31.433,-46.38,-43.994,-11.19,-9.423,-3.8,-23.536
-8.432,-41.633,-54.178,-51.909,-11.281,-9.117,-11.651,-28.918
-8.899,-50.572,-63.484,-61.637,-11.207,-9.122,-21.319,-37.403
-9.694,-49.127,-66.096,-61.458,-12.087,-10.047,-20.951,-37.376
-11.418,-35.355,-56.973,-46.978,-13.668,-11.322,-6.102,-23.126
-12.959,-22.756,-46.023,-32.956,-14.86,-12.31,9.288,-8.016
-13.559,-17.298,-39.822,-27.054,-15.57,-13.375,16.711,-1.122
-14.298,-15.554,-37.019,-25.018,-16.512,-14.728,18.307,0.513
-16.324,-22.609,-41.997,-30.105,-17.744,-15.592,11.467,-4.468
-18.725,-38.072,-54.979,-43.024,-18.712,-15.562,-1.531,-16.627
-20.164,-44.997,-62.802,-49.673,-19.557,-15.519,-6.396,-23.903
-20.758,-37.084,-58.741,-42.974,-20.552,-15.899,1.099,-18.013
-20.507,-28.738,-51.4,-34.289,-20.721,-15.746,8.748,-8.918
-18.924,-33.145,-51.527,-36.794,-19.117,-14.519,6.146,-11.614
-17.301,-46.328,-59.593,-48.476,-17.17,-13.414,-3.035,-23.873
-17.414,-56.827,-68.447,-58.749,-17.011,-13.663,-10.586,-32.871
-18.198,-62.051,-74.677,-64.938,-17.865,-14.257,-16.197,-37.337
-17.803,-62.741,-76.972,-66.613,-17.952,-13.761,-19.631,-38.986
-17.004,-55.398,-71.27,-58.776,-17.913,-13.136,-16.836,-31.071
-17.24,-42.454,-58.512,-44.15,-18.583,-13.673,-11.863,-14.49
-17.96,-40.376,-52.93,-40.609,-18.766,-14.277,-18.823,-8.458
-18.015,-59.787,-66.359,-59.105,-17.672,-13.491,-40.99,-25.715
-17.763,-79.94,-82.462,-78.337,-16.605,-12.365,-56.005,-45.489
-18.1,-73.551,-75.705,-71.496,-16.648,-12.845,-43.663,-41.639
-18.863,-48.662,-52.142,-47.446,-17.156,-14.502,-17.471,-22.308
-19.932,-31.821,-36.735,-31.284,-17.822,-15.717,-1.572,-8.86
-21.882,-25.279,-30.922,-22.703,-19.158,-16.535,7.031,1.073
-24.433,-18.499,-22.397,-11.541,-20.493,-17.456,18.192,14.87
-25.822,-21.796,-21.423,-11.532,-20.4,-17.33,17.748,15.956
-24.394,-41.908,-38.666,-31.833,-18.743,-15.257,0.185,-3.623
-21.083,-57.216,-54.889,-49.838,-16.851,-12.925,-11.144,-19.738
-19.301,-53.728,-52.634,-48.035,-16.148,-12.459,-3.854,-15.51
-20.704,-46.802,-43.38,-39.096,-16.742,-13.348,6.723,-3.112
-22.854,-53.609,-45.277,-42.086,-17.352,-13.857,4.429,-1.371
-23.346,-67.984,-56.514,-55.627,-17.277,-14.128,-5.98,-12.66
-22.908,-74.578,-64.65,-66.186,-17.123,-15.023,-11.991,-26.175
-22.679,-74.482,-68.554,-71.654,-16.965,-15.548,-15.128,-35.75
-22.599,-74.893,-71.231,-74.915,-16.439,-14.776,-18.668,-38.721
-22.422,-72.981,-69.863,-72.571,-16.051,-13.643,-17.007,-32.763
-21.692,-66.632,-65.02,-64.957,-16.088,-12.763,-10.338,-23.728
-20.004,-61.269,-62.004,-58.878,-15.8,-11.546,-6.201,-19.991
-17.771,-57.338,-59.939,-54.825,-14.74,-9.946,-3.89,-18.816
-15.989,-49.013,-53.44,-47.01,-13.516,-8.794,3.057,-12.096
-15.166,-41.921,-47.359,-40.335,-12.489,-8.077,9.158,-4.846
-14.796,-44.625,-48.843,-42.729,-11.117,-6.856,7.39,-6.296
-14.254,-48.228,-50.731,-46.048,-9.39,-5.203,6.067,-10.533
-13.373,-40.057,-43.152,-37.912,-8.175,-3.96,14.563,-5.579
-12.277,-24.078,-29.95,-21.629,-7.84,-3.19,27.359,8.699
-11.169,-17.547,-25.127,-14.732,-7.555,-2.274,29.552,17.284
-10.002,-26.253,-31.744,-23.266,-6.273,-0.866,19.704,10.667
-8.741,-37.62,-37.642,-33.424,-4.307,0.524,11.668,-1.329
-7.395,-45.257,-39.238,-38.224,-2.529,1.696,9.186,-8.64
-5.963,-50.656,-41.894,-41.37,-0.977,3.109,8.194,-10.758
-5.014,-51.204,-44.014,-42.584,0.199,4.206,9.865,-9.726
-5.173,-46.858,-42.308,-40.287,0.524,4.298,14.082,-7.055
-6.031,-40.904,-38.003,-34.839,0.195,4.164,18.869,-2.14
-6.431,-35.129,-33.252,-28.028,0.174,4.805,24.148,4.219
-6.01,-33.036,-30.959,-24.562,0.947,6.051,27.628,7.397
-5.644,-38.073,-34.63,-28.465,1.473,6.79,24.618,3.893
-5.413,-44.567,-40.691,-34.875,1.217,6.672,17.583,-2.316
-4.452,-44.655,-41.447,-35.774,1.622,6.792,13.909,-4.997
-3.892,-42.005,-38.117,-32.864,2.671,7.203,14.076,-4.856
-5.558,-43.723,-37.127,-32.339,2.086,6.479,13.958,-5.257
-7.572,-48.796,-39.583,-35.334,0.306,5.186,11.304,-8.12
-7.115,-49.515,-40.136,-36.368,0.139,5.288,9.548,-10.698
-5.589,-46.316,-39.209,-35.348,1.318,6.311,8.773,-10.596
-5.309,-53.631,-48.765,-45.638,1.655,6.512,-2.854,-18.425
-5.493,-69.389,-66.183,-65.511,1.027,5.659,-21.746,-37.205
-5.261,-68.147,-68.17,-68.602,0.082,4.345,-21.267,-43.668
-5.798,-45.398,-49.663,-47.257,-1.41,3.023,2.745,-23.901
-7.584,-28.488,-34.751,-28.196,-3.148,2.035,19.777,-1.73
-8.87,-32.379,-37.856,-29.919,-3.961,1.49,13.083,-2.26
-8.33,-42.141,-45.772,-39.65,-3.354,1.461,-0.218,-15.629
-7.131,-44.004,-45.634,-42.051,-2.32,1.789,-3.492,-21.117
-6.884,-41.205,-41.215,-38.805,-2.103,1.859,-0.351,-17.226
-7.028,-48.142,-45.813,-44.561,-2.21,1.822,-7.999,-21.422
-6.112,-74.411,-68.019,-70.43,-1.306,2.476,-35.964,-47.349
-4.714,-97.578,-89.808,-95.735,-0.195,3.052,-60.177,-73.916
-4.4,-85.907,-82.794,-87.826,-0.568,2.102,-50.147,-68.129
-4.698,-49.021,-51.263,-52.849,-1.501,0.544,-15.701,-36.261
-4.476,-22.04,-25.313,-24.638,-1.499,0.299,10.522,-10.195
-4.66,-15.606,-18.774,-16.172,-1.767,0.839,17.847,-0.181
-6.089,-15.326,-21.226,-15.888,-3.456,0.399,16.742,4.194
-7.218,-15.421,-25.126,-18.85,-5.042,-0.961,10.971,2.385
-6.952,-20.625,-32.456,-27.976,-5.472,-2.355,-0.245,-11.141
-6.818,-28.348,-40.968,-37.991,-6.095,-3.894,-10.236,-26.001
-8.016,-33.381,-46.09,-42.72,-7.496,-5.337,-14.257,-30.495
-9.289,-35.709,-47.132,-42.882,-8.312,-5.713,-14.233,-27.119
-9.594,-37.819,-46.588,-42.232,-8.14,-5.228,-13.931,-23.932
-9.822,-39.352,-45.994,-41.402,-8.102,-4.865,-13.101,-22.256
-10.576,-34.816,-41.512,-35.117,-8.551,-4.9,-5.393,-16.176
-11.441,-22.61,-30.348,-21.158,-9.181,-5.51,9.975,-2.903
-12.633,-13.918,-21.206,-9.85,-10.355,-6.781,19.803,8.94
-14.404,-21.974,-26.993,-15.222,-11.903,-7.89,11.543,5.247
-16.039,-40.917,-44.128,-33.538,-12.817,-8.227,-7.615,-12.279
-16.791,-56.052,-59.55,-50.382,-13.068,-8.079,-24.994,-28.99
-16.368,-69.671,-74.293,-66.28,-13.261,-7.693,-42.932,-44.685
-15.51,-83.442,-88.685,-81.266,-13.538,-7.629,-57.458,-60.503
-15.671,-80.58,-86.948,-77.816,-13.888,-8.495,-49.769,-58.087
-16.769,-56.705,-64.811,-51.977,-14.17,-9.541,-21.883,-31.869
-17.554,-34.102,-41.77,-27.178,-14.373,-10.086,-0.236,-7.207
-17.777,-26.661,-31.264,-18.041,-14.626,-10.528,4.681,-0.746
-17.68,-26.406,-28.877,-16.559,-14.432,-10.485,3.377,-2.844
-17.113,-31.603,-33.278,-20.219,-13.307,-9.19,-2.982,-8.165
-16.304,-45.76,-45.178,-32.478,-11.864,-7.628,-16.815,-19.915
-15.958,-55.962,-52.911,-41.898,-11.131,-7.278,-24.249,-28.89
-16.378,-47.312,-44.878,-33.401,-11.342,-7.764,-11.827,-20.707
-17.023,-26.445,-26.363,-11.557,-11.732,-7.896,10.936,1.559
-17.146,-17.793,-17.479,-1.181,-11.605,-7.57,17.848,13.37
-17.142,-31.012,-27.994,-13.946,-11.488,-7.487,2.619,1.686
-18.112,-41.715,-37.822,-24.893,-12.263,-8.162,-6.333,-9.639
-19.508,-28.787,-26.159,-11.061,-13.224,-9.245,9.061,1.892
-19.499,-9.149,-5.715,10.165,-12.742,-9.55,26.72,19.326
-17.857,-9.6,-2.316,10.087,-10.907,-8.558,21.647,15.943
-15.97,-26.275,-16.111,-8.132,-9.367,-7.159,2.847,-2.493
-14.364,-41.602,-30.981,-26.175,-8.355,-5.998,-12.361,-17.239
-12.539,-56.672,-45.219,-44.462,-6.844,-4.847,-28.247,-32.373
-10.846,-70.728,-59.017,-61.774,-5.455,-3.9,-43.92,-50.255
-10.138,-67.051,-58.872,-59.651,-5.302,-3.291,-40.849,-50.294
-10.254,-42.965,-40.148,-34.446,-5.673,-2.646,-16.553,-24.917
-10.574,-15.945,-16.578,-6.001,-5.854,-2.525,10.114,5.722
-10.914,3.349,1.606,13.335,-6.215,-3.567,28.964,27.086
-11.345,14.019,12.731,23.941,-6.767,-4.902,39.741,38.473
-11.821,8.134,9.016,18.092,-7.062,-5.58,32.494,31.604
-12.12,-15.07,-10.916,-5.684,-7.157,-5.91,6.297,5.924
-11.769,-36.727,-30.113,-27.42,-6.968,-5.891,-16.623,-16.102
-10.179,-45.754,-38.201,-35.445,-5.559,-4.397,-24.569,-22.759
-8.192,-47.141,-39.569,-35.916,-3.568,-2.147,-25.26,-24.066
-8.044,-42.773,-35.958,-31.026,-3.63,-1.891,-21.724,-23.358
-10.107,-31.719,-26.249,-18.839,-5.984,-3.74,-12.216,-14.264
-12.392,-18.405,-14.021,-3.307,-8.093,-5.189,-0.26,1.121
-13.82,-6.827,-2.858,11.176,-9.124,-5.547,10.941,15.304
-15.045,1.309,5.443,22.2,-10.137,-6.006,19.931,25.297
-16.129,-0.103,5.039,22.131,-10.898,-6.863,19.66,25.396
-16.163,-11.325,-4.541,9.643,-10.392,-7.319,8.489,13.237
-15.043,-23.103,-14.626,-4.327,-9.028,-6.743,-4.295,-1.423
-13.82,-34.453,-23.847,-16.545,-7.984,-5.499,-15.694,-13.543
-13.541,-45.909,-32.913,-27.671,-7.597,-4.811,-24.812,-22.996
-14.195,-47.862,-33.704,-28.697,-7.338,-4.955,-23.114,-21.687
-15.043,-38.406,-24.379,-16.749,-7.001,-4.88,-10.114,-6.553
-15.755,-29.345,-14.732,-3.589,-6.953,-4.475,2.524,10.074
-16.337,-24.036,-8.041,4.588,-7.059,-4.644,11.085,19.149
-16.464,-15.245,0.821,13.028,-6.845,-5.16,20.044,24.672
-15.616,-9.461,6.137,17.111,-6.24,-4.874,21.915,24.771
-14.196,-16.785,-0.559,9.29,-5.572,-3.797,10.938,15.172
-13.401,-30.369,-13.713,-3.544,-5.202,-2.881,-2.857,2.943
-12.983,-45.229,-28.934,-18.245,-4.799,-2.119,-17.224,-11.434
-11.977,-59.809,-44.304,-34.736,-4.169,-1.381,-32.871,-29.542
-11.591,-61.301,-47.726,-38.41,-4.282,-1.495,-34.524,-34.265
-13.279,-45.282,-33.721,-20.713,-5.448,-2.338,-15.757,-14.872
-15.483,-26.762,-15.225,3.175,-6.387,-2.642,5.898,10.57
-15.905,-14.983,-2.981,18.348,-6.377,-2.313,17.682,24.324
-14.634,-5.845,4.815,26.249,-5.748,-1.913,23.372,30.012
-12.748,-3.534,6.6,26.541,-4.164,-0.835,21.708,30.618
-11.009,-14.131,-1.024,16.256,-1.813,1.01,9.815,22.177
-10.455,-26.887,-10.793,4.537,-1.019,1.836,-1.824,10.321
-11.228,-32.793,-16.678,-1.234,-2.525,0.959,-6.424,3.163
-12.165,-37.139,-20.723,-4.912,-3.627,0.007,-8.717,0.875
-12.464,-41.696,-22.303,-7.249,-2.778,0.194,-9.634,1.693
-11.515,-40.495,-18.12,-4.802,-0.932,1.306,-6.399,3.848
-8.92,-38.542,-14.36,-4.995,1.465,2.704,-6.027,0.239
-6.072,-50.757,-23.645,-19.95,4.193,3.989,-19.017,-14.86
-4.826,-69.745,-39.561,-37.917,6,5.339,-34.63,-27.561
-4.616,-68.162,-39.322,-33.18,6.52,7.205,-30.573,-17.871
-3.472,-42.499,-19.647,-7.36,7.107,9.363,-8.953,6.202
-1.613,-16.178,1.044,15.659,8.155,10.422,9.683,21.523
-1.19,-0.792,13.731,28.284,8.207,9.536,20.194,28.835
-2.359,10.212,23.159,38.715,6.975,8.039,29.596,41.15
-3.011,13.894,25.576,41.346,6.284,7.538,30.869,47.426
-2.066,3.743,14.903,27.214,7.057,7.801,16.914,33.1
-0.161,-6.178,4.087,12.035,8.346,8.104,4.278,15.366
1.404,-0.339,7.898,15.284,9.061,8.5,8.733,17.01
1.384,12.324,18.589,28.618,8.627,8.612,19.703,29.864
0.36,13.034,19.537,30.51,7.798,8.177,19.069,31.057
0.166,1.203,10.335,19.664,8.114,8.363,8.656,20.142
0.445,-6.322,4.637,14.006,9.048,9.469,4.581,17.02
-0.643,0.193,10.487,22.825,8.753,9.813,13.592,29.99
-2.426,10.748,20.766,34.814,7.475,8.766,24.875,44.748
-2.234,8.707,20.808,32.254,7.091,7.643,22.325,42.441
0.332,-1.781,11.119,18.526,7.936,7.119,9.146,26.806
3.008,-1.625,7.814,13.659,8.78,6.919,3.023,19.126
4.454,6.378,11.769,17.22,9.383,7.282,3.685,21.136
5.097,6.222,10.617,14.401,10.234,8.075,0.491,17.682
5.24,0.424,5.588,7.904,10.822,8.486,-3.473,10.245
4.706,1.58,7.179,10.441,10.396,8.358,0.263,13.566
3.749,12.379,17.385,22.969,9.303,7.741,11.427,28.621
3.253,26.458,29.641,36.248,8.507,6.522,22.369,41.124
3.712,37.49,37.923,43.708,8.177,5.2,26.998,42.849
4.108,40.243,38.443,43.187,7.445,4.336,23.836,37.656
3.026,32.762,30.876,35.97,5.984,3.877,15.763,32.298
1.343,21.467,21.561,28.118,5.142,3.939,8.587,30.368
1.25,15.595,17.351,24.511,5.934,4.657,5.344,29.461
2.45,18.283,18.859,25.34,6.839,5.112,5.828,26.487
2.882,23.493,21.252,27.272,6.289,4.511,7.513,23.117
2.24,24.345,20.885,27.287,5.287,3.635,7.567,22.739
1.93,22.864,19.648,26.846,5.228,3.772,6.766,26.588
2.964,26.193,22.26,30.493,6.111,5.251,9.162,34.217
4.74,36.636,31.453,40.359,7.386,6.896,17.602,43.768
5.75,44.268,40.424,48.163,8.432,7.396,24.629,47.927
5.667,38.548,38.924,43.746,8.962,7.138,20.067,40.659
5.625,21.803,26.837,28.322,9.748,7.415,4.579,24.288
6.567,-0.936,8.977,6.694,11.846,9.004,-16.993,2.448
7.947,-20.426,-5.538,-10.988,14.499,11.309,-33.058,-14.468
8.535,-18.439,-1.287,-6.43,15.752,12.58,-26.197,-8.644
8.682,7.866,23.178,21.956,15.473,12.404,1.112,19.481
9.899,37.855,49.452,52.589,15.182,12.414,27.729,48.059
12.154,57.983,67.041,72.308,15.733,13.465,46.068,66.029
13.986,72.886,81.552,86.344,16.925,14.572,61.818,80.273
14.986,77.736,87.203,89.776,18.293,15.225,65.116,84.976
16.034,60.326,71.111,70.707,19.792,16.174,44.161,65.349
17.291,29.797,43.263,39.776,21.584,17.681,13.37,31.625
17.792,1.566,19.675,13.285,23.088,19.064,-11.613,4.072
17.233,-20.559,1.487,-6.733,23.457,19.734,-30.353,-13.554
16.607,-26.618,-4.844,-12.92,22.963,19.534,-34.216,-17.374
16.196,-7.188,11.35,4.326,22.098,18.276,-13.914,0.188
14.89,20.083,36.537,29.809,20.34,15.947,12.529,25.816
12.844,28.804,45.324,38.317,17.878,13.555,19.198,34.683
11.973,20.176,37.264,30.271,16.367,12.438,9.435,25.295
12.536,11.995,29.394,22.792,16.304,12.62,2.455,15.508
12.432,12.182,29.076,23.433,16.158,12.732,4.2,15.095
10.792,19.646,33.955,29.817,14.909,11.634,10.412,20.743
9.222,29.788,39.435,36.921,13.288,9.924,16.186,26.445
9.109,37.64,42.515,41.881,12.319,9.165,18.893,31.515
10.303,41.643,43.464,44.04,12.355,9.738,18.214,35.197
12.018,42.319,42.108,41.842,13.096,10.678,13.884,32.29
13.731,37.853,35.215,33.311,13.944,11.664,3.892,20.929
15.198,23.453,19.169,16.869,14.639,13.256,-14.779,3.574
15.714,5.076,1.196,-0.163,14.87,14.624,-33.48,-11.827
14.95,1.671,-1.061,-1.629,14.386,14.047,-33.112,-12.679
13.985,18.814,16.95,15.395,13.871,11.929,-12.16,1.975
13.535,37.467,37.657,33.161,13.837,10.08,8.006,16.987
13.05,39.81,44.502,36.429,13.939,9.175,12.523,20.606
12.489,31.627,40.955,30.341,14.281,9.097,7.764,17.182
12.282,26.423,37.614,26.113,14.923,9.42,3.14,14.329
11.964,25.673,36.736,25.593,14.919,9.318,0.022,12.795
11.616,30.921,41.153,31.572,14.498,9.191,3.551,16.909
12.532,56.435,63.007,56.97,15.363,10.306,28.288,40.35
14.704,106.359,105.641,105.349,17.271,12.359,75.958,87.276
17.691,142.782,137.389,141.225,19.309,15.128,107.23,124.026
22.758,122.094,119.897,120.686,22.941,19.724,81.034,105.551
28.993,66.813,70.371,62.651,27.925,24.585,24.662,47.11
32.32,35.814,40.361,26.553,30.695,26.302,-3.433,9.506
31.89,38.649,40.08,25.818,30.485,25.569,0.896,9.988
30.609,44.59,42.968,30.678,29.874,25.382,5.861,17.844
29.606,44.044,41.22,30.749,29.456,25.543,6.611,20.265
28.511,43.901,41.838,32.158,28.362,24.557,10.221,22.773
28.406,33.235,33.726,22.28,27.636,23.465,0.242,12.46
29.89,6.838,10.156,-4.43,28.508,23.962,-27.677,-15.215
31.03,-7.139,-3.383,-18.102,29.676,25.138,-39.624,-29.002
30.046,12.966,13.667,3.146,28.976,24.716,-15.567,-7.433
27.706,45.713,41.735,36.551,26.316,22.463,17.843,26.297
25.588,59.832,52.832,50.868,23.543,20.11,30.566,40.281
24.319,54.274,47.689,45.716,22.007,18.671,25.297,33.822
24.039,44.079,39.994,35.529,21.552,18.123,16.428,24.306
24.499,38.406,35.637,28.97,21.536,18.451,10.829,21.461
24.827,41.32,37.75,31.437,21.531,19.147,12.648,26.079
24.208,48.911,44.978,40.127,20.948,18.822,18.727,32.725
22.677,51.274,48.614,43.635,19.348,16.852,19.036,33.306
21.377,45.225,43.74,37.025,17.763,14.921,11.061,26.228
21.261,37.295,35.969,28.091,17.626,14.805,3.085,18.692
21.617,34.973,33.746,26.328,18.387,15.659,2.445,18.09
21.331,40.232,38.744,32.173,18.48,15.679,8.599,23.655
20.334,48.871,45.453,38.87,17.583,14.413,16.316,27.701
19.11,50.985,45.782,38.424,16.541,12.841,17.733,22.462
18.07,43.459,38.975,31.415,15.98,12.16,12.098,11.83
17.461,34.502,31.995,25.106,15.842,12.168,6.408,6.157
17.516,23.311,22.886,15.029,16.122,12.075,-3.075,-0.751
17.762,5.82,7.593,-2.844,16.361,11.839,-19.111,-16.434
16.829,-2.716,-0.482,-10.455,15.229,11.116,-24.378,-23.177
14.539,11.117,10.976,5.565,12.6,9.371,-8.501,-6.336
12.366,31.736,28.935,26.983,10.122,7.185,9.931,15.928
11.036,37.246,33.883,31.305,8.721,5.535,11.557,20.403
10.121,30.264,27.025,22.927,7.785,4.707,3.016,11.739
10.053,25.215,20.583,16.451,7.331,4.741,-2.153,5.491
11.6,26.13,18.869,14.168,8.203,5.405,-3.924,2.635
13.541,26.821,18.059,10.506,9.752,5.794,-8.345,-3.59
14.238,17.839,11.282,-0.707,10.678,5.573,-20.336,-16.171
14.373,2.521,0.511,-15.315,11.184,5.335,-34.786,-29.796
15.007,0.669,0.386,-16.353,11.419,4.839,-35.574,-32.333
15.231,19.168,16.075,1.729,10.458,3.518,-18.566,-19.154
14.393,41.132,33.987,23.544,8.571,2.345,1.607,0.29
13.523,54.071,43.989,36.81,7.05,2.081,14.316,15.692
12.649,60.96,48.747,43.415,5.6,1.508,20.728,25.124
10.768,60.525,47.262,42.448,3.603,0.012,18.709,26.424
8.723,49.399,36.669,31.225,2.157,-1.207,7.315,17.424
7.742,39.852,27.543,21.622,1.633,-1.885,0.035,7.895
7.182,45.058,31.235,26.586,0.731,-2.975,7.3,10.429
6.894,57.575,41.799,39.066,-0.27,-4.065,18.857,20.76
7.922,59.468,44.6,41.305,0.252,-3.921,17.392,21.873
9.287,46.487,35.688,29.577,1.648,-2.95,2.725,9.599
8.851,32.948,26.56,19.135,2.117,-2.364,-7.419,-0.483
7.448,32.372,28.805,22.569,2.084,-2.181,-3.039,2.166
7.302,42.334,39.835,34.755,2.496,-2.127,6.996,10.79
8.231,48.723,46.569,40.518,2.809,-2.455,9.302,13.359
9.181,42.458,40.765,31.734,2.906,-2.733,0.441,4.269
10.007,32.169,29.356,18.174,3.169,-2.306,-9.375,-7.525
10.233,33.698,26.797,16.935,2.999,-1.911,-6.565,-5.187
9.265,47.103,35.935,28.914,2.117,-2.625,7.406,10.948
7.493,53.126,41.69,34.948,1.364,-3.948,14.032,19.241
5.775,40.696,33.734,24.044,1.162,-4.848,4.72,9.274
4.884,23.961,22.97,9.718,1.219,-5.207,-7.025,-4.19
5.198,17.963,20.915,6.244,1.471,-5.015,-10.227,-8.192
5.923,18.881,23.846,10.653,1.765,-4.285,-8.529,-6.032
5.744,16.837,23.617,12.792,1.402,-3.837,-9.326,-6.687
4.549,14.035,20.466,11.181,0.062,-4.49,-12.883,-11.953
3.485,19.268,20.791,12.9,-1.508,-5.801,-13.742,-14.052
3.581,26.222,21.367,15.043,-2.379,-6.403,-15.627,-13.336
4.689,23.344,14.022,8.937,-2.614,-5.828,-24.484,-19.161
5.505,17.459,4.972,1.566,-2.844,-4.947,-31.593,-26.291
4.814,19.635,5.203,4.679,-3.431,-4.541,-27.749,-21.209
2.947,24.765,11.656,13.316,-4.207,-4.76,-19.698,-9.494
1.518,20.881,13.631,13.563,-4.267,-5.304,-19.023,-9.778
1.276,8.986,9.963,5.048,-3.199,-5.638,-23.882,-22.113
1.608,3.047,9.625,1.661,-2.104,-5.609,-23.695,-27.36
2.165,10.317,17.053,10.309,-1.951,-5.439,-16.395,-17.805
2.954,22.113,25.697,22.249,-2.46,-5.243,-8.606,-5.114
3.318,28.132,28.208,27.094,-3.286,-5.419,-5.035,0.372
2.37,30.05,25.986,24.905,-4.745,-6.883,-4.801,0.236
0.601,32.338,22.596,19.3,-6.711,-9.533,-6.739,-2.703
-0.363,33.839,18.201,12.533,-8.231,-11.653,-10.138,-7.554
-0.469,32.755,12.939,7.757,-9.27,-12.368,-13.689,-10.891
-1.014,26.746,5.497,2.393,-10.528,-12.781,-20.469,-14.778
-1.72,17.152,-3.388,-6.886,-11.452,-13.692,-30.233,-23.769
-1.611,13.088,-6.809,-12.366,-11.463,-14.638,-33.796,-31.677
-1.239,18.644,-1.455,-6.843,-11.331,-15.148,-27.437,-29.975
-1.138,22.645,4.702,0.531,-10.95,-14.728,-22.07,-24.541
-0.851,11.173,0.411,-5.249,-9.434,-12.931,-30.845,-29.525
-0.76,-7.919,-10.666,-18.096,-8.068,-10.798,-45.566,-41.207
-1.457,-10.769,-10.249,-15.028,-8.301,-9.7,-43.35,-38.335
-1.96,6.215,6.856,6.637,-8.57,-9.221,-23.322,-17.71
-1.589,22.63,24.345,24.798,-7.483,-8.874,-6.808,-1.224
-1.459,29.092,32.343,29.859,-6.504,-9.427,-0.08,1.79
-2.352,36.742,39.372,35.306,-7.07,-10.789,8.983,7.516
-3.472,45.221,45.362,42.126,-8.453,-11.724,15.681,17.909
-3.834,37.741,36.422,32.688,-9.189,-11.916,3.162,10.506
-3.388,18.52,17.497,11.003,-8.904,-11.907,-18.696,-14.345
-2.897,13.445,11.441,3.524,-8.595,-12.043,-23.957,-26.042
-2.795,29.193,23.338,16.891,-8.993,-12.418,-10.58,-13.099
-2.239,42.685,33.373,28.022,-9.111,-12.521,-1.553,-0.449
-0.68,37.201,27.163,20.46,-8.249,-11.879,-9.279,-7.525
0.601,28.548,17.375,9.88,-7.776,-11.295,-16.83,-17.051
0.581,36.16,20.696,15.495,-8.495,-11.474,-8.869,-8.478
-0.012,50.044,29.889,27.91,-9.248,-11.837,2.676,5.194
-0.892,49.013,28.635,27.7,-9.7,-12.244,1.116,2.179
-2.622,33.261,17.591,15.36,-10.589,-13.242,-10.288,-13.189
-4.406,22.16,10.647,6.795,-11.318,-14.345,-16.953,-22.199
-5.39,26.803,14.476,11.003,-11.39,-14.811,-12.163,-17.207
-6.402,38.528,23.05,22.475,-11.881,-14.928,-0.817,-3.465
-7.412,42.352,26.726,28.147,-12.64,-14.892,5.388,6.588
-7.09,34.648,21.525,21.131,-12.367,-14.529,-0.807,3.282
-5.775,26.407,13.628,10.478,-11.599,-14.181,-10.868,-6.764
-5.133,27.004,12.195,9.264,-11.464,-13.956,-11.567,-9.457
-5.71,33.708,19.204,18.945,-11.669,-13.451,-2.197,-1.525
-6.47,37.769,27.346,29.083,-11.443,-12.73,4.889,6.143
-6.329,33.774,27.428,28.839,-10.616,-12.153,-0.36,1.409
-5.754,25.157,20.535,20.54,-9.748,-11.79,-11.608,-11.627
-5.606,19.035,15.821,15.199,-9.221,-11.392,-16.203,-18.359
-5.51,18.594,17.632,17.479,-8.778,-10.759,-11.467,-13.869
-5.418,19.769,20.414,20.642,-8.82,-10.592,-6.082,-7.184
-6.138,16.713,17.166,16.827,-10.088,-11.784,-7.4,-6.503
-6.689,12.968,10.388,9.222,-11.506,-13.266,-12.176,-9.287
-4.968,11.59,2.765,0.557,-11.362,-13.258,-20.479,-16.687
-1.821,7.607,-8.843,-13.205,-10.469,-12.68,-35.928,-33.502
-0.067,6.48,-17.193,-23.718,-10.697,-13.506,-46.042,-46.487
-0.214,20.378,-9.964,-15.651,-11.965,-14.982,-36.219,-37.827
-0.942,41.944,6.136,5.394,-13.43,-15.285,-16.764,-15.765
-1.562,52.086,13.414,18.776,-14.733,-14.562,-8.442,-3.232
-1.872,49.223,10.273,19.186,-15.009,-13.636,-12.588,-5.354
-1.87,45.234,7.958,17.535,-13.695,-12.356,-17.236,-10.726
-2.238,43.442,10.119,19.868,-12.138,-10.842,-17.247,-12.517
-3.692,37.111,10.735,20.873,-12.071,-10.207,-16.869,-13.5
-5.745,16.404,-0.245,8.058,-13.104,-10.702,-28.251,-24.334
-7.198,-16.903,-23.942,-20.14,-13.522,-11.059,-53.347,-48.202
-7.977,-36.935,-38.436,-37.926,-13.067,-11.036,-65.512,-61.937
-9.192,-23.336,-23.85,-23.144,-13.226,-12.177,-44.523,-44.499
-10.81,3.196,2.513,3.522,-14.314,-14.618,-15.607,-16.758
-10.965,7.44,8.228,5.663,-14.405,-16.072,-15.071,-14.406
-9.002,-10.555,-7.728,-15.874,-12.665,-15.425,-36.916,-35.305
-7.241,-22.671,-20.182,-30.774,-11.328,-14.585,-48.608,-49.098
-7.869,-15.027,-15.843,-24.575,-12.416,-15.591,-39.047,-42.18
-9.986,2.146,-2.231,-8.224,-14.8,-17.935,-21.922,-25.03
-11.645,17.319,10.843,6.387,-16.662,-19.994,-8.202,-8.891
-12.172,30.524,21.281,18.335,-17.877,-21.058,1.552,3.617
-11.151,40.131,25.684,24.038,-18.326,-20.829,2.735,7.603
-8.661,39.818,18.989,16.864,-17.721,-19.38,-9.248,-1.343
-6.257,35.04,8.546,4.98,-16.876,-17.852,-23.147,-13.268
-5.264,38.213,7.969,3.757,-16.598,-17.491,-24.776,-15.097
-5.352,51.22,19.5,15.822,-16.729,-18.184,-14.431,-5.871
-5.217,62.281,31.791,28.883,-16.515,-18.383,-4.366,4.905
-4.091,56.824,31.026,27.543,-15.116,-16.79,-6.888,4.342
-2.56,35.377,16.495,10.825,-12.638,-14.015,-21.676,-10.156
-1.728,10.139,-1.969,-10.369,-10.414,-11.795,-40.284,-30.138
-2.135,-10.512,-16.67,-27.243,-9.482,-11.02,-53.915,-46.596
-3.601,-18.341,-19.933,-30.554,-9.56,-11.368,-51.794,-49.138
-5.42,-7.909,-7.663,-15.549,-9.879,-12.145,-32.843,-33.84
-6.933,9.836,10.018,5.272,-10.126,-12.837,-13.006,-14.122
-8.25,21.081,21.273,18.088,-10.74,-13.509,-2.022,-1.85
-9.633,29.318,29.653,27.625,-11.996,-14.4,9.326,9.71
-10.366,35.707,37.149,35.553,-12.669,-14.769,19.8,21.153
-9.704,25.952,30.793,26.904,-11.67,-13.66,11.492,16.085
-8.287,4.315,11.795,4.731,-10.001,-11.922,-9.534,-3.222
-7.455,-1.001,4.445,-3.514,-9.203,-11.634,-13.977,-11.524
-7.689,17.572,18.182,11.218,-9.529,-13.147,3.08,-0.058
-7.846,34.327,31.769,25.528,-10.003,-14.232,13.743,11.58
-6.647,30.124,26.126,19.665,-9.811,-13.338,1.54,6.154
-5.007,15.671,9.923,3.196,-9.539,-11.927,-17.24,-7.818
-4.653,0.869,-4.643,-11.688,-9.848,-11.572,-30.812,-19.685
-5.151,-18.765,-19.949,-28.073,-9.857,-11.254,-45.362,-34.417
-4.929,-32.003,-29.187,-38.164,-8.667,-9.911,-52.071,-46.42
-4.192,-20.095,-17.812,-25.772,-7.227,-8.675,-35.328,-38.191
-4.314,5.098,5.262,-0.577,-6.909,-8.614,-8.433,-15.321
-5.241,16.424,16.768,11.676,-7.47,-8.989,3.881,-1.997
-5.718,15.381,15.946,10.433,-7.927,-8.975,4.462,-0.172
-5.137,19.192,17.313,12.175,-7.737,-8.64,7.25,4.522
-3.887,23.447,19.18,14.505,-6.618,-7.928,7.531,8.058
-2.93,19.67,15.242,10.257,-5.186,-6.948,2.009,3.73
-2.931,20.944,15.911,12.246,-4.809,-6.335,4.998,6.149
-3.164,41.827,33.718,34.799,-5.27,-5.906,26.461,29.276
-2.204,69.171,58.594,64.809,-4.474,-4.348,50.369,58.258
0.28,69.261,61.234,68.54,-1.501,-0.89,46.903,60.977
3.421,33.126,32.352,36.843,2.286,3.599,12.844,30.842
6.588,-10.719,-3.584,-3.256,5.937,7.745,-24.501,-7.218
9.492,-36.013,-24.149,-28.242,9.52,10.823,-44.331,-32.325
11.141,-36.04,-25.698,-32.247,11.512,12.049,-42.48,-36.948
10.654,-15.103,-11.686,-16.51,10.175,10.823,-22.061,-20.623
9.101,13.072,10.596,9.225,7.347,8.367,5.963,5.756
8.663,34.876,31.275,31.716,6.333,7.105,28.604,28.097
9.631,45.218,42.736,43.344,7.343,7.705,38.716,39.554
10.462,39.809,39.341,38.807,8.457,8.692,31.383,35.16
10.96,21.374,23.924,21.539,9.158,9.468,11.193,17.142
12.357,9.026,13.112,10.395,10.172,10.812,-3.128,3.087
14.708,7.172,11.086,8.689,11.591,12.666,-9.963,-2.749
16.642,-4.28,0.931,-3.725,12.808,14.054,-26.485,-17.546
16.977,-21.871,-14.415,-22.282,13.003,14.154,-42.817,-34.907
16.184,-15.935,-9.182,-16.945,12.074,13.032,-30.992,-25.937
16.128,15.878,18.14,13.634,11.389,12.139,3.32,7.775
17.278,44.6,41.403,40.065,11.762,12.418,28.377,34.222
18.063,55.058,48.218,48.589,12.123,12.86,33.423,40.489
18.193,53.905,46.322,46.63,12.08,12.928,28.428,37.385
18.989,46.264,40.485,37.539,12.732,13.24,18.115,27.715
20.174,36.499,33.902,25.165,14.146,13.551,7.109,13.056
20.661,27.441,28.445,14.888,15.308,13.621,-0.634,1.835
20.9,13.293,17.504,1.879,15.891,14.189,-10.527,-7.607
20.925,-2.712,3.272,-12.141,15.788,15.002,-19.787,-16.143
19.441,-5.41,0.715,-12.418,14.7,14.797,-14.936,-12.192
16.575,9.474,14.518,5.478,13.096,13.589,5.943,8.189
13.884,32.752,34.843,30.71,11.502,12.237,31.806,33.786
12.107,54.075,50.92,51.548,9.688,11.042,51.091,52.803
11.418,60.61,52.95,57.02,8.098,10.583,51.937,56.209
11.863,44.497,37.053,41.787,7.897,11.339,32.002,40.823
12.746,24.305,19.981,23.412,8.829,12.254,13.7,23.467
13.171,26.575,22.984,25.987,9.331,12.017,19.557,25.606
12.762,45.593,40.437,44.285,8.695,10.618,39.259,41.65
11.661,52.945,48.32,52.155,7.629,8.979,45.285,47.425
10.605,39.058,37.624,40.513,7.158,8.341,31.048,35.109
10.493,23.031,24.023,27.057,7.724,9.418,16.283,22.357
10.937,21.029,22.393,26.991,8.801,11.312,15.467,23.622
10.297,27.274,28.061,34.555,8.994,12.005,21.878,31.746
8.22,30.233,29.588,37.679,7.519,10.712,23.382,34.157
6.621,26.946,23.853,32.785,5.649,9.083,16.771,28.466
7.059,21.544,16.166,25.474,5.123,9.101,8.093,20.959
8.438,16.266,10.615,20.741,5.561,10.364,2.35,16.456
8.442,11.012,8.128,18.764,5.391,10.524,0.73,14.804
6.589,8.576,10.598,19.067,4.476,8.465,3.811,14.238
4.322,9.154,15.774,19.314,3.747,5.639,7.859,12.398
2.953,10.096,19.036,18.028,3.491,3.86,8.537,9.952
2.933,10.46,19.424,16.198,3.552,3.449,6.53,8.495
3.739,11.985,19.34,15.814,3.664,3.626,6.864,8.73
4.115,15.171,20.575,17.423,3.324,3.408,10.498,10.92
3.401,13.385,18.201,14.804,2.287,2.375,9.43,10.639
2.027,6.85,10.954,7.535,0.745,0.886,4.735,7.906
0.901,8.475,9.053,7.02,-0.734,-0.493,8.986,10.209
0.786,20.725,16.899,15.916,-1.275,-1.151,21.835,18.348
1.664,28.144,22.952,20.976,-0.628,-0.55,27.397,23.131
2.806,20.319,16.14,12.873,0.344,1.036,18.173,16.837
3.487,6.359,2.323,0.033,0.881,2.762,3.5,4.144
3.625,-9.84,-13.488,-14.059,1.267,4.399,-16.029,-12.251
3.827,-37.068,-37.49,-38.327,1.882,6.147,-46.971,-37.743
4.087,-57.041,-54.777,-54.916,2.013,7.248,-65.221,-54.322
3.502,-37.269,-36.746,-31.802,0.906,6.54,-41.083,-33.531
2.37,5.354,3.41,13.262,-0.424,4.764,1.165,6.689
2.185,20.148,19.978,28.874,-0.486,4.025,12.369,19.454
3.302,-0.773,3.163,7.599,0.586,4.826,-8.098,0.09
4.765,-19.17,-13.081,-11.771,1.931,5.694,-21.891,-15.738
5.692,-13.876,-8.256,-8.567,3.03,5.519,-13.504,-10.972
5.642,1.912,5.415,3.652,3.252,4.476,2.2,2.102
4.28,14.376,14.417,12.073,1.853,2.647,13.662,12.992
2.033,23.101,19.428,17.81,-0.576,0.199,21.128,21.516
0.818,26.542,21.545,20.247,-1.622,-1.063,22.45,24.288
1.913,19.066,16.58,14.165,-0.141,0.34,14.204,16.126
3.742,6.137,7.926,4.489,1.694,2.654,3.901,4.117
4.062,1.11,6.269,2.886,1.754,3.175,2.171,1.279
3.14,6.816,14.119,11.03,0.963,2.164,9.205,8.635
2.73,13.876,22.321,19.142,1.045,1.649,16.728,14.435
3.099,11.255,19.863,15.655,1.794,1.803,15.425,8.585
