EEG 1,EEG 2,EEG 3,EEG 4,EEG 5,EEG 6,EEG 7,EEG 8
43.866,81.711,47.954,61.343,50.114,59.746,47.084,49.452
39.363,76.571,45.925,62.784,49.368,58.703,54.354,56.782
15.818,56.885,31.726,54.723,36.845,50.978,48.304,48.415
-1.982,41.566,22.248,44.641,26.942,40.556,37.618,35.444
-0.705,40.443,21.999,41.205,25.032,36.209,30.514,29.334
5.371,44.029,21.837,44.371,24.19,39.749,27.653,28.559
2.665,41.377,18.317,45.989,20.48,42.012,25.487,26.76
-5.161,31.187,13.725,39.357,14.837,35.277,19.916,22.522
-11.441,18.446,7.534,26.404,7.156,22.032,10.326,14.516
-12.358,12.315,5.284,17.411,2.931,12.862,5.497,5.323
-6.545,16.299,12.501,18.535,7.553,14.276,11.937,4.262
-1.498,18.942,16.643,21.073,10.638,17.809,17.905,10.068
-0.012,14.596,11.022,19.319,5.948,16.608,14.957,12.196
6.07,14.803,11.089,21.683,6.269,17.889,14.493,10.989
8.984,18.798,16.214,25.419,11.29,19.526,18.532,10.906
-1.786,15.609,11.926,21.227,8.655,14.335,17.849,11.327
-7.339,14.219,8.809,19.879,7.093,14.199,19.247,16.168
2.953,20.993,17.398,26.998,14.802,23.251,27.861,24.604
8.685,20.511,22.252,27.316,17.889,24.651,31.311,24.822
5.194,9.159,16.828,18.679,11.594,16.887,25.924,16.505
9.394,3.147,15.956,16.266,10.352,16.231,24.374,13.71
21.623,11.141,26.737,26.898,21.428,28.142,34.714,23.737
28.932,24.884,38.56,42.65,34.391,42.556,47.845,38.984
27.221,30.126,39.255,48.932,35.22,46.187,48.655,45.343
19.494,22.111,27.318,38.992,22.058,34.814,36.364,37.397
9.724,8.34,11.143,21.405,5.16,16.723,22.105,22.538
1.992,-2.214,3.219,9.989,-3.518,4.677,13.98,10.985
-2.311,-4.863,7.189,11.523,-1.1,5.847,14.133,8.818
-3.062,-0.933,12.297,20.677,3.964,15.187,19.53,14.688
-1.363,1.761,9.871,25.234,3.261,19.751,22.218,20.317
-2.512,-2.61,1.896,19.584,-4.124,13.241,15.916,18.522
-7.044,-9.128,-5.681,10.428,-12.81,2.216,5.545,11.613
-6.595,-9.703,-5.974,6.365,-14.541,-3.902,2.207,8.834
-0.074,-6.677,0.41,7.056,-9.419,-3.231,6.222,12.229
1.576,-7.333,2.261,8.732,-7.447,1.705,8.866,14.649
-5.939,-10.965,-3.658,10.64,-11.068,7.322,7.966,13.868
-12.734,-13.126,-7.014,9.776,-12.055,6.014,8.201,13.17
-9.732,-12.462,-3.192,4.608,-7.521,-3.571,11.487,12.016
0.186,-8.527,1.457,2.066,-3.192,-8.961,13.751,9.899
6.709,-3.457,2.17,6.164,-3.168,-3.359,10.27,9.82
4.58,-1.87,1.127,11.095,-4.928,3.705,4.873,11.465
-0.817,-5.286,1.76,11.522,-4.827,3.676,5.483,11.501
-2.738,-11.947,2.035,8.115,-5,-0.712,8.812,9.191
-0.817,-18.175,-0.565,4.97,-7.721,-2.926,6.68,6.206
-0.01,-21.614,-2.89,4.675,-9.678,-1.598,2.538,4.884
-5.211,-25.638,-4.287,3.524,-10.431,-2.685,2.561,5.125
-12.094,-32.218,-7.709,-2.28,-13.241,-10.128,3.529,4.011
-10.799,-36.02,-8.705,-7.324,-14.619,-16.239,3.349,2.985
-3.387,-34.924,-2.641,-5.549,-10.008,-13.171,6.649,6.134
-2.559,-35.341,1.882,-2.209,-5.561,-7.761,12.716,9.331
-10.022,-40.474,-2.442,-4.748,-7.969,-9.871,13.566,5.617
-14.374,-45.633,-8.524,-11.034,-13.539,-16.809,6.619,-2.715
-11.595,-47.941,-11.229,-15.605,-18.114,-21.586,-1.968,-9.467
-7.658,-48.017,-12.281,-16.056,-20.552,-22.464,-4.596,-10.853
-2.88,-43.625,-7.887,-10.155,-16.345,-17.919,1.556,-3.928
3.698,-36.499,0.729,-1.201,-7.897,-9.99,9.288,6.509
2.091,-37.825,-1.204,-1.65,-9.361,-10.624,6.037,6.745
-10.26,-49.671,-16.06,-13.617,-22.875,-22.91,-8.279,-6.265
-15.22,-55.807,-23.078,-19.347,-29.599,-28.996,-17.001,-16.172
-3.307,-47.03,-10.884,-8.859,-18.792,-18.315,-8.126,-9.827
10.771,-35.742,5.999,4.137,-3.247,-5.389,9.848,4.032
14.436,-33.888,11.482,6.612,2.282,-3.759,19.293,9.648
11.618,-37.619,7.039,2.955,-1.259,-7.553,14.119,5.674
10.132,-39.803,4.064,1.14,-3.981,-8.075,5.394,1.132
11.673,-40.228,5.56,0.419,-2.451,-8.494,4.76,0.744
15.569,-39.815,5.324,-1.537,-1.074,-12.65,9.866,4.13
22.229,-36.39,3.865,-0.495,-0.456,-13.075,12.833,9.62
24.495,-32.067,3.778,4.835,0.211,-5.412,10.716,11.94
12.83,-34.493,-0.831,5.122,-3.669,-1.892,4.802,6.468
-3.811,-43.99,-11.007,-5.316,-12.598,-12.597,-2.531,-3.901
-7.59,-51.106,-17.018,-17.069,-18.79,-26.802,-9.53,-12.209
1.543,-50.06,-13.568,-18.136,-16.87,-28.406,-12.429,-12.631
9.834,-44.998,-6.987,-10.505,-10.393,-19.269,-7.078,-4.964
10.115,-43.072,-5.57,-6.268,-6.77,-14.043,1.71,1.961
7.382,-45.163,-8.466,-9.023,-7.617,-16.897,3.457,-0.029
7.557,-45.647,-9.093,-9.983,-8.034,-17.884,-2.196,-6.375
7.734,-42.359,-7.954,-4.804,-6.614,-12.419,-5.589,-6.96
4.694,-40.341,-10.99,-0.978,-7.618,-8.691,-3.561,-1.896
3.357,-42.91,-15.63,-4.06,-11.004,-12.427,-1.868,0.871
7.331,-45.818,-12.718,-7.926,-10.25,-16.957,-1.314,0.427
10.54,-45.549,-5.341,-6.262,-5.396,-15.103,1.801,1.027
6.18,-46.168,-6.601,-3.754,-5.502,-10.971,3.824,1.109
-1.717,-50.709,-14.5,-6.213,-11.125,-11.41,-0.412,-2.418
-4.683,-55.449,-16.119,-9.953,-13.057,-14.664,-5.963,-5.843
-2.457,-57.139,-12.808,-8.864,-10.413,-14.343,-5.882,-4.234
-0.637,-57.536,-13.756,-5.647,-10.295,-11.456,-3.742,-1.746
-2.828,-59.615,-17.89,-8.52,-13.96,-14.641,-6.118,-5.479
-8.865,-62.635,-19.629,-16.866,-16.612,-24.154,-10.226,-11.971
-11.749,-60.883,-17.149,-19.101,-14.499,-26.786,-10.268,-12.058
-1.197,-50.215,-8.633,-8.249,-6.327,-14.033,-6.713,-3.992
18.069,-37.785,5.505,6.478,5.359,3.365,-2.349,5.045
26.68,-35.689,16.002,10.31,12.764,8.184,1.145,6.784
17.706,-44.209,12.277,1.922,9.189,-0.994,0.843,0.532
4.139,-53.491,-2.351,-8.698,-2.475,-12.908,-5.163,-7.165
-2.206,-58.002,-13.539,-16.28,-12.445,-21.761,-13.466,-12.754
-2.602,-58.542,-14.528,-20.405,-14.783,-26.312,-17.282,-16.897
-0.927,-54.661,-9.239,-17.393,-9.986,-22.09,-13.171,-16.179
3.426,-46.463,-2.238,-7.32,-1.767,-10.633,-5.346,-8.606
8.14,-40.433,2.028,0.227,3.489,-3.191,-0.981,-1.443
6.583,-42.275,-0.825,-1.4,0.826,-5.318,-3.448,-1.805
-0.992,-47.206,-7.171,-6.393,-5.468,-9.509,-8.468,-5.239
-3.927,-46.089,-7.359,-5.092,-5.36,-6.671,-6.155,-0.916
1.918,-40.545,-2.601,0.919,0.031,0.22,1.48,7.239
6.413,-40.935,-3.11,0.615,-0.248,-0.084,-1.072,1.175
4.975,-48.022,-7.364,-7.406,-5.294,-8.709,-13.325,-16.156
2.825,-53.831,-9.354,-14.213,-7.498,-16.347,-20.988,-22.588
-1.905,-57.332,-14.715,-17.748,-10.94,-20.248,-24.838,-18.966
-9.635,-59.793,-22.815,-19.987,-16.921,-22.524,-28.724,-20.37
-7.834,-55.879,-19.248,-16.808,-13.739,-19.752,-24.878,-21.96
7.609,-44.551,-2.097,-6.454,1.315,-9.592,-13.442,-14.51
23.376,-33.864,13.414,4.673,15.634,2.116,-3.632,-4.169
30.33,-29.228,18.698,10.669,21.078,8.281,2.625,1.701
30.713,-29.088,19.571,12.548,21.988,9.678,8.969,6.029
27.604,-30.3,21.624,13.965,23.974,11.73,16.866,13.564
22.902,-31.814,20.447,13.802,23.963,13.573,21.032,19.382
21.826,-33.193,13.206,9.811,18.113,11.241,14.699,16.256
30.44,-31.078,10.009,5.956,13.832,7.431,4.76,9.647
44.06,-23.559,17.786,6.181,18.417,6.169,4.034,9.077
48.703,-15.407,25.037,8.237,24.48,7.036,11.535,14.019
42.538,-12.304,20.643,7.454,22.546,6.718,17.909,16.884
37.779,-14.844,12.401,0.939,15.95,0.711,17.581,9.74
39.852,-18.729,12.638,-7.492,13.367,-8.567,10.317,-4.998
45.668,-18.3,19.487,-9.763,15.952,-11.756,1.523,-12.643
53.666,-13.001,23.436,-4.687,18.66,-6.692,-0.274,-6.343
60.6,-7.762,21.981,1.614,19.188,-0.164,7.423,4.473
59.837,-5.807,18.481,4.934,18.626,3.483,16.225,9.507
53.456,-4.644,17.062,7.788,19.118,7.654,19.272,10.152
56.946,1.282,23.687,14.271,24.731,15.733,20.479,12.691
75.107,12.426,38.566,20.611,35.721,21.191,23.681,15.165
86.662,19.336,48.552,19.265,43.049,16.479,25.809,13.371
75.641,13.078,41.703,10.373,38.27,5.429,23.113,8.798
58.832,1.854,27.47,2.844,28.604,-1.53,19.077,4.347
60.798,3.594,26.867,6.27,30.321,3.42,23.292,6.351
75.103,15.66,39.818,16.171,41.947,14.336,33.562,15.862
75.81,18.116,46.08,17.377,45.691,15.509,34.917,20.182
63.148,10.845,41.91,11.405,40.491,8.838,28.852,17.548
59.994,10.29,41.991,13.122,41.182,10.221,31.621,21.744
66.935,14.22,46.279,19.337,46.233,16.511,39.402,29.809
65.018,8.352,42.277,16.109,42.369,13.399,35.52,27.257
53.858,-3.194,33.973,7.556,33.318,5.145,24.357,18.17
46.55,-7.306,31.604,5.104,29.764,2.69,19.724,13.91
43.573,-5.598,29.084,7.262,28.03,3.953,20.169,14.383
39.429,-7.021,21.125,8.441,23.46,4.3,20.003,15.98
34.481,-12.947,15.356,6.774,20.264,2.88,18.874,14.827
30.751,-17.965,15.323,2.956,20.385,-0.213,16.741,9.556
29.414,-19.312,16.872,-0.077,21.537,-2.548,14.384,5.664
28.917,-21.593,17.189,-3.582,21.33,-5.06,11.452,3.492
25.37,-27.322,14.694,-10.911,17.845,-11.6,6.192,-1.791
19.858,-31.09,9.811,-16.858,12.523,-17.532,0.891,-6.598
17.703,-29.03,7.793,-13.856,10.32,-14.418,-0.58,-5.161
20.141,-22.881,13.437,-4.332,14.523,-4.083,1.988,0.389
21.502,-17.733,21.793,1.612,21.054,2.436,4.687,3.794
15.637,-20.314,21.538,-2.089,21.165,-1.438,3.582,1.317
6.153,-28.572,12.653,-8.971,14.779,-8.487,0.64,-3.431
2.133,-31.299,7.265,-9.3,11.163,-8.774,-1.015,-4.914
5.071,-24.68,11.104,-3.762,14.495,-3.615,-2.327,-3.722
9.648,-15.344,18.911,1.986,20.869,1.209,-1.257,-0.621
10.972,-10.675,23.673,4.741,25.011,3.046,3.983,4.282
7.544,-13.418,22.126,2.433,23.778,0.58,6.023,4.481
2.552,-19.299,15.882,-2.789,18.704,-3.773,0.63,-2.022
0.823,-21.786,10.267,-5.079,14.937,-5.016,-4.426,-5.49
2.801,-20.515,9.947,-3.799,15.141,-3.511,-4.447,-3.296
3.534,-19.073,12.49,-3.208,16.386,-3.246,-4.33,-4.62
-2.592,-19.93,9.234,-5.04,13.497,-4.892,-7.115,-10.877
-15.185,-25.254,-1.525,-9.412,5.511,-8.201,-10.219,-15.09
-27.836,-35.152,-10.667,-17.799,-3.264,-15.295,-11.654,-17.453
-37.707,-46.186,-14.678,-29.924,-10.977,-26.668,-13.829,-24.012
-46.047,-53.935,-19.634,-40.221,-18.925,-36.76,-18.776,-32.857
-49.73,-54.798,-25.435,-41.512,-23.901,-37.978,-21.893,-33.729
-46.418,-49.927,-26.088,-34.724,-22.61,-31.425,-19.584,-25.844
-42.288,-46.852,-23.633,-29.756,-20.016,-27.367,-17.615,-22.608
-44.693,-51.646,-26.216,-33.69,-23.421,-32.362,-22.486,-31.086
-54.207,-62.12,-35.312,-43.191,-32.824,-41.919,-31.532,-42.07
-67.39,-72.457,-45.206,-51.908,-42.891,-49.379,-38.39,-46.675
-80.484,-80.298,-52.896,-59.711,-51.054,-55.853,-42.661,-48.586
-88.774,-84.792,-58.387,-66.542,-56.808,-62.457,-46.053,-52.237
-90.369,-84.461,-60.221,-67.412,-58.378,-63.86,-46.23,-52.957
-88.4,-80.373,-57.711,-61.881,-55.729,-58.812,-42.077,-47.078
-83.051,-74.074,-50.871,-54.621,-49.892,-51.584,-36.02,-38.297
-74.064,-66.951,-42.087,-48.312,-42.893,-44.751,-31.269,-32.193
-69.975,-64.937,-39.635,-46.725,-41.353,-42.593,-32.283,-33.817
-74.613,-70.546,-46.382,-51.858,-47.894,-47.682,-40.212,-43.488
-77.582,-74.937,-52.885,-56.613,-54.354,-52.869,-49.523,-52.848
-73.519,-71.526,-52.642,-55.105,-54.522,-52.035,-55.354,-55.446
-69.206,-65.607,-49.544,-51.022,-51.565,-48.08,-56.55,-54.008
-69.353,-63.584,-48.607,-48.897,-49.981,-44.868,-53.031,-52.046
-73.926,-65.026,-50.657,-49.66,-50.644,-44.807,-47.258,-50.227
-80.843,-65.942,-53.037,-51.599,-51.6,-47.456,-42.543,-48.12
-83.885,-63.673,-53.123,-50.988,-51.07,-47.507,-40.656,-44.665
-79.577,-59.793,-51.878,-48.899,-50.497,-45.086,-43.343,-42.775
-73.498,-57.5,-51.417,-50.554,-51.69,-46.595,-48.989,-46.49
-72.621,-57.851,-52.472,-55.243,-54.197,-51.18,-52.201,-52.422
-77.779,-61.225,-56.309,-58.558,-58.146,-53.534,-51.66,-54.869
-84.053,-65.916,-62.255,-60.283,-62.842,-54.935,-50.209,-54.727
-84.679,-65.471,-63.988,-60.042,-63.33,-56.471,-48.078,-54.683
-79.217,-57.77,-58.908,-55.306,-58.21,-53.257,-45.058,-52.926
-77.057,-53.011,-57.388,-51.696,-57.28,-48.325,-46.593,-50.493
-85.801,-60.951,-68.398,-59.919,-68.702,-54.264,-57.8,-56.541
-99.245,-74.914,-82.051,-75.802,-83.344,-69.578,-72.31,-73.835
-104.098,-79.631,-82.642,-81.765,-85.822,-76.129,-76.895,-86.298
-97.878,-72.103,-72.711,-72.886,-76.736,-67.872,-69.248,-78.786
-92.087,-64.721,-68.528,-63.125,-70.848,-58.498,-62.327,-62.193
-95.001,-67.445,-75.607,-63.381,-75.561,-58.126,-66.334,-57.495
-101.329,-75.854,-83.902,-70.243,-83.702,-63.451,-76.04,-66.624
-102.786,-80.432,-86.743,-76.36,-87.956,-68.651,-81.282,-76.734
-98.66,-78.601,-86.335,-77.118,-87.916,-69.068,-79.33,-78.588
-92.556,-72.549,-82.288,-70.873,-83.341,-61.981,-73.523,-73.052
-87.527,-65.426,-75.368,-64.236,-76.207,-55.839,-68.119,-67.649
-85.754,-62.192,-71.775,-65.896,-72.448,-60.954,-65.058,-66.703
-86.627,-64.851,-71.564,-71.201,-72.614,-69.159,-63.914,-67.796
-86.189,-67.515,-70.355,-69.612,-72.188,-67.215,-64.056,-67.816
-81.581,-62.687,-67.389,-60.634,-68.23,-57.511,-62.33,-64.125
-74.15,-52.225,-60.66,-49.994,-59.726,-47.104,-56.126,-56.418
-69.18,-46.85,-52.1,-43.177,-51.877,-38.648,-51.86,-51.813
-72.001,-51.961,-53.353,-45.339,-54.434,-38.234,-54.946,-54.633
-79.101,-59.481,-64.836,-53.503,-64.408,-47.08,-56.689,-55.594
-79.575,-58.256,-68.152,-54.259,-65.85,-50.524,-48.558,-46.824
-71.694,-49.229,-56.633,-43.933,-55.493,-40.699,-38.225,-37.061
-67.463,-44.77,-48.043,-37.652,-49.072,-33.104,-37.753,-37.972
-73.818,-50.208,-53.883,-43.748,-54.851,-38.706,-46.152,-46.751
-80.625,-55.573,-60.588,-49.621,-60.626,-44.807,-52.735,-52.56
-79.106,-54.466,-55.788,-45.604,-56.535,-39.706,-51.699,-51.103
-76.99,-54.019,-48.841,-39.957,-50.51,-31.944,-47.003,-46.07
-79.86,-55.712,-49.788,-38.968,-50.075,-30.719,-43.319,-41.178
-79.077,-50.636,-52.232,-36.765,-49.72,-30.494,-39.476,-36.573
-71.227,-40.889,-49.649,-34.02,-45.836,-29.252,-35.91,-34.655
-64.657,-37.673,-46.982,-38.261,-43.879,-33.821,-37.017,-39.807
-61.315,-38.448,-46.861,-43.392,-44.065,-39.264,-39.49,-45.925
-55.311,-32.839,-42.737,-37.348,-38.533,-33.35,-34.079,-41.153
-48.54,-23.971,-33.684,-24.792,-27.894,-20.215,-23.94,-29.782
-49.552,-22.457,-30.882,-20.559,-24.563,-15.525,-23.164,-26.88
-56.912,-26.777,-38.939,-26.365,-32.176,-21.845,-32.494,-31.801
-58.266,-25.455,-44.815,-29.407,-37.138,-25.666,-36.427,-31.011
-49.47,-15.427,-38.22,-22.897,-30.455,-19.099,-28.648,-22.662
-39.473,-5.773,-26.476,-14.42,-20.353,-9.97,-19.375,-16.246
-35.688,-4.083,-19.466,-12.454,-15.974,-7.414,-16.258,-15.218
-37.844,-7.903,-17.99,-16.029,-16.56,-10.417,-17.715,-17.703
-42.707,-11.213,-21.794,-20.204,-20.477,-13.942,-23.05,-23.6
-48.218,-14.566,-32.228,-25.048,-29.334,-18.214,-32.644,-29.715
-52.078,-19.898,-42.457,-31.64,-38.514,-24.557,-40.585,-30.562
-51.178,-21.923,-43.246,-35.101,-40.013,-27.958,-41.663,-28.247
-48.177,-19.179,-39.983,-35.353,-38.031,-28.219,-42.288,-31.352
-49.096,-19.461,-42.655,-41.365,-41.781,-35.247,-49.148,-42.781
-52.436,-23.158,-46.848,-51.056,-46.946,-46.789,-54.851,-53.015
-51.554,-21.053,-43.651,-50.284,-43.976,-46.397,-50.706,-51.178
-46.173,-13.951,-36.597,-39.815,-36.463,-34.26,-43.129,-42.62
-42.284,-12.215,-34.781,-35.015,-34.505,-28.484,-41.943,-40.38
-41.105,-14.759,-36.896,-37.475,-36.676,-32.777,-42.762,-41.87
-37.594,-11.392,-33.746,-34.373,-33.357,-32.256,-36.569,-36.246
-30.703,-2.552,-23.864,-23.376,-23.386,-21.577,-25.905,-25.98
-26.453,1.953,-16.867,-15.501,-15.843,-12.689,-18.858,-20.422
-29.299,-1.803,-19.8,-16.538,-17.306,-13.591,-19.311,-21.104
-36.282,-9.149,-27.304,-21.15,-23.909,-18.197,-26.012,-24.408
-42.124,-15.885,-30.461,-23.585,-27.799,-19.628,-31.72,-26.776
-46.681,-22.998,-30.507,-25.775,-28.967,-21.309,-31.854,-27.313
-51.236,-30.21,-33.557,-31.013,-32.454,-27.706,-31.942,-29.277
-50.187,-30.986,-35.129,-33.382,-34.511,-31.161,-33.449,-31.878
-40.143,-21.401,-27.703,-24.951,-27.97,-22.049,-29.079,-28.067
-32.244,-9.01,-19.16,-11.582,-19.21,-7.557,-20.546,-18.731
-37.698,-4.557,-21.957,-7.015,-19.899,-3.774,-18.909,-14.685
-49.303,-8.421,-30.885,-13.646,-27.02,-13.203,-25.167,-19.114
-52.035,-11.471,-30.714,-20.345,-27.822,-22.559,-28.385,-23.364
-44.337,-8.064,-21.534,-19.065,-21.246,-21.806,-25.772,-24.299
-36.934,-2.398,-17.838,-15.776,-18.738,-17.696,-27.249,-28.133
-34.935,0.782,-21.678,-17.277,-22.036,-19.565,-33.455,-33.253
-34.526,3.423,-21.227,-17.994,-20.781,-21.9,-32.531,-31.062
-33.835,8.137,-15.016,-11.808,-13.326,-16.245,-22.496,-22.638
-33.28,14.246,-10.122,-2.343,-6.723,-5.477,-12.623,-15.328
-31.359,19.432,-6.83,3.568,-3.078,1.803,-7.809,-11.853
-29.882,19.422,-5.406,1.847,-2.894,0.189,-8.006,-12.617
-34.058,11.789,-10.781,-5.806,-8.761,-7.301,-13.631,-17.288
-42.263,2.974,-20.636,-11.492,-17.23,-11.282,-21.877,-21.253
-45.695,2.822,-24.149,-9.185,-19.042,-7.128,-24.395,-19.091
-42.218,9.667,-18.71,-3.711,-13.163,-1.775,-18.703,-13.8
-38.937,13.638,-14.121,-3.772,-8.98,-3.256,-14.644,-13.997
-36.89,15.49,-13.158,-5.664,-8.306,-5.63,-16.57,-17.59
-30.615,22.523,-8.178,0.299,-3.175,1.036,-14.557,-12.782
-23.363,30.096,-0.752,9.561,5.203,10.516,-5.494,-0.385
-23.102,28.896,-0.366,9.73,6.958,9.721,-1.484,4.204
-28.415,22.339,-6.683,2.022,1.177,0.853,-8.015,-4.168
-30.336,22.384,-9.611,0.051,-2.065,-1.45,-12.412,-10.672
-23.321,33.156,-2.442,9.997,4.728,8.952,-2.949,-2.543
-12.592,44.448,9.12,21.731,15.583,21.513,11.749,10.867
-9.937,44.59,11.395,22.732,17.077,23.171,14.515,13.471
-17.394,37.137,1.639,15.197,7.797,15.272,5.434,6.53
-23.11,33.671,-7.053,9.352,0.188,8.113,-1.878,-0.077
-20.935,34.24,-8.02,5.123,-0.952,2.58,-4.325,-5.013
-16.264,33.838,-6.407,-0.346,-0.57,-3.273,-6.565,-8.583
-8.939,38.751,-1.289,1.882,3.527,0.103,-3.941,-4.537
3.894,53.095,9.839,15.641,14.426,15.475,8.327,9.624
13.551,65.122,18.36,27.403,23.863,27.665,21.034,23.993
11.22,64.964,16.215,26.55,23.624,26.309,22.945,27.13
2.721,58.447,8.587,17.885,17.362,16.836,16.136,19.555
0.095,56.023,7.001,12.448,15.115,10.716,11.188,11.258
6.383,60.48,14.255,16.094,20.733,15.246,13.863,10.13
13.969,67.406,21.12,23.413,27.265,24.919,19.757,13.994
16.059,72.346,20.842,25.524,28.027,28.01,21.633,16.495
14.081,74.756,17.553,22.925,25.797,24,19.183,17.337
11.979,75.222,15.569,20.278,24.618,20.317,15.858,16.383
10.503,73.768,13.762,16.511,23.229,17.439,11.626,9.303
10.792,73.549,14.374,12.418,23.05,14.223,8.784,0.412
15.87,79.032,21.843,14.671,28.901,16.104,14.051,1.84
24.18,87.978,30.146,22.935,36.74,23.895,24.635,13.458
29.151,93.703,28.566,28.432,36.777,29.463,28.385,21.683
27.282,93.206,18.978,27.089,29.169,27.967,21.885,18.827
20.842,87.389,11.645,22.196,22.108,22.396,12.929,10.468
14.276,79.707,9.75,18.044,19.207,17.568,7.936,4.315
12.226,75.791,11.349,17.641,19.75,17.111,7.679,1.834
18.779,80.167,19.349,23.68,25.927,24.225,12.821,4.92
31.152,91.029,32.96,34.075,36.991,35.967,22.849,15.626
37.11,98.43,38.705,39.683,42.082,41.387,29.746,24.963
30.308,94.268,29.152,35.511,34.367,35.641,26.248,22.403
19.971,83.196,16.315,28.035,23.347,26.794,18.811,14.532
17.785,77.802,14.951,28.342,22.823,26.824,20.814,17.655
25.68,83.608,25.359,39.395,33.721,38.801,33.282,32.774
36.456,93.209,35.336,50.304,43.326,51.019,41.826,41.683
41.612,97.541,34.924,50.582,41.877,52.092,37.652,34.962
39.838,95.034,27.265,43.023,34.152,44.89,29.578,25.154
35.806,88.852,22.316,35.553,29.861,37.2,27.394,23.412
32.385,83.099,22.789,32.022,30.228,32.506,27.937,25.267
30.593,80.085,23.878,33.788,30.753,33.53,26.072,25.568
32.329,79.854,24.239,40.48,31.007,41.47,25.35,27.512
35.544,81.162,25.314,46.158,32.76,48.644,28.981,31.658
34.944,80.129,24.027,43.633,32.985,45.555,31.377,31.49
29.979,73.433,16.951,34.763,27.32,35.846,26.486,24.556
25.769,65.663,8.029,28.127,18.603,30.168,18.333,17.545
28.491,66.007,6.824,28.632,16.27,31.285,16.817,17.392
38.046,74.913,16.627,34.743,24.175,36.276,24.085,23.516
45.48,82.138,27.098,41.529,33.59,42.799,31.787,30.692
46.292,82.455,29.629,46.15,37.121,49.177,35.315,36.79
47.027,81.645,30.513,49.464,39.066,54.153,38.319,41.738
49.452,81.55,32.857,48.607,40.182,53.39,38.294,40.205
46.91,76.818,28.026,39.77,33.458,43.611,29.367,29.256
40.126,68.406,17.112,29.539,22.388,32.725,18.81,18.482
36.68,63.335,12.228,27.742,18.598,31.385,17.849,17.664
37.039,63.106,15.323,33.203,22.992,37.93,25.064,25.429
35.218,62.607,18.084,37.442,27.143,42.832,32.255,35.3
30.126,58.95,16.396,35.923,26.167,41.056,33.471,38.607
26.532,55.313,12.745,30.123,21.581,33.927,27.156,29.46
27.029,56.248,11.103,25.939,18.419,28.488,20.255,17.88
30.483,61.9,13.302,28.472,20.49,31.674,21.475,18.491
34.236,66.415,16.938,32.121,24.894,35.945,27.206,25.553
34.937,65.161,18.502,29.409,26.212,31.22,28.473,25.505
32.423,61.656,17.199,26.658,24.116,26.953,25.745,22.334
30.059,59.272,14.032,28.637,20.878,30.18,23.255,24.696
30.037,55.82,12.701,27.224,19.171,29.231,21.775,27.999
31.762,53.549,16.502,22.787,22.007,23.463,22.91,27.319
32.299,56.543,20.337,24.764,26.06,25.735,26.101,26.249
30.81,60.008,18.564,29.198,24.977,32.027,26.486,25.631
31.165,59.237,15.877,26.355,21.422,28.899,24.072,22.119
34.781,57.96,17.619,21.084,22.191,21.455,23.989,18.35
37.971,59.517,20.956,24.343,26.598,25.243,26.874,20.246
36.711,61.059,20.287,31.846,28.019,35.922,27.538,25.052
30.794,59.211,14.567,29.605,23.399,33.719,23.549,25.179
26.405,56.344,10.141,20.701,18.727,21.196,20.964,23.266
29.232,57.121,13.661,21.755,21.163,20.899,25.709,27.349
35.803,60.662,21.847,32.969,27.629,34.566,32.913,34.275
39.971,62.993,25.504,40.294,29.89,44.289,34.578,36.376
42.554,64.544,24.019,40.797,28.404,45.05,32.682,36.371
46.68,68.052,25.157,41.95,30.089,45.005,33.915,39.399
48.163,70.26,27.674,43.294,32.989,44.751,35.926,40.437
41.924,65.504,22.825,38.251,29.073,38.692,31.689,33.871
35.208,58.8,15.806,31.231,22.76,31.857,25.596,27.45
37.43,59.864,19.365,32.612,25.125,34.278,27.951,30.814
44.626,67.718,30.116,40.525,33.777,43.008,36.666,39.3
49.601,75.7,36.182,46.661,39.218,49.098,42.328,44.131
52.425,80.236,36.521,49.622,40.587,51.618,43.319,45.637
54.602,80.544,37.721,51.351,42.458,52.832,44.041,46.744
56.651,80.212,42.819,53.299,46.524,54.094,46.667,46.517
58.382,82.964,47.396,56.453,49.911,57.13,49.306,45.17
57.716,85.761,45.546,58.157,48.809,59.445,49.775,46.243
55.88,85.056,41.062,56.272,45.328,57.744,49.856,51.05
55.701,81.816,40.544,52.999,43.575,54.045,50.792,54.896
52.967,76.676,38.541,49.033,40.237,49.874,48.203,51.539
44.637,70.226,29.953,44.037,32.479,45.531,40.379,42.468
36.385,64.038,22.036,39.256,25.185,42.243,32.461,35.55
32.1,58.594,19.294,34.702,21.394,38.777,27.413,32.939
33.27,57.202,21.251,33.831,22.152,38.164,26.489,32.06
40.061,61.114,29.189,39.757,28.813,44.562,31.848,33.419
40.991,59.648,33.771,41.769,32.053,46.477,36.18,34.286
29.825,48.731,25.341,33.364,23.763,36.442,31.234,30.941
22.688,44.286,16.98,30.075,16.599,32.194,26.774,30.463
28.492,52.214,22.245,39.508,22.021,42.787,32.662,37.857
34.132,56.582,31.829,46.125,30.545,50.314,39.572,44.159
31.069,49.762,32.992,40.739,31.123,43.63,38.4,42.964
24.492,40.308,27.108,31.199,25.617,32.082,33.607,37.918
20.482,34.016,21.243,24.73,20.011,24.885,30.336,31.768
20.883,30.198,18.67,22.57,17.358,23.644,28.932,26.398
24.583,28.959,20.587,26.389,19.169,30.263,30.176,26.925
28.985,30.719,25.658,34.451,23.811,41.828,33.539,33.332
30.059,31.395,27.556,36.575,25.207,44.353,34.898,36.508
25.606,26.693,23.981,28.178,21.57,32.27,33.161,31.974
21.618,21.455,21.694,20.695,19.384,21.6,32.928,28.633
24.446,21.959,22.636,22.81,20.754,24.736,34.187,32.223
31.487,25.855,22.948,28.531,21.829,33.542,32.235,34.918
37.975,29.794,25.832,32.196,24.543,37.985,30.658,33.239
38.206,30.764,30.989,32.981,28.914,36.596,33.951,33.211
28.219,24.243,29.685,29.299,27.59,30.713,35.653,34.573
16.078,13.307,22.295,23.713,20.614,24.822,31.631,33.113
12.328,6.89,17.511,22.449,16.57,24.54,28.901,31.865
17.135,8.401,19.888,26.289,20.187,29.095,32.562,34.313
25.03,13.002,27.795,29.295,28.238,31.402,37.557,36.164
30.027,13.835,33.981,27.719,33.041,28.206,37.269,33.181
27.827,9.679,31.007,24.871,30.017,24.555,33.286,29.432
21.064,4.935,22.473,24.751,23.802,25.162,32.471,30.427
16.877,2.628,19.085,26.422,21.469,28.313,35.404,33.388
17.994,2.483,22.951,27.203,22.861,30.067,36.452,33.422
21.849,4.538,27.796,26.667,24.818,28.616,35.355,32.623
24.386,7.522,28.336,24.5,25.845,23.4,35.171,33.209
25.329,8.881,26.889,21.253,26.489,17.249,35.094,33.312
30.283,10.094,31.615,21.386,30.01,17.273,34.688,32.965
39.013,12.773,40.502,26.479,35.133,24.757,34.669,32.863
42.116,13.916,41.744,31.024,35.454,31.367,34.309,32.437
37.467,12.174,33.39,30.361,30.145,30.354,33.462,31.984
32.988,9.648,24.808,26.292,24.417,24.58,32.745,31.179
32.64,6.653,23.167,24.426,22.076,22.859,31.96,29.626
31.9,0.983,24.597,25.372,20.747,27.013,28.729,27.148
25.757,-8.471,20.683,21.066,15.358,25.486,21.506,22.328
18.821,-16.623,15.155,10.187,9.151,13.551,15.484,16.749
19.178,-16.749,16.557,4.981,8.989,6.031,15.602,14.874
23.143,-12.698,19.036,9.212,10.732,10.391,16.968,16.231
23.212,-13.338,15.139,11.942,8.012,14.201,14.8,16.525
22.901,-17.702,12.756,10.334,6.226,12.645,13.863,16.274
27.89,-18.671,20.06,12.161,11.902,14.826,18.673,19.229
32.409,-15.841,28.835,16.761,19.242,20.53,25.133,24.008
27.654,-14.947,26,17.309,18.506,21.935,26.958,26.469
18.177,-17.459,14.316,15.435,11.185,20.989,24.02,25.617
14.793,-19.461,7.209,15.957,6.12,22.309,20.41,21.119
18.28,-18.611,9.109,17.318,6.583,22.643,19.116,15.611
22.808,-16.738,15.61,16.315,10.601,18.9,21.032,15.084
23.515,-18.897,20.121,11.765,13.73,11.884,22.714,16.787
19.897,-25.982,17.308,5.776,11.962,4.456,20.198,14.47
19.313,-28.913,13.483,6.297,10.576,4.58,18.436,14.058
25.858,-23.04,19.07,16.407,16.481,15.612,22.804,21.073
31.973,-17.606,29.381,26.579,24.322,27.138,28.064,27.581
33.329,-18.125,34.22,30.015,27.196,31.172,30.389,28.764
35.476,-18.072,35.032,30.568,27.91,31.799,33.913,31.069
40.545,-14.266,35.488,30.914,28.738,32.441,38.302,36.711
40.951,-14.023,29.818,28.815,24.277,31.818,36.341,38.647
30.176,-23.241,15.295,23.181,11.989,29.008,25.869,32.849
16.218,-35.049,3.592,15.581,0.694,22.557,15.354,25.432
12.6,-38.53,4.237,9.093,-0.828,13.178,13.356,23.914
16.37,-35.351,9.788,7.001,3.111,8.001,16.546,26.59
15.409,-35.049,11.104,9.189,4.226,11.255,16.674,27.165
12.674,-38.228,12.195,11.542,3.884,16.316,13.822,24.352
17.852,-37.664,17.299,12.67,6.579,18.198,13.191,21.712
24.755,-32.663,20.743,16.233,10.001,22.396,15.548,23.5
22.719,-30.832,18.372,21.127,9.605,29.551,16.82,29.04
15.376,-35.738,11.752,18.883,4.287,28.157,13.523,29.441
10.146,-42.315,4.376,9.144,-2.404,16.265,7.986,20.465
6.954,-46.552,1.301,2.126,-5.3,7.443,4.596,11.054
3.932,-49.948,1.833,0.782,-5.898,6.519,0.854,6.277
1.571,-52.887,0.32,-0.526,-9.062,6.006,-6.963,0.627
0.286,-54.719,-2.522,-4.356,-12.911,2.073,-13.499,-6.255
-1.547,-57.411,-4.384,-9.95,-14.393,-4.575,-12.581,-8.989
-5.332,-60.104,-7.697,-14.691,-15.398,-10.92,-6.828,-7.388
-7.996,-57.976,-9.779,-13.429,-14.838,-10.365,-0.205,-3.297
-5.415,-51.074,-4.134,-4.832,-8.792,-0.935,6.935,2.896
0.994,-44.654,7.082,5.588,0.369,10.614,12.989,8.174
7.137,-40.17,15.812,11.828,6.237,17.112,15.052,9.502
11.172,-35.693,17.399,11.335,5.83,15.735,13.188,7.702
13.497,-32.254,13.904,6.776,2.021,10.149,11.627,5.763
14.015,-31.999,10.286,3.722,-0.509,7.338,13.192,5.722
10.881,-34.131,7.687,2.34,-1.548,6.379,14.494,6.429
7.142,-35.363,7.352,0.75,-1.549,3.804,13.288,6.984
9.724,-32.719,11.96,2.171,1.665,4.288,13.544,9.526
14.592,-27.096,15.66,6.619,5.172,9.258,16.595,13.769
11.36,-22.863,11.215,7.177,3.22,10.527,17.57,14.658
1.901,-23.948,3.294,0.967,-2.886,4.38,13.406,9.447
-5.501,-31.058,-2.26,-7.973,-9.332,-4.167,5.48,1.3
-9.286,-39.439,-6.764,-14.883,-15.061,-9.75,-3.084,-4.915
-10.28,-42.248,-9.557,-16.835,-17.443,-10.029,-7.516,-6.047
-7.225,-38.568,-6.976,-15.306,-14.091,-7.878,-5.143,-3.144
-0.917,-33.244,-1.075,-14.971,-8.845,-8.197,-0.724,-0.901
4.16,-29.798,0.754,-15.856,-8.135,-8.756,-1.641,-1.944
4.817,-27.187,-3.559,-13.665,-12.31,-4.094,-8.172,-5.482
0.893,-26.265,-10.185,-12.601,-18.425,-0.71,-16.049,-12.11
-7.945,-33.686,-19.534,-26.311,-28.4,-15.367,-25.485,-24.202
-17.49,-46.723,-29.545,-50.23,-39.71,-43.305,-34.496,-36.213
-18.459,-49.623,-29.548,-57.022,-40.389,-52.776,-33.89,-35.591
-11.544,-39.965,-20.459,-41.465,-30.233,-36.35,-24.251,-24.113
-6.976,-32.169,-15.675,-27.61,-22.911,-21.121,-17.801,-17.004
-7.275,-31.071,-16.614,-24.267,-22.194,-17.495,-17.888,-17.064
-8.865,-31.308,-17.726,-22.789,-23.422,-15.13,-19.635,-17.275
-11.4,-33.103,-20.521,-24.531,-26.538,-15.777,-22.415,-18.669
-13.349,-37.063,-24.127,-32.176,-30.256,-24.41,-25.577,-22.57
-12.373,-38.55,-25.97,-37.436,-32.069,-32.214,-26.819,-23.613
-12.196,-36.123,-29.777,-35.715,-34.696,-31.877,-28.149,-21.507
-16.342,-32.938,-35.387,-31.66,-38.632,-27.126,-30.508,-21.386
-20.603,-30.966,-36.326,-28.534,-39.416,-22.327,-30.243,-22.807
-21.252,-31.402,-32.054,-27.144,-36.678,-19.737,-27.111,-22.53
-20.697,-34.468,-27.331,-27.902,-33.628,-20.628,-23.988,-20.62
-18.865,-34.767,-23.207,-25.513,-29.736,-18.859,-19.435,-15.6
-12.872,-27.24,-18.881,-15.842,-23.897,-9.191,-12.281,-6.723
-7.524,-18.553,-17.632,-8.809,-20.81,-2.763,-8.437,-1.794
-10.657,-19.109,-22.338,-15.113,-24.808,-11.218,-12.699,-7.261
-19.591,-27.187,-28.512,-27.919,-31.662,-26.038,-20.877,-16.838
-24.528,-32.911,-29.859,-33.973,-34.279,-32.686,-26.075,-20.781
-23.361,-32.286,-28.145,-30.542,-32.596,-28.811,-26.53,-17.805
-22.59,-28.531,-29.098,-23.489,-31.57,-20.753,-25.534,-13.514
-23.782,-24.425,-30.672,-18.815,-31.778,-15.292,-26.479,-13.025
-21.569,-20.329,-26.503,-17.971,-29.334,-14.577,-28.633,-16.022
-15.199,-16.559,-19.234,-17.706,-24.344,-14.625,-28.707,-17.97
-10.327,-13.67,-16.521,-15.985,-21.04,-12.806,-26.313,-16.876
-9.73,-11.737,-18.659,-15.078,-21.113,-11.937,-25.12,-15.616
-11.837,-10.313,-22.495,-16.201,-23.749,-12.945,-27.694,-16.443
-16.862,-10.032,-27.996,-20.072,-28.695,-16.489,-33.123,-20.066
-25.317,-13.357,-34.206,-31.599,-35.464,-29.506,-40.587,-28.96
-31.853,-18.413,-36.761,-48,-40.609,-49.344,-47.661,-40.272
-30.047,-17.047,-34.042,-52.809,-39.898,-55.751,-47.958,-42.658
-23.32,-7.919,-31.586,-40.811,-35.535,-42.035,-40.847,-33.536
-18.52,0.647,-31.29,-26.692,-32.006,-26.123,-33.692,-24.152
-14.1,4.884,-26.799,-19.429,-27.785,-18.954,-29.574,-20.335
-9.031,7.038,-20.01,-16.344,-23.131,-16.816,-26.975,-18.742
-7.915,7.691,-19.081,-16.536,-22.219,-18.217,-26.004,-18.358
-10.668,6.026,-21.209,-20.141,-23.538,-22.953,-25.925,-19.943
-12.508,2.905,-20.502,-24.093,-23.341,-27.164,-25.49,-22.365
-9.619,3.266,-16.739,-22.465,-20.103,-24.893,-23.321,-22.381
-2.281,10.92,-10.132,-11.507,-12.551,-13.121,-16.305,-16.023
3.038,19.906,-4.333,0.626,-4.701,-0.909,-6.982,-6.804
1.751,21.66,-4.396,0.926,-3.61,-1.576,-4.58,-5.064
-1.934,18.279,-6.742,-8.787,-7.462,-12.883,-10.353,-11.848
-1.978,18.305,-4.814,-14.545,-8.362,-20.226,-15.182,-16.949
1.089,22.352,-0.701,-11.546,-5.594,-17.501,-15.227,-16.131
2.56,24.091,-0.567,-8.203,-5.013,-12.68,-15.448,-15.031
1.683,23.82,-3.562,-10.152,-7.633,-13.642,-17.543,-16.673
0.658,26.551,-4.828,-13.56,-9.355,-17.915,-17.888,-18.375
-1.033,30.475,-4.652,-14.481,-9.53,-19.28,-16.339,-18.607
-3.885,30.732,-6.189,-15.712,-10.855,-19.253,-16.697,-18.973
-4.997,28.664,-8.003,-20.368,-12.736,-23.337,-18.856,-20.202
-0.339,30.383,-4.304,-21.953,-10.244,-25.937,-17.251,-18.685
10.326,38.558,4.57,-12.001,-2.657,-15.719,-9.845,-10.886
20.057,47.644,9.135,3.171,2.466,2.211,-2.986,-0.96
20.793,49.141,4.9,7.051,-0.238,7.861,-3.269,1.755
13.149,41.19,-2.024,-4.627,-7.084,-5.866,-9.393,-5.299
5.229,30.383,-4.297,-16.941,-11.01,-21.207,-14.415,-13.117
2.353,23.408,-1.216,-17.93,-9.873,-22.554,-15.145,-14.672
2.099,20.243,0.499,-15.435,-8.847,-19.412,-15.792,-15.874
0.301,17.645,-2.836,-19.452,-11.426,-24.353,-19,-22.867
-1.921,15.221,-4.83,-24.231,-12.862,-29.796,-20.522,-29.317
-1.486,14.477,-2.343,-21.733,-10.165,-25.908,-18.019,-27.445
0.24,14.946,-1.314,-15.49,-7.379,-18.164,-14.739,-20.574
1.902,15.773,-0.512,-10.684,-4.299,-13.484,-10.556,-14.673
6.355,18.216,6.765,-6.894,2.821,-11.145,-3.137,-9.369
12.817,21.554,14.63,-4.878,9.03,-11.265,2.521,-5.171
15.818,22.329,14.486,-5.728,8.811,-13.631,1.538,-5.956
15.532,21.479,11.958,-5.368,8.003,-13.292,0.196,-8.559
15.432,21.684,13.069,-1.889,10.518,-9.568,3.291,-6.323
13.875,20.184,13.347,0.471,10.551,-7.374,4.283,-2.541
10.529,16.056,11.886,1.618,7.97,-5.504,1.086,-2.307
10.776,14.79,13.945,5.121,9.481,-0.773,0.953,-2.039
17.261,19.901,20.005,9.224,15.717,2.295,6.933,2.409
25.322,27.525,26.032,10.447,21.955,0.185,14.727,9.127
29.438,31.531,28.765,10.789,24.902,-1.306,19.027,13.588
30.077,32.085,28.425,15.518,25.2,5.233,19.186,15.022
27.884,30.495,25.623,20.745,22.918,13.429,16.221,13.379
19.603,22.228,18.103,14.116,14.886,7.234,8.445,5.157
9.956,10.312,9.663,-0.227,5.544,-9.136,0.234,-4.767
10.884,8.544,10.694,-1.497,6.642,-11.528,1.844,-3.103
22.255,19.618,21.264,14.368,18.451,5.162,13.208,11.229
32.145,30.881,31.087,30.613,29.777,21.823,24.239,26.014
33.262,32.865,34.24,35.17,33.589,25.446,27.77,31.139
25.548,25.935,29.817,28.027,28.906,17.552,21.949,23.188
14.195,15.8,21.114,16.142,19.977,5.803,11.531,8.748
8,9.288,16.086,9.096,15.372,-0.889,6.294,1.811
8.555,7.594,16.408,9.074,16.515,-0.923,8.396,5.382
10.536,6.856,17.3,10.329,17.737,-0.248,11.154,9.295
14.017,6.411,18.843,10.572,18.616,-0.725,11.584,8.881
20.316,7.6,22.259,11.642,21.269,0.034,11.974,7.89
23.812,8.339,23.416,12.128,22.598,0.206,12.603,7.655
20.97,6.662,19.951,8.949,19.723,-3.683,10.766,5.962
15.643,3.636,14.54,2.971,14.447,-9.923,4.793,2.16
11.794,1.034,9.312,-1.182,9.62,-12.952,-2.373,-0.977
11.317,0.822,5.406,-0.747,7.347,-10.993,-5.285,-0.984
14.453,2.871,4.68,0.908,8.2,-9.322,-3.473,-0.281
18.471,4.437,8.164,1.232,11.321,-10.046,-0.204,-0.536
20.379,4.115,13.781,3.56,15.423,-8.001,3.733,1.586
18.326,0.35,15.517,7.226,16.695,-3.873,6.085,5.129
13.712,-6.669,11.736,7.473,13.662,-3.546,3.946,4.929
12.971,-10.001,10.521,6.426,12.977,-5.333,1.436,2.659
17.736,-6.504,14.913,7.64,17.615,-5.334,2.222,2.544
19.696,-4.622,15.887,8.166,19.787,-5.767,2.129,2.072
14.419,-10.012,10.487,6.157,16.094,-7.874,-0.691,-1.317
8.133,-17.158,6.97,4.186,12.664,-8.876,-2.296,-3.786
5.399,-21.284,7.124,2.314,11.148,-9.235,-2.051,-2.767
3.249,-24.916,4.207,-1.799,7.216,-12.585,-2.624,-1.905
0.213,-29.595,-2.061,-6.888,1.605,-18.203,-4.328,-4.711
0.011,-31.389,-4.423,-8.649,-0.059,-20.661,-5.319,-8.782
3.445,-28.688,-0.451,-6.359,3.67,-18.535,-3.822,-9.15
5.478,-26.551,4.237,-4.533,8.113,-17.168,-0.443,-5.921
4.056,-27.94,5.667,-5.321,9.731,-18.667,1.695,-3.385
3.604,-28.63,6.088,-4.865,10.255,-17.904,1.266,-2.529
7.311,-24.872,8.256,-0.35,12.525,-12.312,1.415,-0.128
13.049,-19.296,12.247,5.158,16.434,-6.584,4.923,4.833
16.769,-17.372,15.362,6.5,18.414,-6.184,8.151,7.138
16.176,-20.448,13.726,2.716,15.467,-11.085,6.766,3.198
12.071,-24.531,8.379,-1.659,10.54,-16.304,4.245,-0.698
7.321,-26.568,5.024,-2.339,8.812,-17.53,5.72,1.9
4.682,-27.323,5.541,0.377,10.281,-14.708,9.111,7.091
4.496,-28.422,6.58,3.464,11.304,-10.797,9.192,8.637
4.798,-30.901,6.485,4.399,10.661,-9.023,5.754,6.939
4.141,-34.97,6.548,2.832,9.658,-10.5,2.542,4.632
2.376,-40.056,6.607,0.294,8.534,-13.448,0.948,2.354
-1.003,-46.366,4.736,-2.472,6.024,-16.384,-0.83,0.472
-6.879,-54.614,-0.826,-7.219,0.593,-21.431,-4.838,-1.76
-12.514,-61.905,-7.839,-13.283,-6.001,-28.443,-9.666,-4.199
-11.446,-62.026,-8.502,-14.332,-7.019,-29.973,-9.978,-2.312
-4.331,-55.376,-1.417,-8.532,-1.189,-23.279,-5.311,4.539
-1.476,-51.312,3.036,-4.281,2.471,-18.055,-3.284,7.849
-5.482,-52.889,0.922,-5.61,0.553,-19.818,-6.495,3.644
-6.778,-52.704,0.827,-5.508,0.589,-20.863,-7.888,-0.362
-2.527,-49.451,4.823,-1.24,4.266,-16.954,-4.473,1.19
0.412,-49.489,5.297,0.714,4.677,-14.934,-1.907,4.066
-0.849,-53.526,-0.15,-3.632,-0.437,-20.158,-4.661,2.554
-3.822,-56.52,-6.085,-10.216,-6.104,-28.354,-10.21,-3.743
-4.468,-54.645,-5.702,-11.239,-5.822,-30.605,-11.632,-8.559
-1.373,-50.331,0.833,-6.173,0.094,-26.208,-8.013,-8.106
0.549,-50.314,3.991,-4.184,2.342,-24.732,-7.594,-8.695
-0.764,-52.946,0.489,-6.966,-1.559,-28.046,-11.552,-12.984
0.065,-49.758,-0.586,-4.973,-1.955,-26.404,-10.335,-13.228
4.503,-42.473,4.923,2.92,4.56,-18.255,-2.265,-7.584
7.541,-39.981,10.498,7.769,10.458,-12.485,4.984,-2.527
7.151,-42.314,11.567,7.685,11.686,-11.63,9.281,1.076
6.366,-43.567,10.038,7.061,10.613,-12.126,12.482,5.509
7.471,-42.734,8.417,5.682,8.779,-14.28,12.456,6.686
11.445,-39.522,9.786,4.689,9.174,-16.019,11.349,4.656
19.122,-31.129,17.512,10.539,16.587,-9.993,17.506,9.373
25.379,-22.314,26.078,20.292,26.069,0.505,27.555,19.453
23.005,-22.555,25.796,22.084,26.802,2.707,27.699,20.243
16.425,-29.741,20.392,16.12,21.183,-3.132,18.834,12.491
15.67,-33.612,20.784,13.632,20.169,-5.257,15.357,11.928
18.533,-33.034,23.319,15.216,21.718,-2.867,17.729,18.113
16.074,-34.507,17.174,11.98,16.179,-4.537,14.066,15.99
10.125,-38.079,7.275,5.634,7.464,-8.889,6.598,7.204
8.708,-38.334,5.72,6.063,6.355,-7.39,7.41,7.714
10.709,-35.557,10.264,12.033,10.879,-1.922,13.973,16.729
8.649,-35.235,10.196,12.006,10.656,-3.522,12.576,15.394
3.247,-37.361,5.394,4.01,5.174,-13.102,2.83,0.628
1.808,-37.233,4.115,-1.914,3.066,-19.275,-1.403,-7.383
2.825,-36.901,5.182,-3.152,4.209,-19.372,2.303,-2.275
-0.782,-41.421,0.44,-6.284,0.609,-21.37,1.957,-0.102
-7.828,-48.319,-8.659,-12.008,-7.236,-26.643,-5.972,-7.388
-12.718,-52.187,-13.658,-15.449,-11.729,-29.96,-12.706,-14.228
-13.263,-51.032,-11.466,-14.137,-9.625,-28.514,-11.723,-13.136
-10.331,-46.289,-5.759,-9.947,-4.167,-23.817,-6.034,-7.501
-6.363,-41.32,-0.975,-6.724,0.091,-19.455,-2.169,-4.275
-1.483,-36.158,3.393,-3.704,3.866,-15.207,0.66,-1.992
3.759,-30.734,7.848,0.697,8.388,-10.287,5.429,3.753
1.742,-32.73,5.168,-0.894,6.358,-11.804,4.707,5.135
-8.988,-43.685,-6.047,-11.093,-4.451,-21.476,-5.668,-4.549
-14.1,-48.515,-11.321,-15.389,-9.727,-24.762,-11.743,-11.412
-6.573,-39.301,-3.653,-5.661,-1.761,-14.052,-3.876,-2.755
2.153,-27.989,5.253,5.528,7.845,-2.168,6.822,10.053
4.301,-24.556,7.829,6.901,10.477,-0.959,9.656,12.416
2.415,-27.402,6.38,0.314,8.092,-8.43,6.278,5.908
-2.216,-32.859,0.679,-8.388,1.608,-16.81,-0.296,-2.059
-6.542,-35.905,-5.961,-12.363,-5.036,-18.698,-6,-5.197
-4.525,-31.855,-4.318,-6.71,-3.169,-11.643,-3.737,1.56
0.772,-25.194,3.684,2.772,4.992,-2.706,4.301,12.65
-1.567,-26.132,4.202,3.897,5.892,-2.241,5.619,13.768
-14.401,-36.921,-7.858,-6.525,-5.53,-12.233,-4.708,1.322
-27.549,-48.582,-21.852,-19.49,-19.23,-24.756,-17.714,-13.462
-30.042,-51.221,-25.965,-24.863,-23.912,-30.423,-23.076,-19.755
-22.374,-44.014,-20.141,-20.601,-18.979,-26.191,-19.516,-16.194
-13.076,-34.131,-13.21,-12.558,-12.296,-16.947,-13.642,-8.608
-8.402,-29.056,-12.097,-8.446,-10.85,-10.87,-11.809,-3.879
-9.192,-30.851,-15.8,-11.033,-14.397,-11.815,-13.624,-4.432
-11.002,-33.707,-17.339,-14.858,-16.206,-14.942,-13.785,-6.759
-7.989,-30.266,-11.645,-12.189,-10.873,-12.257,-8.685,-5.165
-0.497,-21.925,-1.483,-3.023,-0.851,-2.864,0.219,2.28
6.289,-15.248,6.742,5.704,7.397,6.649,8.32,11.459
8.843,-13.105,8.804,8.309,9.488,10.073,10.64,15.223
6.464,-15.332,3.288,4.367,4.069,6.744,4.975,10.694
1.101,-19.564,-6.617,-1.506,-5.533,1.675,-4.349,3.224
-3.139,-21.078,-13.533,-4.258,-12.094,-0.158,-9.883,-0.781
-4.994,-19.156,-14.467,-4.687,-12.956,-0.334,-10.499,-1.273
-8.437,-19.609,-15.2,-7.976,-13.937,-4.217,-12.835,-3.308
-13.531,-23.714,-19.096,-13.871,-18.319,-10.631,-19.599,-9.689
-13.759,-23.894,-20.489,-15.622,-20.384,-12.045,-23.902,-15.092
-10.364,-18.881,-18.252,-13.438,-18.673,-9.246,-22.92,-14.937
-11.887,-17.222,-19.57,-14.831,-20.117,-10.855,-23.244,-14.241
-15.512,-19.544,-22.562,-17.717,-23.209,-14.62,-24.576,-15.169
-10.747,-16.912,-17.206,-12.683,-18.295,-10.114,-18.663,-11.031
0.079,-8.38,-6.087,-1.889,-7.611,0.838,-8.327,-2.413
6.283,-1.521,-0.383,4.341,-1.862,7.595,-3.933,1.579
7.383,1.948,0,4.563,-1.148,8.454,-4.78,-0.023
9.138,5.494,1.341,3.49,0.359,8.272,-4.665,-1.381
10.613,8.073,2.022,1.342,1.005,7.498,-4.786,-1.926
9.25,7.49,-0.837,-2.393,-1.835,4.889,-7.033,-3.89
8.98,7.439,-1.823,-3.256,-2.576,3.664,-6.55,-5.158
11.792,10.143,2.627,0.625,2.298,6.173,-1.075,-3.348
12.11,10.411,5.688,3.092,5.553,8.102,2.454,-1.427
9.799,8.126,4.678,1.565,3.967,7.201,0.81,-1.572
13.181,12.054,7.744,2.889,5.927,9.166,1.213,-0.821
21.296,21.417,15.062,8.466,12.528,15.193,5.195,0.84
22.502,23.453,14.868,9.118,12.252,16.834,3.824,-0.934
15.226,16.68,5.226,2.779,2.741,11.797,-3.681,-4.833
10.264,14.23,-2.226,-0.552,-4.398,8.996,-7.307,-4.522
10.863,19.876,-2.126,3,-3.844,12.208,-4.668,-0.427
11.287,25.655,1.364,7.948,-0.293,16.968,-1.56,1.747
11.613,30.412,6.192,12.65,4.145,22.027,1.273,2.017
13.949,36.897,10.871,16.843,8.411,26.688,4.822,2.616
15.202,42.416,12.183,17.566,9.482,27.959,6.867,2.579
14.186,45.204,10.565,16.137,7.928,27.186,6.95,2.387
12.462,46.476,7.12,15.173,4.764,26.674,4.739,2.227
11.113,48.032,2.299,14.641,0.116,26.668,0.374,0.767
12.982,53.283,1.637,16.967,-0.535,29.765,-0.306,0.835
18.156,61.628,8.628,23.095,6.316,36.122,5.748,5.142
21.602,66.931,16.624,27.971,14.009,40.568,11.878,10.509
24.378,69.652,21.016,30.716,18.403,43.129,15.081,15.408
32.952,76.494,26.584,36.502,24.636,49.019,21.569,22.518
43.112,84.564,34.11,43.482,32.737,55.713,31.533,29.964
44.48,84.963,36.695,44.049,35.074,55.733,36.601,32.236
38.292,79.258,32.45,37.909,30.344,49.615,34.199,28.341
33.521,76,26.736,32.049,24.814,44.603,29.558,22.574
33.665,78.198,23.656,31.156,22.897,44.096,26.635,19.689
35.845,82.421,22.929,33.143,23.978,44.703,25.392,19.363
36.366,84.616,23.076,34.312,25.6,43.832,25.229,18.869
34.013,83.015,23.072,33.726,26.044,42.376,25.654,18.36
28.598,76.744,21.099,30.048,23.793,39.105,24.359,16.38
20.45,67.094,16.474,23.429,18.934,33.655,20.443,11.061
12.432,58.719,10.957,18.2,13.856,29.664,16.2,5.592
7.116,53.622,5.688,15.83,9.356,27.441,11.952,1.678
3.018,48.594,0.728,13.069,4.555,23.535,6.782,-1.743
-2.548,41.429,-3.038,8.893,0.553,17.846,3.466,-2.459
-10.889,32.303,-6.057,4.685,-2.212,12.643,3.229,-0.631
-21.261,21.638,-10.884,0.501,-6.307,8.632,1.863,-1.224
-27.79,13.8,-15.735,-2.187,-10.425,7.407,-0.751,-3.642
-26.317,12.893,-15.797,-1.048,-9.978,10.427,0.864,-2.559
-22.862,14.325,-12.256,1.878,-6.25,14.292,6.667,1.768
-22.636,13.243,-8.569,3.716,-2.645,15.554,11.585,5.69
-22.777,11.874,-4.907,4.766,0.864,15.463,13.246,8.065
-21.501,12.163,-2.242,5.27,3.233,15.622,11.725,8.346
-20.4,12.968,-2.56,4.383,2.212,15.291,7.105,5.465
-20.586,12.953,-6.088,1.298,-2.253,12.91,-0.282,-0.128
-21.331,12.402,-10.245,-2.694,-7.043,9.364,-7.254,-4.894
-19.726,13.795,-10.187,-3.537,-7.141,8.69,-8.886,-5.227
-16.016,16.403,-6.314,-1.589,-3.124,10.609,-6.945,-3.839
-15.314,15.301,-6.798,-3.525,-3.126,8.256,-9.531,-6.713
-18.715,10.655,-15.015,-11.234,-10.508,-0.317,-18.302,-13.657
-21.425,8.259,-22.978,-18.018,-18.013,-7.433,-25.35,-18.942
-19.505,11.17,-22.016,-17.612,-17.601,-6.203,-23.619,-18.27
-14.325,16.31,-14.785,-12.11,-11.121,0.299,-16.182,-13.618
-13.109,16.688,-13.146,-10.53,-9.213,2.369,-14.039,-12.705
-17.827,11.929,-20.049,-15.233,-15.027,-2.11,-19.598,-17.505
-19.06,11.553,-23.757,-16.784,-17.785,-4.008,-21.38,-19.243
-13.726,17.538,-19.018,-11.261,-12.36,0.646,-14.378,-13.565
-11.544,20.008,-14.441,-6.971,-7.114,4.949,-7.28,-7.439
-16.335,15.908,-13.976,-7.886,-6.342,5.497,-4.603,-5.565
-20.952,12.635,-12.6,-8.473,-5.25,6.434,-1.991,-4.722
-21.02,14.257,-9.572,-6.53,-2.613,8.761,1.269,-3.173
-20.34,16.937,-10.426,-7.016,-3.496,8.053,0.41,-3.95
-24.992,14.929,-18.236,-13.522,-11.059,1.9,-6.444,-9.132
-36.146,7.126,-29.529,-23.268,-22.115,-6.787,-15.85,-17.31
-46.634,-0.53,-36.701,-29.9,-29.203,-12.404,-22.512,-24.456
-48.291,-1.424,-35.347,-30.389,-27.995,-12.31,-23.792,-26.541
-43.975,2.281,-31.084,-29.114,-23.877,-10.815,-22.862,-24.924
-43.557,2.875,-32.864,-31.638,-25.354,-13.238,-24.575,-24.709
-47.255,0.131,-38.034,-35.512,-30.061,-16.776,-26.957,-25.194
-45.972,0.637,-36.301,-34.472,-28.48,-15.458,-24.514,-21.838
-40.843,2.966,-30.606,-31.242,-23.315,-12.709,-21.145,-18.378
-44.445,-2.012,-34.614,-34.551,-27.25,-17.003,-26.051,-22.745
-57.042,-13.619,-46.247,-42.235,-38.071,-25.542,-35.463,-31.05
-63.488,-20.383,-48.887,-42.807,-39.675,-27.118,-36.397,-31.941
-58.706,-18.849,-40.679,-35.622,-30.4,-21.462,-28.402,-25.853
-53.644,-16.781,-34.923,-31.168,-23.837,-18.488,-22.219,-22.648
-53.99,-17.192,-34.843,-31.471,-23.592,-19.272,-20.941,-23.557
-53.471,-15.435,-33.45,-29.459,-22.295,-16.681,-19.892,-22.353
-48.125,-10.175,-29.307,-23.859,-18.15,-10.642,-17.184,-17.954
-41.419,-4.81,-25.033,-18.633,-14.351,-6.114,-13.597,-13.329
-36.721,-1.663,-20.936,-14.5,-11.268,-3.336,-9.828,-9.129
-33.24,-0.003,-16.049,-9.976,-6.95,-0.077,-5.723,-3.95
-28.291,3.083,-8.91,-4.506,0.169,4.06,0.401,2.688
-22.604,8.531,-1.181,0.535,7.685,7.831,7.275,8.058
-21.348,12.234,0.234,0.819,8.774,7.855,8.901,8.532
-25.713,11.717,-6.48,-5.227,1.786,2.453,3.372,5.096
-29.421,11.312,-12.629,-10.756,-5.036,-3.161,-2.838,2.57
-28.953,13.72,-12.095,-9.814,-5.378,-3.658,-4.06,3.225
-27.078,16.46,-8.034,-5.217,-1.617,-0.49,-1.461,5.525
-24.783,19.056,-3.893,-0.967,2.772,3.187,1.405,7.526
-21.716,21.679,-0.711,1.69,6.043,5.582,1.996,7.17
-20.365,21.863,-0.683,0.736,5.899,4.364,-0.891,2.592
-21.518,20.022,-4.77,-4.248,1.934,-1.165,-6.116,-4.674
-21.544,20.288,-9.23,-8.818,-2.333,-7.26,-10.443,-10.38
-18.171,23.855,-9.396,-8.591,-3.103,-8.973,-11.569,-12.842
-14.584,27.362,-6.213,-4.968,-0.938,-5.92,-10.856,-14.138
-14.849,27.738,-4.464,-2.879,0.671,-2.844,-10.969,-15.762
-17.476,26.055,-4.884,-4.25,0.782,-3.323,-11.576,-16.273
-16.803,26.761,-3.156,-5.281,2.174,-4.395,-10.127,-13.719
-11.781,31.393,1.95,-2.757,5.77,-2.422,-6.471,-9.19
-8.215,35.069,5.639,-0.211,7.859,-0.569,-3.65,-6.586
-8.112,34.919,5.959,-0.719,6.986,-1.636,-2.911,-7.28
-5.292,35.986,7.773,-0.049,7.792,-1.18,-1.457,-7.17
2.066,40.754,12.741,4.369,12.36,3.131,2.007,-3.146
6.077,42.911,14.772,7.639,15.369,6.377,4.17,1.395
3.216,39.486,11.525,7.215,13.851,6.535,3.483,2.849
1.82,38.025,10.676,8.512,13.767,8.956,4.74,3.892
9.607,45.536,18.52,16.242,20.975,17.408,12.679,8.885
20.845,56.626,28.283,24.522,29.812,25.503,21.935,15.299
23.128,60.13,27.677,23.453,28.994,23.79,21.319,15.987
15.391,55.751,17.224,15.425,19.031,15.231,11.54,11.069
8.484,52.302,9.012,10.618,10.988,10.065,4.274,6.983
8.6,53.09,8.547,10.372,9.588,9.584,3.506,5.173
12.469,55.581,12.135,10.581,11.73,9.973,5.141,4.171
15.538,57.791,15.773,11.099,14.363,11.162,7.074,4.868
15.422,57.114,16.352,11.406,14.607,12.097,7.571,5.62
11.808,50.797,12.053,7.792,10.485,8.412,3.964,2.605
5.274,39.099,3.703,-1.086,2.682,-1.204,-4.024,-4.72
-2.643,26.406,-4.695,-9.56,-5.064,-9.948,-11.723,-11.79
-5.255,20.797,-4.843,-8.226,-4.918,-7.474,-9.805,-9.555
1.785,24.528,5.641,2.414,5.288,5.014,2.963,3.719
9.275,27.528,14.196,8.617,13.447,12.396,12.061,13.947
7.814,22.89,10.766,3.78,10.11,7.752,8.04,10.753
2.323,16.956,2.995,-2.734,2.872,1.052,0.716,2.783
-0.254,14.604,0.494,-4.222,0.787,-0.576,-0.22,0.01
0.086,13.145,2.226,-3.866,2.428,-0.307,2.29,0.698
3.479,12.073,5.099,-3.431,4.732,-0.064,4.267,1.817
7.835,10.941,6.818,-3.164,5.774,-0.225,4.431,2.404
6.381,4.955,3.406,-6.461,1.974,-3.859,-0.101,-1.279
-0.966,-5.744,-4.328,-13.612,-5.708,-10.666,-8.455,-10.119
-6.492,-13.642,-9.893,-19.405,-10.818,-15.716,-14.27,-18.161
-6.744,-14.642,-9.646,-19.68,-9.94,-16.008,-13.908,-19.527
-4.101,-11.5,-4.783,-14.298,-4.669,-11.464,-9.208,-14.09
-0.934,-8.107,1.692,-6.639,1.753,-4.374,-3.598,-6.774
1.81,-6.185,6.685,-1.651,6.331,0.267,1.194,-2.138
3.22,-6.187,8.401,-1.546,7.581,-0.505,4.751,-0.919
1.105,-9.301,5.382,-5.637,4.222,-5.402,4.046,-3.68
-3.821,-14.969,-1.383,-11.492,-2.968,-11.036,-2.35,-9.703
-6.44,-19.556,-6.811,-15.195,-9.007,-13.889,-8.37,-13.783
-8.161,-24.661,-11.703,-17.789,-13.952,-15.917,-11.928,-15.584
-16.52,-36.185,-22.561,-24.906,-23.776,-22.867,-19.878,-21.754
-28.054,-49.124,-34.694,-33.823,-34.756,-31.329,-30.518,-30.512
-32.361,-52.381,-37.546,-36.372,-37.332,-32.836,-33.584,-32.728
-31.335,-48.732,-34.12,-34.5,-34.178,-30.247,-29.976,-29.215
-31.96,-47.853,-32.722,-34.652,-33.274,-30.621,-28.013,-26.99
-32.568,-49.235,-32.542,-35.763,-34.06,-32.051,-28.043,-26.134
-31.766,-49.188,-31.236,-35.442,-33.829,-31.68,-26.671,-24.128
-32.622,-49.697,-31.21,-35.093,-33.904,-31.709,-24.49,-21.831
-34.806,-51.998,-33.044,-34.561,-34.505,-32.19,-22.558,-20.058
-36.279,-53.606,-33.182,-31.529,-32.975,-29.942,-19.535,-17.763
-37.128,-54.015,-30.226,-27.108,-28.899,-25.811,-15.179,-14.468
-36.277,-54.437,-26.548,-24.904,-24.78,-24.066,-11.172,-11.116
-32.113,-53.282,-23.206,-24.648,-21.199,-24.654,-8.108,-8.69
-28.6,-51.657,-21.32,-25.707,-18.896,-26.393,-7.78,-9.513
-32.02,-55.521,-24.249,-31.444,-21.425,-32.472,-13.488,-16.246
-38.752,-62.862,-29.549,-39.708,-27.02,-41.256,-21.566,-24.878
-38.936,-64.366,-29.432,-41.625,-28.156,-44.046,-23.311,-27.28
-34.513,-61.143,-25.691,-37.063,-25.642,-40.136,-20.263,-24.41
-36.858,-62.302,-28.031,-35.139,-27.935,-38.259,-22.404,-24.953
-46.502,-67.398,-35.28,-37.951,-34.217,-40.993,-29.37,-29.954
-51.891,-68.959,-36.748,-39.337,-35.378,-42.551,-31.61,-32.498
-48.191,-66.749,-30.862,-37.383,-30.502,-40.47,-28.193,-31.081
-43.527,-66.467,-26.525,-36.47,-27.509,-39.015,-26.612,-30.814
-43.772,-67.745,-28.066,-38.356,-29.315,-41.083,-28.257,-32.468
-45.178,-65.03,-31.128,-39.82,-31.168,-43.831,-28.03,-31.623
-45.092,-59.634,-32.971,-39.965,-31.505,-44.96,-26.851,-29.17
-44.898,-57.255,-34.618,-40.272,-32.992,-45.218,-29.713,-29.862
-44.392,-57.12,-34.649,-39.1,-34.115,-44.242,-33.439,-31.954
-43.113,-56.237,-32.853,-36.276,-32.895,-42.582,-32.559,-31.239
-40.992,-55.2,-32.719,-35.576,-32.423,-42.788,-30.339,-29.268
-37.53,-53.406,-34.369,-36.812,-34.218,-43.801,-31.126,-28.675
-35.959,-49.974,-36.145,-36.556,-36.536,-42.876,-32.901,-28.617
-39.446,-48.11,-39.245,-35.829,-39.374,-41.597,-33.743,-28.618
-41.622,-49.113,-41.745,-36.61,-41.703,-41.674,-34.391,-29.409
-35.407,-49.044,-38.655,-36.338,-39.954,-40.765,-33.376,-29.493
-27.179,-45.887,-31.58,-32.815,-34.396,-37.505,-28.767,-27.052
-25.996,-41.65,-27.689,-28.74,-29.977,-34.339,-23.725,-23.873
-28.655,-38.463,-29.097,-28.261,-29.503,-34.104,-23.102,-23.04
-28.792,-37.118,-30.362,-31.319,-30.21,-36.553,-25.934,-25.078
-26.16,-35.774,-25.964,-32.529,-27.127,-37.536,-26.204,-26.921
-20.654,-31.1,-16.63,-27.132,-18.682,-32.819,-20.086,-23.723
-13.796,-24.461,-8.764,-18.446,-9.863,-24.601,-11.351,-15.889
-13.14,-22.44,-7.901,-15.421,-7.748,-21.022,-8.019,-11.315
-20.607,-26.87,-12.164,-20.462,-12.121,-25.498,-11.903,-14.31
-26.394,-31.036,-15.372,-26.208,-16.004,-31.567,-17,-19.825
-23.724,-29.954,-14.843,-26.462,-15.269,-32.235,-18.469,-22.265
-18.492,-26.298,-11.623,-21.889,-11.129,-27.547,-16.081,-20.861
-18.537,-24.214,-7.643,-15.94,-6.524,-21.539,-11.839,-17.211
-21.107,-23.963,-5.04,-11.86,-4.026,-17.708,-8.625,-13.791
-19.066,-23.778,-5.018,-11.36,-4.48,-17.323,-8.728,-12.704
-14.467,-23.996,-7.2,-13.596,-6.853,-19.556,-12.033,-14.012
-13.843,-25.963,-9.24,-15.866,-8.763,-21.958,-14.995,-15.798
-16.426,-28.222,-8.918,-16.214,-8.662,-22.058,-14.417,-16.234
-18.303,-28.889,-8.424,-15.638,-8.763,-20.301,-12.975,-15.802
-20.41,-29.482,-11.29,-16.007,-11.584,-19.025,-14.888,-16.065
-24.161,-31.259,-15.011,-16.78,-14.402,-18.48,-17.723,-16.84
-26.841,-32.568,-14.755,-16.959,-13.611,-17.86,-17.115,-17.642
-26.363,-32.746,-12.2,-17.619,-11.396,-17.994,-15.544,-19.42
-21.728,-30.009,-9.678,-17.186,-9.237,-17.029,-15.337,-19.827
-11.712,-20.713,-3.727,-11.555,-3.316,-10.828,-11.859,-14.264
-1.975,-10.05,4.272,-4.251,4.596,-2.907,-4.726,-6.151
-1.949,-8.808,6.149,-3.409,6.496,-1.322,-1.287,-3.475
-10.259,-15.917,1.551,-7.663,2.626,-5.085,-3.095,-5.821
-16.253,-21.207,-1.504,-9.105,0.751,-6.749,-4.115,-7.014
-15.878,-21.738,-0.048,-7.099,2.564,-5.383,-1.983,-5.406
-14.993,-21.673,1.068,-7.515,2.795,-6.323,-0.598,-4.275
-17.18,-22.614,-2.126,-11.81,-1.16,-10.655,-3.31,-6.201
-19.843,-24.761,-8.198,-16.55,-7.085,-14.636,-8.808,-10.438
-22.848,-30.227,-14.016,-20.242,-12.987,-17.29,-13.807,-14.93
-26.916,-36.256,-16.973,-22.319,-16.995,-19.245,-16.581,-18.262
-27.113,-35.609,-15.729,-21.372,-16.752,-19.048,-17.315,-19.841
-21.28,-28.652,-12.721,-18.627,-13.732,-16.528,-16.909,-19.643
-15.466,-22.455,-10.721,-16.036,-11.229,-13.193,-15.397,-17.552
-15.064,-20.772,-9.346,-13.832,-9.835,-10.061,-12.838,-14.616
-20.332,-24.254,-9.763,-13.947,-10.719,-9.243,-11.995,-14.165
-27.705,-31.132,-13.595,-17.404,-14.968,-11.678,-15.16,-17.365
-29.985,-34.587,-15.75,-18.967,-17.483,-13.2,-18.095,-19.23
-22.276,-29.076,-9.739,-13.42,-11.871,-9.233,-14.113,-14.366
-10.282,-18.965,0.72,-4.168,-1.316,-1.464,-4.549,-5.553
-6.027,-15.077,4.699,0.279,3.493,3.241,0.93,-1.44
-11.906,-20.951,-0.804,-2.978,-1.432,0.739,-2.872,-5.062
-16.427,-27.169,-6.234,-7.436,-7.476,-4.22,-8.508,-9.687
-12.447,-25.775,-4.273,-7.107,-6.7,-4.967,-7.453,-9.348
-7.638,-21.735,-0.01,-4.951,-3.134,-3.215,-3.164,-6.811
-8.096,-20.468,1.082,-4.42,-2.488,-2.599,-2.044,-5.606
-8.104,-17.876,2.658,-2.222,-1.813,-0.378,-1.227,-3.353
-5.557,-13.782,5.207,1.051,-0.231,2.551,1.346,-0.579
-8.971,-17.449,0.517,-3.015,-5.181,-2.381,-1.81,-4.309
-18.825,-27.807,-10.49,-13.739,-16.102,-13.999,-11.971,-13.932
-22.42,-29.993,-14.028,-17.626,-19.892,-18.024,-16.51,-17.383
-16.554,-21.575,-6.152,-10.078,-12.144,-9.835,-8.974,-9.485
-12.682,-16.571,1.29,-2.442,-4.168,-1.758,0.409,-0.109
-14.954,-18.902,0.785,-2.484,-3.895,-2.386,1.976,1.85
-14.343,-17.945,-2.315,-4.842,-6.336,-5.711,-0.542,-0.196
-7.99,-11.153,-2.539,-4.214,-6.064,-5.304,-0.614,-0.456
-5.664,-8.149,-2.229,-3.988,-5.811,-4.692,-0.369,-0.471
-11.058,-11.948,-4.336,-7.64,-8.798,-7.875,-4.057,-3.343
-16.681,-15.507,-7.694,-12.365,-13.078,-11.777,-9.329,-7.398
-19.702,-16.345,-10.912,-14.841,-16.09,-13.151,-12.11,-9.36
-23.162,-19.048,-14.001,-16.309,-18.155,-14.117,-13.892,-9.547
-25.629,-24.236,-16.942,-18.776,-20.722,-16.905,-18.395,-11.081
-22.645,-25.095,-17.852,-18.918,-22.221,-17.254,-23.476,-12.658
-13.914,-17.19,-13.359,-12.276,-18.631,-9.886,-22.997,-9.322
-3.879,-6.354,-4.841,-2.946,-11.208,0.743,-17.338,-3.082
4.66,0.041,2.259,2.025,-5.021,6.506,-11.488,0.913
14.03,4.271,8.738,5.129,1.525,9.284,-3.851,5.65
25.137,11.577,18.115,12.346,11.745,15.649,7.223,13.861
35.26,21.385,26.982,22.417,21.49,25.272,14.485,19.779
44.791,30.58,32.326,31.28,27.282,33.875,15.06,20.714
54.739,36.332,36.99,37.468,31.641,39.027,16.843,21.901
60.278,37.646,42.222,41.398,36.439,41.434,24.18,26.5
56.536,35.247,45.499,43.298,40.133,42.912,32.174,31.685
46.822,28.403,45.275,41.634,40.79,42.004,35.489,33.294
38.112,19.178,42.019,37.143,38.464,37.721,34.014,30.512
32.785,13.316,36.168,33.602,34.043,33.455,29.756,25.758
31.515,12.161,30.604,32.294,29.711,31.541,25.127,21.984
34.081,12.139,29.847,31.758,28.745,30.724,23.765,21.419
34.08,9.433,31.118,29.498,28.991,28.192,25.07,22.604
27.678,3.886,28.416,24.726,25.818,23.275,24.221,21.425
23.372,1.794,25.362,22.185,22.634,20.683,21.706,18.462
27.513,7.098,26.651,23.905,23.237,22.069,20.343,16.346
32.435,13.239,27.237,23.075,22.748,20.698,17.761,13.075
31.101,14.301,24.755,17.702,19.781,15.142,14.858,9.593
26.422,12.309,23.304,14.119,18.975,11.642,16.41,10.854
20.965,8.318,21.368,12.216,17.922,9.537,17.912,12.876
10.38,-0.464,12.845,6.057,9.745,3.343,10.303,6.704
-1.957,-9.004,0.218,-0.991,-2.253,-3.214,-2.989,-4.429
2.566,-3.123,-2.233,2.354,-4.227,-0.034,-7.648,-7.384
22.624,13.538,9.101,13.788,5.79,10.292,-0.903,-0.405
28.769,16.304,16.455,16.297,11.107,12.482,2.88,3.618
16.787,1.348,10.971,6.521,5.041,3.604,-2.631,-0.351
13.067,-8.049,4.5,-0.934,-0.519,-3.526,-7.833,-4.027
21.79,-2.599,4.028,0.608,0.462,-3.206,-7.609,-3.451
25.205,4.322,5.837,3.623,2.971,-1.932,-6.246,-2.593
23.603,5.885,8.401,3.418,4.237,-3.046,-6.47,-3.809
26.487,8.445,9.222,3.252,3.242,-2.883,-8.628,-6.483
25.212,9.4,2.109,2.395,-3.394,-2.57,-13.913,-10.362
12.157,-0.207,-10.075,-3.62,-13.677,-7.347,-20.454,-14.707
0.521,-9.986,-14.826,-8.67,-17.887,-11.678,-22.242,-16.303
-1.878,-7.746,-10.59,-6.164,-14.046,-9.031,-19.11,-14.868
-3.894,-7.296,-9.021,-6.333,-12.598,-9.762,-19.189,-16.405
-3.726,-16.847,-11.806,-15.325,-16.61,-20,-24.554,-22.401
8.971,-21.344,-9.947,-21.737,-17.912,-27.371,-28.819,-26.919
21.857,-17.922,-6.325,-21.014,-16.608,-26.549,-30.142,-28.277
9.84,-18.568,-14.182,-20.365,-21.802,-25.106,-31.704,-29.129
-20.477,-23.716,-31.459,-21.008,-32.689,-24.85,-34.011,-28.954
-34.704,-28.387,-39.691,-21.086,-38.278,-24.451,-35.794,-27.221
-22.713,-32.603,-32.659,-22.592,-35.209,-26.416,-36.482,-26.463
-7.34,-33.849,-23.408,-24.491,-30.638,-29.406,-35.705,-27.652
-4.15,-30.02,-21.504,-23.555,-29.625,-29.29,-34.205,-28.614
-4.302,-23.711,-20.844,-19.513,-28.224,-25.642,-31.428,-26.331
1.309,-16.522,-13.92,-12.891,-21.183,-19.362,-24.431,-19.959
5.189,-9.903,-5.938,-5.706,-12.488,-12.2,-15.204,-13.1
5.084,-4.773,-1.828,-0.603,-7.367,-6.695,-9.892,-8.663
11.161,1.623,1.982,3.726,-3.565,-2.111,-8.451,-4.667
17.793,7.047,1.541,7.395,-2.408,1.681,-7.788,-1.435
9.203,2.174,-9.517,4.505,-9.544,-1.018,-10.786,-4.454
-8.542,-13.37,-22.474,-6.892,-20.932,-12.637,-18.912,-13.587
-14.494,-25.503,-25.098,-16.977,-25.523,-23.156,-24.256,-18.846
-1.406,-22.681,-15.851,-15.404,-18.696,-21.432,-20.001,-13.992
17.981,-9.64,-1.272,-5.301,-6.365,-10.997,-11.272,-6.204
27.158,-0.018,9.02,2.334,1.56,-3.574,-7.418,-4.45
22.276,-0.396,9.259,3.144,1.375,-3.12,-8.749,-6.356
12.931,-4.065,2.091,1.07,-2.575,-5.78,-8.841,-4.978
13.678,1.838,-3.202,1.684,-3.605,-7.113,-5.332,-0.365
29.168,18.744,1.99,6.674,1.745,-4.725,-0.585,3.252
40.795,26.834,12.065,9.604,7.596,-2.357,1.99,3.562
29.334,11.163,10.281,3.204,3.271,-6.935,-1.683,-0.578
7.46,-11.528,-6.097,-7.985,-10.419,-16.661,-11.719,-7.728
1.003,-19.05,-19.078,-13.737,-20.107,-22.833,-20.832,-12.333
14.73,-13.279,-14.059,-11.513,-16.969,-22.072,-21.79,-11.154
31.079,-5.821,1.225,-5.61,-6.479,-17.681,-15.67,-7.543
29.401,-3.013,7.241,-0.847,-1.151,-13.473,-9.838,-5.328
10.566,-6.97,-2.344,0.256,-5.94,-11.221,-9.024,-3.738
-3.402,-14.23,-12.474,-1.606,-11.998,-11.435,-10.29,-1.216
-1.586,-18.268,-8.74,-4.083,-9.863,-13.565,-9.543,0.716
4.96,-15.962,0.779,-5.409,-4.092,-15.657,-8.547,0.031
6.737,-9.508,0.339,-5.159,-4.18,-16.125,-9.513,-2.154
5.429,-6.512,-9.123,-5.706,-10.067,-16.81,-10.897,-4.21
3.875,-13.091,-15.622,-10.07,-15.667,-20.389,-12.839,-7.675
6.536,-21.815,-13.087,-14.485,-16.111,-23.275,-15.07,-11.213
15.958,-19.663,-4.849,-11.411,-10.116,-19.306,-11.81,-7.61
23.193,-8.715,2.775,-2.168,-1.815,-10.83,-2.195,2.947
25.427,-2.094,9.136,4.566,4.523,-5.703,4.833,8.981
28.457,-5.858,14.719,4.802,7.975,-6.368,5.177,5.597
20.182,-16.338,11.17,1.207,5.502,-9.758,3.472,0.667
-4.885,-25.154,-4.119,-2.815,-4.02,-13.257,0.677,-0.836
-18.39,-26.081,-16.17,-6.564,-13.321,-16.694,-6.646,-3.673
-4.849,-23.593,-14.016,-11.183,-15.949,-20.964,-16.246,-11.203
10.609,-27.029,-7.542,-16.483,-15.256,-25.655,-21.643,-18.893
5.679,-35.075,-10.855,-19.343,-17.464,-27.792,-20.974,-20.969
-6.039,-36.835,-19.035,-16.333,-19.792,-24.29,-16.123,-16.525
0.615,-27.633,-15.155,-7.515,-13.564,-15.489,-8.155,-7.976
22.049,-17.33,0.177,0.447,-1.575,-8.061,-1.144,-0.335
25.011,-21.921,4.12,-3.216,-0.659,-12.402,-3.09,-1.379
-4.493,-40.904,-11.731,-16.957,-14.643,-26.128,-11.891,-10.187
-29.669,-50.875,-22.759,-22.311,-22.237,-30.757,-13.28,-12.898
-18.256,-38.462,-10.66,-11.196,-10.407,-19.778,-3.084,-3.481
8.175,-19.557,8.91,2.514,6.033,-7.625,7.625,7.915
18.797,-12.42,12.434,5.924,8.88,-5.487,8.573,10.572
12.377,-18.143,-1.156,-1.039,-1.894,-12.547,-1.624,1.946
0.015,-29.399,-14.554,-12.24,-13.609,-23.681,-14.541,-11.303
-12.586,-39.665,-20.78,-21.249,-20.095,-32.684,-20.928,-19.372
-22.965,-43.926,-25.39,-24.3,-24,-34.972,-20.877,-20.612
-22.762,-39.602,-25.331,-21.134,-23.686,-30.473,-18.962,-19.161
-10.359,-32.425,-18.889,-16.467,-19.089,-24.734,-18.806,-17.809
-2.266,-31.781,-16.661,-16.063,-17.96,-23.661,-21.439,-17.792
-2.984,-34.683,-18.356,-16.722,-19.163,-24.08,-21.352,-16.342
2.76,-30.434,-9.655,-9.837,-11.255,-17.591,-11.709,-8.283
11.026,-21.715,6.643,2.235,3.36,-5.921,3.192,3.67
5.524,-19.233,12.774,7.764,9.693,-0.123,11.233,10.007
-5.3,-21.989,6.934,3.949,5.158,-3.672,7.605,7.096
-7.379,-23.618,-1.582,-1.309,-1.932,-9.18,-1.89,-0.027
-4.842,-23.608,-7.592,-1.298,-5.421,-9.186,-6.639,-3.111
-0.39,-21.142,-4.341,4.251,-0.84,-3.043,-0.284,2.114
9.295,-15.428,7.02,9.556,8.57,3.089,10.417,10.013
18.859,-10.8,12.471,9.811,12.256,4.232,14.755,12.725
21.024,-9.598,10.239,8.498,10.278,3.497,14.129,11.706
17.497,-9.317,10.804,9.426,10.231,4.134,14.715,11.709
14.331,-8.929,12.076,9.142,9.734,3.097,13.718,11.009
16.31,-7.478,9.166,6.797,5.809,0.533,9.214,8.56
23.536,-3.552,9.054,7.054,4.71,1.243,7.94,8.604
28.218,-1.224,12.995,8.395,7.118,3.12,11.291,10.369
25.583,-3.218,14.244,6.564,7.532,1.719,13.371,9.439
25.565,-2.128,14.62,6.622,8.408,2.23,15.085,9.631
37.377,7.133,19.038,14.555,14.496,10.431,21.977,17.241
49.308,14.946,23.773,23.72,20.984,19.586,30.363,27.048
42.482,10.123,20.551,22.905,18.402,19.221,28.834,26.966
21.266,-2.338,9.808,13.839,7.412,11.609,16.832,16.768
8.26,-8.547,3.963,9.486,0.958,8.741,9.661,10.788
12.319,-4.639,9.818,14.947,5.978,14.597,16.173,16.965
22.161,1.102,17.795,21.179,13.307,20.702,25.952,25.399
24.088,1.19,16.446,19.842,12.364,19.926,27.27,25.167
16.482,-2.083,8.538,14.417,6.068,15.722,23.299,20.253
10.904,-1.927,6.568,12.924,4.849,14.933,23.234,20.268
16.273,3.505,15.464,17.18,11.651,18.775,28.495,25.963
25.328,10.237,25.812,22.183,18.765,23.237,32.93,30.586
24.125,12.113,24.205,21.106,16.49,22.925,29.865,27.783
10.878,6.565,8.363,12.093,3.339,15.963,18.464,16.74
-1.64,-0.814,-8.523,1.554,-10.793,6.976,5.954,4.397
-2.729,-3.038,-12.967,-3.565,-15.313,1.316,0.617,-0.44
3.538,0.385,-7.035,-3.055,-10.69,-0.064,3.663,3.217
8.464,7.329,0.693,0.815,-2.71,2.631,11.885,9.98
12.236,16.385,8.709,6.693,6.395,8.51,22.116,16.199
17.262,24.752,16.711,12.207,14.631,14.19,30.512,21.193
21.309,30.966,22.393,16.777,20.116,18.912,36.313,26.004
24.873,37.624,28.449,23.716,25.774,26.574,43.662,33.027
32.571,46.785,39.023,34.332,34.814,38.059,53.723,42.499
41.965,55.677,49.675,43.744,43.529,47.467,61.663,50.509
41.728,58.501,49.753,44.866,43.623,47.882,61.807,51.381
27.624,52.694,35.268,35.968,31.589,38.575,51.92,42.302
11.103,43.86,15.793,24.128,14.832,27.083,36.991,28.709
6.454,40.748,7.138,18.356,6.246,22.151,27.141,21.001
12.792,44.35,12.852,19.451,8.882,24.216,25.541,21.542
16.462,48.65,19.418,21.847,12.641,27.7,25.573,23.377
14.344,51.59,19.043,22.865,11.803,29.745,23.293,22.702
15.464,55.215,17.497,22.714,10.23,30.114,20.681,21.163
19.47,59.253,15.817,21.195,8.502,28.846,18.535,19.753
20.72,64.183,12.397,20.465,5.984,28.711,17.468,19.203
23.426,72.164,14.323,23.221,8.028,32.291,19.307,20.184
31.853,81.258,24.757,27.801,16.699,37.452,23.083,21.453
41.505,87.687,35.135,31.646,25.886,41.772,27.019,22.788
45.895,89.941,37.68,33.903,29.511,44.686,30.602,25.187
40.986,86.996,32.662,32.949,26.651,44.091,31.802,27.036
29.745,80.41,25.578,29.183,21.271,39.98,29.918,26.281
23.632,75.783,22.868,26.593,18.816,37.192,27.848,23.824
27.956,75.253,25.412,25.976,19.602,37.418,26.277,20.65
30.529,72.727,25.737,22.728,17.448,35.267,21.502,15.013
18.034,62.304,16.899,14.531,8.072,27.114,11.937,6.212
-0.167,48.744,3.528,6.027,-3.531,17.594,2.214,-1.462
-4.492,41.254,-3.195,2.731,-8.894,12.995,-2.156,-3.913
-1.442,38.211,-4.41,3.096,-9.337,12.483,-1.986,-3.126
-13.32,30.747,-12.598,1.213,-14.212,10.617,-3.116,-3.39
-34.115,19.362,-27.161,-4.136,-24.069,5.779,-8.389,-6.513
-40.264,12.676,-33.784,-8.482,-29.268,1.694,-13.713,-11.292
-32.334,13.38,-28.095,-8.133,-25.606,2.398,-14.199,-13.966
-26.955,15.749,-20.2,-5.323,-19.538,5.925,-12.322,-13.143
-27.608,14.613,-18.926,-5.696,-18.094,5.331,-13.277,-12.871
-28.586,11.282,-22.448,-9.357,-20.34,-0.113,-15.51,-15.265
-31.075,8.314,-26.025,-11.769,-22.692,-4.311,-16.172,-17.552
-38.817,3.689,-30.156,-13.228,-26.056,-6.466,-17.702,-19.152
-47.377,-3.549,-34.7,-16.593,-30.589,-10.164,-20.736,-21.806
-49.724,-9.157,-36.73,-20.612,-33.211,-14.576,-22.449,-24.932
-46.15,-10.082,-36.35,-22.462,-33.249,-16.138,-22.501,-26.741
-42.591,-8.682,-35.6,-21.764,-32.637,-14.283,-21.97,-26.325
-43.522,-8.944,-36.209,-21.229,-33.458,-12.939,-21.713,-24.902
-46.768,-10.304,-37.723,-22.137,-35.059,-14.348,-21.591,-24.181
-46.393,-8.35,-35.918,-20.635,-33.131,-13.982,-19.173,-22.698
-41.451,-2.727,-29.533,-14.584,-26.867,-8.585,-14.382,-18.809
-36.579,1.672,-23.731,-8.207,-21.372,-2.211,-10.93,-14.603
-36.235,0.706,-23.862,-6.503,-21.055,-0.398,-11.16,-13.343
-39.103,-4.71,-28.434,-9.364,-24.463,-3.512,-13.293,-14.918
-36.299,-8.169,-28.201,-10.841,-24.28,-5.542,-12.056,-14.417
-24.061,-5.102,-18.885,-6.872,-16.915,-2.086,-5.344,-8.612
-13.65,0.721,-10.088,-1.671,-9.502,2.761,1.069,-1.578
-15.648,3.321,-10.884,-0.197,-9.105,4.083,1.989,1.571
-23.815,2.461,-16.631,-0.716,-12.551,3.624,-0.423,1.155
-24.109,2.878,-17.137,0.764,-12.266,4.893,-1.583,0.103
-12.944,7.974,-10.019,4.573,-6.249,7.64,0.056,-0.426
-0.057,15.363,-2.022,8.442,0.603,10.094,2.789,-0.847
5.286,20.383,0.934,11.17,3.815,12.309,4.431,-1.298
4.196,21.525,0.702,12.422,4.343,14.101,4.917,-1.683
1.378,19.16,0.736,10.439,3.932,12.647,4.459,-3.148
-2.379,14.384,-0.282,4.411,1.405,6.782,1.588,-7.327
-4.92,11.801,-2.051,-0.924,-1.612,1.835,-2.052,-11.821
-3.406,14.196,-1.584,-1.09,-1.54,2.19,-2.446,-12.155
-2.431,16.095,-1.577,-0.159,-1.214,3.102,-1.802,-9.947
-5.954,13.31,-4.746,-2.431,-3.993,0.406,-3.982,-9.594
-9.016,10.388,-7.162,-4.584,-6.668,-2.09,-6.106,-10.517
-9.835,9.509,-9.228,-5.867,-9.455,-3.748,-7.507,-12.659
-14.606,5.648,-16.501,-11.227,-17.303,-9.493,-13.354,-19.16
-22.428,-0.534,-24.48,-17.983,-25.71,-16.194,-20.708,-25.987
-24.568,-1.899,-24.437,-17.917,-25.97,-15.906,-20.903,-24.964
-21.886,0.397,-21.867,-13.652,-23.03,-11.915,-17.34,-19.463
-22.472,-0.227,-26.005,-13.495,-25.947,-12.026,-18.944,-18.66
-24.299,-1.59,-30.661,-15.141,-29.439,-13.269,-22.262,-20.888
-19.346,2.329,-25.74,-11.265,-24.478,-9.111,-19.188,-19.04
-9.746,9.358,-14.968,-3.373,-14.501,-1.519,-11.872,-13.623
-5.955,12.12,-8.957,0.823,-8.618,2.965,-7.477,-9.916
-12.152,7.281,-11.229,-2.297,-9.811,0.94,-8.11,-10.363
-20.958,-1.104,-16.718,-8.625,-14.301,-5.232,-10.897,-13.703
-23.596,-5.618,-18.702,-11.096,-16.402,-9.372,-11.645,-16.404
-19.603,-3.09,-14.971,-7.407,-13.328,-7.843,-7.989,-14.442
-13.59,2.355,-8.842,-1.76,-7.635,-3.012,-2.068,-7.913
-10.436,3.472,-6.108,-0.13,-5.328,-0.423,0.552,-3.351
-13.809,-2.229,-9.592,-4.234,-9.563,-2.973,-3.302,-6.079
-21.79,-9.67,-16.689,-10.024,-17.354,-7.828,-11.091,-12.995
-27.089,-12.729,-22.859,-12.899,-23.596,-10.118,-17.606,-17.337
-25.286,-10.182,-24.755,-11.551,-25.029,-7.892,-19.008,-16.213
-19.087,-4.874,-21.518,-6.94,-21.157,-2.946,-14.863,-11.54
-13.095,-0.192,-15.438,-0.998,-14.162,1.929,-7.959,-6.325
-8.322,2.512,-9.44,4.21,-7.188,5.651,-1.897,-1.978
-5.003,2.748,-5.135,7.063,-2.763,7.857,0.867,0.488
-7.153,-1.94,-4.358,5.927,-2.655,6.852,-0.639,-0.505
-15.563,-11.393,-7.207,1.363,-5.594,2.515,-4.449,-3.86
-21.897,-18.163,-9.558,-1.995,-6.89,-0.754,-5.825,-5.117
-21,-17.484,-8.554,-1.529,-4.805,-0.211,-3.116,-2.855
-16.912,-13.434,-5.161,0.352,-1.523,1.507,0.774,-0.073
-12.044,-9.111,-0.153,2.563,2.451,3.097,4.106,1.633
-6.349,-4.373,4.604,5.402,6.461,5.331,6.531,2.565
-2.569,-1.096,5.975,6.38,7.829,6.179,6.67,2.556
-1.976,-0.494,4.783,4.18,6.693,4.117,4.616,1.868
-2.643,-1.587,4.029,1.859,5.647,1.967,2.741,1.656
-3.461,-4.206,3.67,1.586,5.124,1.973,2.374,2.32
-4.475,-9.009,2.501,0.406,3.988,1.107,2.28,2.409
-4.916,-14.696,1.724,-3.631,3.035,-2.715,1.943,1.499
-4.848,-18.072,1.931,-6.454,3.27,-5.342,2.238,1.27
-8.05,-20.066,-1.367,-6.971,0.839,-5.783,-0.033,0.034
-16.504,-25.346,-10.452,-9.964,-7.115,-9.216,-7.492,-4.6
-24.119,-32.759,-17.794,-14.659,-14.188,-15.049,-13.34,-8.068
-26.13,-37.275,-18.618,-16.555,-15.674,-18.253,-13.254,-7.621
-27.279,-39.672,-19.657,-17.846,-17.286,-20.288,-14.53,-9.665
-31.898,-43.776,-25.155,-22.241,-22.728,-24.966,-21.273,-17.676
-37.645,-49.221,-30.756,-27.794,-27.925,-30.831,-28.298,-26.387
-41.386,-51.672,-32.751,-30.168,-29.085,-33.628,-31.044,-30.153
-40.585,-47.452,-29.787,-26.912,-24.907,-30.768,-28.456,-27.976
-33.786,-38.863,-22.406,-20.491,-16.841,-24.353,-22.524,-23.541
-25.871,-33.526,-16.329,-17.669,-10.901,-21.111,-18.569,-21.993
-23.56,-35.128,-16.023,-20.972,-10.851,-24.429,-18.897,-23.939
-25.084,-38.299,-17.584,-23.758,-12.458,-27.786,-19.473,-24.969
-24.082,-36.709,-15.795,-19.965,-10.837,-24.016,-16.978,-22.247
-19.648,-31.482,-11,-13.245,-6.642,-16.824,-12.715,-17.895
-15.188,-27.252,-6,-9.752,-2.251,-13.43,-8.508,-14.615
-12.839,-25.425,-2.802,-9.16,1.043,-13.269,-5.075,-12.28
-13.225,-25.144,-2.129,-8.677,2.113,-12.576,-3.679,-10.631
-16.339,-26.061,-3.126,-8.862,1.028,-12.114,-5.01,-10.739
-19.989,-27.015,-4.216,-10.571,-0.151,-13.681,-7.211,-12.035
-20.379,-25.263,-3.982,-11.064,0.522,-14.758,-7.399,-12.004
-16.638,-20.024,-1.629,-7.664,3.155,-12.251,-5.01,-10.302
-13.165,-15.12,0.945,-3.2,5.442,-8.652,-2.886,-9.871
-14.989,-15.416,-0.733,-3.637,3.464,-9.525,-4.642,-12.775
-21.513,-20.381,-7.861,-9.602,-3.733,-15.227,-10.292,-17.371
-27.389,-23.668,-15.091,-14.597,-10.984,-19.689,-15.37,-20.337
-28.117,-20.672,-15.894,-13.721,-11.801,-18.708,-15.807,-19.972
-23.924,-14.198,-10.42,-9.782,-6.461,-15.229,-12.903,-17.598
-19.867,-10.601,-6.117,-8.684,-2.592,-14.315,-12.052,-16.567
-20.035,-11.408,-7.932,-11.874,-5.053,-16.517,-15.857,-18.891
-23.521,-13.006,-12.819,-16.582,-10.319,-19.881,-21.065,-23.088
-28.017,-13.833,-17.16,-21.283,-14.334,-24.538,-24.413,-26.813
-31.929,-15.06,-20.795,-25.694,-17.441,-29.879,-26.894,-29.829
-33.95,-16.569,-23.238,-28.302,-19.936,-32.595,-29.921,-32.436
-35.522,-18.898,-24.893,-29.449,-21.66,-32.711,-33.059,-34.497
-40.419,-24.333,-28.745,-32.22,-24.681,-34.338,-36.419,-37.062
-46.972,-30.426,-33.937,-36.074,-29.095,-37.444,-39.672,-39.992
-47.227,-30.28,-34.452,-36.349,-30.26,-37.627,-39.982,-39.947
-40.521,-23.674,-28.92,-32.327,-25.88,-34.67,-35.657,-35.602
-36.175,-17.854,-23.349,-28.182,-20.334,-32.318,-29.58,-30.349
-37.288,-15.787,-21.604,-25.604,-17.732,-30.662,-25.523,-26.863
-37.227,-13.814,-21.416,-23.047,-16.922,-27.249,-24.231,-24.938
-34.056,-10.713,-21.471,-21.818,-16.84,-24.526,-25.53,-25.448
-34.214,-11.08,-24.637,-25.896,-20.046,-28.454,-29.917,-30.141
-40.354,-17.129,-30.659,-34.081,-26.312,-37.941,-35.467,-37.003
-45.311,-22.374,-32.631,-37.944,-28.934,-42.582,-36.987,-40.091
-43.205,-20.938,-27.407,-33.339,-24.484,-37.437,-32.643,-36.71
-38.363,-17.136,-22.116,-27.763,-19.706,-31.453,-28.067,-32.047
-36.018,-16.257,-22.477,-28.226,-20.636,-32.439,-28.354,-31.844
-35.122,-16.479,-25.069,-31.793,-24.26,-36.454,-31.802,-35.171
-34.921,-16.468,-26.487,-34.374,-26.798,-38.81,-35.447,-38.801
-36.94,-17.949,-28.03,-36.513,-29.071,-40.728,-38.977,-42.082
-39.598,-19.568,-29.883,-37.601,-31.221,-41.869,-41.663,-44.457
-39.096,-18.507,-30.025,-34.876,-31.099,-38.918,-41.596,-43.635
-36.599,-16.535,-28.84,-29.614,-28.906,-33.112,-39.188,-39.526
-36.34,-16.819,-27.961,-26.077,-26.704,-29.13,-36.786,-35.222
-35.695,-16.945,-25.545,-24.119,-23.529,-26.737,-33.88,-31.513
-30.385,-13.809,-20.528,-21.137,-18.5,-23.209,-28.952,-27.263
-25.716,-11.354,-17.266,-18.677,-15.425,-20.391,-24.675,-24.398
-27.774,-14.417,-18.754,-19.761,-17.243,-21.257,-24.875,-25.838
-32.187,-20.342,-21.854,-23.521,-21.085,-24.844,-29.07,-31.035
-32.32,-23.124,-22.589,-26.547,-22.649,-28.322,-33.069,-36.005
-29.776,-21.867,-21.459,-27.284,-21.932,-30.105,-34.232,-37.513
-29.058,-19.64,-20.865,-26.023,-21.234,-29.206,-33.493,-36.096
-29.281,-16.957,-19.344,-21.945,-19.413,-24.56,-30.897,-32.884
-28.295,-13.186,-15.258,-15.64,-15.197,-18.165,-26.135,-28.513
-27.467,-10.793,-12.833,-12.173,-12.656,-15.571,-23.486,-26.32
-27.976,-12.016,-14.953,-14.642,-14.323,-18.717,-25.865,-28.073
-28.254,-14.42,-16.599,-18.072,-15.137,-21.749,-27.654,-28.82
-26.955,-14.332,-14.04,-16.9,-11.535,-19.4,-24.28,-25.057
-26.194,-12.943,-12.133,-13.895,-8.605,-15.244,-21.261,-21.717
-29.278,-14.56,-15.303,-14.541,-11.035,-15.308,-23.798,-23.279
-35.807,-19.854,-19.989,-18.18,-15.547,-18.878,-27.917,-26.971
-41.026,-24.294,-21.158,-20.633,-17.17,-21.321,-28.664,-28.813
-39.904,-23.083,-18.941,-20.463,-15.517,-21.032,-26.594,-27.823
-32.562,-16.328,-15.99,-18.496,-12.666,-19.176,-23.591,-24.301
-24.62,-8.683,-13.57,-15.282,-9.987,-16.362,-20.273,-19.574
-21.779,-5.176,-12.868,-12.635,-8.933,-13.787,-18.459,-16.636
-24.653,-6.96,-14.783,-13.12,-10.688,-13.587,-19.982,-17.353
-28.077,-9.987,-17.062,-15.812,-13.618,-15.381,-22.865,-19.516
-27.203,-10.293,-17.288,-17.704,-15.148,-17.04,-23.735,-20.026
-22.419,-8.057,-15.169,-17.23,-13.992,-16.993,-21.461,-18.208
-16.348,-4.379,-10.204,-13.486,-9.418,-13.613,-16.38,-14.331
-11.192,-0.334,-4.201,-7.784,-3.558,-7.965,-10.777,-9.636
-9.352,0.606,-2.265,-4.975,-1.326,-5.223,-8.314,-6.729
-11.182,-3.831,-5.404,-7.383,-3.661,-7.526,-9.612,-6.768
-12.858,-9.292,-8.163,-10.488,-5.756,-9.676,-11.465,-7.968
-11.314,-9.643,-6.493,-9.483,-3.971,-7.193,-10.995,-7.521
-8.594,-5.22,-2.322,-6.137,0.177,-3.304,-8.38,-4.878
-7.041,-0.773,0.778,-4.535,3.58,-2.593,-5.591,-2.612
-5.618,0.515,2.089,-4.882,5.324,-4.087,-3.559,-2.449
-2.923,-0.218,3.491,-4.196,6.922,-3.679,-1.004,-2.016
1.605,1.864,7.035,0.226,10.657,1.52,3.964,1.991
7.378,7.802,12.597,6.963,16.407,9.439,10.387,8.311
10.645,10.555,17.127,10.145,20.378,12.891,13.966,11.647
7.991,5.564,18.112,6.991,20.204,8.799,13.105,10.119
2.463,-0.676,17.159,2.69,18.979,3.716,11.901,8.285
0.91,-0.398,17.081,2.712,20.16,3.69,13.642,10.09
6.191,5.543,18.703,6.005,23.209,6.883,16.763,13.872
14.613,12.417,21.489,9.262,26.002,9.934,18.422,15.971
20.327,17.543,23.423,10.975,26.8,12.044,17.784,15.584
21.253,19.897,22.663,10.723,25.104,12.79,16.263,14.805
19.141,19.425,20.171,8.933,22.3,12.015,15.61,14.757
15.951,17.693,17.785,6.679,19.873,10.635,15.741,14.277
13.714,17.178,16.104,5.077,18.236,9.983,15.399,13.085
13.819,18.269,15.136,4.563,17.239,10.227,14.289,12.747
13.601,18.561,13.73,3.837,15.86,9.688,12.596,13.394
10.28,17.363,10.802,2.285,13.538,8.122,10.301,13.248
8.524,18.222,9.37,2.707,13.048,8.725,9.213,12.756
14.346,23.882,13.362,7.103,17.493,13.216,11.916,14.675
23.512,31.075,19.51,12.044,23.856,17.993,16.696,18.46
27.216,33.908,20.683,12.567,25.666,18.396,18.448,19.66
25.933,31.784,17.326,9.449,22.79,15.603,16.413,17.286
27.692,30.554,16.979,8.996,22.248,16.373,16.23,17.011
35.429,34.733,23.1,14.79,28.314,23.937,22.31,23.681
43.396,41.96,31.489,23.271,37.208,33.349,31.693,34.179
46.604,47.219,36.801,28.74,42.608,38.59,37.276,40.958
47.32,48.605,37.501,28.953,42.272,38.483,35.408,40.371
48.796,47.601,35.537,26.118,38.974,35.552,29.744,35.856
50.676,47.593,34.856,25.336,37.774,34.538,27.852,34.165
54.235,52.129,39.126,30.198,42.034,39.376,33.583,38.981
62.696,61.461,48.019,38.633,50.511,48.233,43.748,48.024
73.042,70.204,55.932,44.348,57.758,54.201,51.777,55.386
77.5,72.348,57.745,43.865,59.311,53.519,53.853,57.05
75.177,69.183,55.528,40.739,57.157,50.269,51.892,54.678
72.186,66.702,54.704,39.877,56.312,49.732,49.705,52.518
72.366,67.819,56.908,42.344,58.446,52.675,49.503,53.329
75.037,71.202,60.42,47.044,62.027,57.335,52.135,57.393
76.72,73.163,62.267,50.966,63.944,60.627,54.893,61.058
74.581,72.06,60.01,51.183,61.621,60.536,53.273,60.223
70.964,71.498,54.896,49.503,56.64,59.473,48.133,56.331
68.504,73.22,50.065,48.711,52.483,59.612,43.776,52.724
64.405,72.434,46.042,47.427,49.346,58.573,40.692,49.248
57.879,67.15,42.364,44.774,46.093,55.253,37.368,45.846
54.472,63.661,40.806,44.203,44.537,53.897,35.474,45.342
56.992,66.73,42.864,48.186,46.869,57.841,37.723,49.317
61.299,72.326,46.886,54.041,51.434,64.432,43.263,55.539
62.863,74.517,50.036,57.897,54.84,69.143,48.609,60.62
61.336,72.617,50.95,58.377,55.962,69.785,51.377,62.67
58.784,69.211,49.881,55.655,55.555,66.317,51.109,61.562
56.802,66.438,48.238,51.716,54.576,61.556,48.8,58.994
56.452,65.607,48.076,50.418,54.508,60.083,47.295,57.947
58.333,67.291,50.101,53.196,56.371,62.856,49.006,59.631
61.133,70.428,52.846,57.331,58.982,66.342,52.814,62.185
62.773,73.201,54.696,60.278,60.515,68.152,56.051,63.96
63.028,74.451,55.089,61.428,60.52,68.649,57.498,64.781
61.788,72.412,53.754,59.532,58.853,67.142,56.601,63.787
57.212,65.531,50.108,53.381,54.664,62.002,52.886,60.355
50.416,56.848,44.46,45.408,48.449,55.023,47.503,56.425
46.06,51.701,38.904,40.448,42.926,50.871,43.199,54.507
46.327,51.333,36.709,40.883,41.16,51.676,42.759,55.554
50.441,53.815,40.599,45.37,45.05,55.611,47.505,59.638
55.167,56.234,48.03,50.042,52.297,59.356,54.403,64.648
55.673,55.544,51.904,51.618,56.785,60.751,57.377,66.854
51.965,52.532,50.165,51.478,56.259,60.769,55.312,66.066
48.81,50.849,47.919,53.042,54.599,61.606,53.532,65.375
48.526,51.305,48.752,56.179,54.883,63.473,55.347,65.806
49.168,51.452,50.011,58.231,55.38,65.093,57.995,66.074
48.38,49.057,48.249,58.068,53.737,65.322,58.506,65.889
46.888,45.004,46.049,57.419,52.355,64.656,59.182,66.977
46.53,42.205,47.63,58.173,54.619,64.934,62.827,70.456
45.78,40.03,49.942,58.253,57.224,65.082,65.617,73.373
42.469,35.302,47.851,54.312,54.976,61.851,63.014,72.257
39.292,29.89,44.917,48.68,50.975,57.003,59.458,69.961
40.696,29.146,47.848,46.967,52.007,56.034,61.78,71.745
45.407,32.279,53.761,48.244,56.269,58.036,66.57,75.561
46.559,32.302,54.065,45.404,55.623,55.52,64.785,74.328
41.308,27.665,48.484,37.801,49.21,47.441,56.119,67.322
35.351,24.737,44.338,33.673,44.286,42.307,48.34,61.007
33.429,25.895,44.253,36.174,43.613,44.192,44.978,58.759
33.878,27.057,44.493,39.421,43.099,47.517,43.367,58.11
35.166,27.79,42.783,40.822,40.881,48.53,41.858,57.396
38.227,31.524,41.616,44.222,39.921,50.326,41.818,58.401
43.406,37.821,44.754,50.815,42.855,55.536,44.639,62.898
49.14,42.151,50.917,56.521,47.926,61.566,49.059,69.111
51.535,40.79,53.815,57.482,50.506,63.773,51.69,72.574
50.18,36.035,52.442,55.503,50.497,62.444,52.535,72.672
52.148,35.928,53.705,56.633,53.603,63.433,55.82,74.061
59.947,43.346,59.604,61.994,60.624,68.383,61.581,77.773
66.052,51.275,63.697,65.791,65.181,71.653,64.575,79.146
66.9,53.927,63.073,65.017,64.85,70.289,62.937,76.34
67.174,53.897,62.002,63.889,63.986,68.788,60.529,73.153
69.67,55.781,64.436,67.278,66.473,72.153,62.02,74.038
72.976,59.859,69.408,74.238,71.669,78.842,67.843,79.084
76.44,64.408,73.629,80.422,76.501,83.727,73.85,84.267
80.084,68.519,75.831,83.891,79.149,85.426,76.717,86.389
81.186,69.912,75.413,84.098,78.554,84.617,76.082,84.6
77.866,66.823,71.446,80.64,74.223,80.856,72.663,79.746
74.066,61.85,66.001,75.912,68.823,76.003,68.301,74.631
72.52,56.754,61.384,71.426,64.587,71.64,64.076,70.329
69.922,49.857,57.005,65.027,60.283,65.687,59.559,65.389
64.815,42.347,53.441,57.367,56.152,58.67,56.163,60.989
59.004,36.781,51.354,51.77,53.355,53.735,54.758,58.846
53.382,31.956,49.212,48.067,50.734,50.401,53.137,56.815
49.769,27.074,47.94,45.115,48.831,47.268,51.16,53.597
49.051,23.699,48.852,43.633,49.178,45.022,50.952,51.49
49.597,22.925,49.98,44.025,50.62,44.362,52.548,52.159
51.974,26.11,51.481,46.654,52.779,46.307,55.108,54.793
56.369,32.806,54.739,51.383,56.085,51.25,58.139,57.6
57.827,37.523,56.237,55.547,57.663,56.194,59.836,58.681
52.936,35.502,52.243,56.285,54.449,57.148,58.005,56.705
46.039,29.211,45.553,54.412,48.389,54.251,53.379,52.809
43.311,24.443,41.081,52.629,43.724,51.076,49.409,49.945
44.495,22.974,38.569,50.543,40.673,48.499,47.342,48.104
44.509,23.081,34.935,46.678,36.377,44.843,45.133,44.753
41.508,24.553,31.029,44.015,31.463,42.295,42.673,41.48
38.455,27.528,29.809,45.413,29.38,43.915,42.218,42.142
37.884,29.752,30.469,47.501,30.03,46.636,43.442,45.065
39.758,30.266,30.317,47.147,30.482,46.82,44.081,46.25
42.644,31.019,28.997,46.423,29.63,46.024,43.474,45.925
45.282,33.542,27.786,47.248,28.58,46.274,42.35,45.678
48.482,38.524,28.467,49.52,29.34,47.935,41.993,45.573
53.615,45.894,32.274,53.234,33.059,51.38,44.127,46.276
58.706,52.483,37.07,56.672,37.574,54.911,48.419,48.172
59.495,53.542,38.168,56.17,38.666,54.656,50.415,48.41
55.411,49.194,34.404,51.094,35.362,49.866,46.986,44.278
51.686,46.019,30.599,46.048,31.731,45.06,42.188,38.793
52.363,48.16,30.234,44.465,30.843,43.426,40.62,36.549
54.724,52.015,30.555,43.928,30.87,42.547,40.521,36.646
55.873,54.484,30.097,42.719,30.794,41.271,40.232,36.823
57.289,56.821,31.346,43.053,32.14,42.25,41.412,38.239
58.619,58.168,32.927,44.481,33.226,44.548,42.408,40.239
56.688,56.674,31.043,44.034,31.156,44.239,40.015,39.553
51.987,55.291,27.572,42.572,28.118,41.844,36.94,37.436
49.388,58.02,27.813,43.353,28.649,41.109,37.901,38.144
51.821,63.48,32.687,46.621,33.106,43.08,41.611,41.183
56.476,67.115,38.088,49.373,37.785,45.49,43.361,42.602
59.133,67.832,40.753,49.675,39.938,46.121,42.073,41.249
59.236,67.945,41.092,48.836,39.823,45.082,40.106,38.879
58.488,67.812,40.257,47.892,38.538,43.638,38.771,36.78
57.883,66.511,38.562,45.928,36.95,42.253,37.887,35.384
57.499,65.709,36.833,43.39,36.127,40.651,37.922,35.058
57.11,67.997,36.394,42.668,36.788,39.353,39.623,35.981
56.428,73.206,37.645,44.81,38.611,40.178,42.435,38.015
55.369,78.083,39.251,47.336,40.296,42.694,44.655,39.92
54.054,80.086,39.493,46.698,40.67,42.829,45.233,39.834
53.2,81.218,38.767,43.816,40.118,39.719,44.648,37.747
54.069,84.662,38.75,42.979,39.779,37.89,43.429,35.615
55.588,88.556,38.626,44.462,39.135,39.138,41.22,34.794
54.168,88.698,35.5,44.311,36.241,39.876,37.824,34.459
48.629,84.514,29.119,40.2,30.494,37.024,33.663,32.344
41.314,77.622,22.026,33.279,23.205,31.313,29.191,27.504
34.645,69.342,15.817,26.463,16.147,25.769,24.646,21.796
30.568,62.457,11.818,22.201,11.604,22.745,20.769,17.765
31.108,60.369,12.346,21.177,11.873,22.348,19.632,16.843
35.312,62.576,16.404,22.767,15.755,23.483,22.12,18.873
38.058,64.686,19.049,25.831,18.739,25.453,25.139,21.482
35.746,63.238,19.02,29.09,19.698,27.891,26.242,22.758
30.538,58.253,19.855,31.528,21.685,29.952,27.642,23.909
26.306,52.119,21.503,32.177,23.982,30.214,29.892,25.086
24.306,47.536,20.509,30.469,22.472,27.985,29.202,23.387
24.994,46.428,18.619,28.776,19.344,26.017,26.448,20.191
28.929,48.212,20.18,29.985,20.623,27.534,27.504,21.17
33.972,48.915,23.035,31.403,24.525,29.459,31.498,25.202
37.542,46.913,23.118,30.125,25.522,28.002,32.665,26.502
40.088,46.047,22.814,29.788,25.221,26.721,32.367,26.395
40.92,47.706,24.551,32.196,26.589,28.364,34.932,28.723
37.887,47.344,24.187,32.251,26.067,28.405,37.038,30.027
33.935,42.838,19.893,27.649,21.574,23.985,34.4,26.448
35.649,39.732,18.647,24.152,19.109,20.094,31.393,22.66
45.091,44.193,25.241,27.319,23.472,22.651,32.584,24.649
57.158,53.181,33.693,34.384,30.269,29.955,34.948,30.287
64.055,57.375,36.561,37.975,32.842,34.483,35.335,33.039
61.101,53.863,33.844,35.761,30.376,32.486,34.404,30.506
50.706,48.701,29.19,32.444,26.167,27.982,32.697,26.266
40.489,46.037,24.532,31.758,22.529,25.732,29.649,23.869
35.218,43.303,20.917,32.121,20.089,25.406,26.015,22.746
35.048,39.502,21.235,32.731,20.885,25.684,25.829,23.169
40.399,39.066,27.989,36.389,27.55,28.243,32.932,28.517
50.233,43.973,38.898,43.887,38.532,34.478,45.504,38.488
57.601,47.961,46.614,50.107,46.626,40.309,55.627,45.699
55.104,43.319,44.189,47.998,44.532,38.313,54.869,43.271
45.93,33.258,34.3,39.219,34.798,29.638,44.746,35.032
39.221,27.519,25.971,32.929,26.657,23.745,35.051,29.901
34.352,25.511,20.084,30.178,21.305,21.722,28.779,27.296
26.746,21.284,13.709,25.955,15.807,18.031,24.425,23.32
21.919,17.906,11.246,21.932,13.773,14.154,24.874,21.579
24.787,19.419,14.674,20.768,16.474,12.919,28.661,23.185
29.285,23.081,18.145,20.561,18.769,12.331,29.848,23.509
29.776,26.883,19.041,21.348,19.307,12.384,29.683,23.156
27.087,30.012,18.558,23.749,19.486,14.132,31.886,25.401
22.842,29.918,16.112,24.762,17.95,14.909,34.411,28.406
19.139,27.692,13.722,23.76,15.666,14.021,35.455,30.113
17.822,26.794,14.716,23.762,15.626,14.393,36.629,31.51
15.982,25.15,15.572,23.251,15.373,14.518,37.026,31.658
10.555,19.352,11.761,18.554,11.235,10.675,34.105,28.988
5.214,13.331,6.861,13.018,6.114,5.887,29.424,26.074
3.768,12.234,4.452,11.069,2.935,4.246,24.742,24.491
3.342,13.528,1.423,9.912,-0.998,3.256,18.03,21.086
1.333,12.712,-2.509,6.921,-5.686,0.778,10.24,15.688
0.44,11.097,-2.211,5.137,-6.255,-0.292,6.233,12.76
2.767,12.691,2.532,6.994,-2.511,1.89,6.65,13.109
5.398,17.119,5.419,9.631,-0.561,3.943,7.466,12.179
5.052,19.922,2.688,8.513,-3.982,1.59,5.391,6.498
4.432,20.155,-1.615,4.412,-8.597,-3.286,1.027,-1.352
7.976,21.275,-1.503,2.26,-8.625,-5.221,-1.725,-5.833
12.957,23.67,1.639,2.499,-5.668,-4.465,-1.404,-6.295
13.293,23.954,1.56,1.249,-5.718,-5.525,-1.121,-6.836
9.095,20.642,-2.863,-1.771,-9.494,-8.426,-2.792,-8.766
5.177,15.852,-6.64,-3.091,-12.178,-9.787,-4.596,-9.705
4.37,13.244,-5.217,-0.616,-9.856,-8.45,-3.623,-8.132
5.334,13.924,0.973,5.157,-2.938,-4.688,1.507,-4.004
4.65,14.181,7.38,11.387,4.41,0.254,8.276,1.351
1.02,10.059,10.159,13.599,7.721,2.499,11.552,4.24
-4.151,1.747,8.156,9.132,5.242,-1.295,8.814,1.394
-8.749,-6.91,2.882,0.919,-0.652,-8.653,3.427,-5.094
-9.385,-10.764,-0.504,-4.134,-3.921,-12.728,1.72,-8.581
-3.208,-7.861,2.169,-2.941,-0.889,-10.627,5.682,-5.865
6.902,-1.972,7.747,0.155,4.725,-6.899,10.754,-1.286
13.308,1.554,9.71,0.24,6.886,-6.395,12.101,-0.346
13.171,1.98,7.942,-0.814,5.924,-7.271,10.835,-2.165
11.761,2.469,8.234,1.443,7.024,-5.226,11.465,-1.91
12.614,3.243,11.85,5.665,10.711,-1.223,14.43,1.226
12.642,0.977,13.907,7.357,12.296,0.938,16.149,3.46
9.117,-4.812,11.865,6.18,9.841,0.886,14.612,2.484
3.855,-10.355,8.053,4.928,5.885,0.61,11.083,0.1
0.162,-12.946,5.357,4.739,3.21,0.592,8.518,-0.892
-1.314,-14.158,3.924,4.087,1.751,-0.477,7.736,-0.907
-2.517,-16.213,1.862,1.617,-0.477,-3.04,6.06,-2.281
-3.644,-17.891,-0.489,-0.853,-3.002,-4.816,3.662,-3.7
-3.747,-17.849,-1.263,-1.431,-3.923,-4.759,3.913,-2.763
-4.331,-17.882,-1.553,-2.317,-4.297,-6.039,5.662,-2.163
-6.103,-18.691,-2.52,-4.906,-4.944,-9.638,5.972,-3.966
-7.747,-19.109,-3.003,-6.825,-4.641,-12.312,5.97,-4.831
-9.682,-20.134,-2.828,-7.141,-3.962,-12.849,7.073,-2.859
-13.283,-23.886,-3.364,-7.538,-4.787,-12.799,7.905,-0.877
-19.059,-30.783,-6.449,-9.738,-8.221,-14.088,6.067,-2.408
-25.753,-38.197,-11.877,-13.374,-13.16,-17.174,1.554,-7.478
-29.226,-40.945,-15.002,-14.513,-15.243,-18.605,-1.444,-11.243
-26.819,-37.256,-12.841,-10.715,-12.227,-15.462,-0.006,-9.99
-22.378,-33.143,-10.107,-6.86,-8.977,-12.013,1.836,-7.892
-21.452,-34.884,-12.068,-8.596,-10.735,-13.808,-0.708,-10.323
-23.569,-39.767,-16.091,-12.818,-14.986,-17.707,-4.645,-13.549
-24.834,-41.301,-17.051,-13.078,-16.488,-17.082,-4.494,-11.213
-24.839,-39.354,-15.736,-10.334,-15.623,-13.097,-1.35,-5.825
-26.074,-38.773,-16.146,-10.664,-16.044,-12.092,0.011,-3.997
-28.984,-41.473,-18.648,-15.593,-18.193,-15.128,-1.373,-5.944
-30.224,-43.551,-19.238,-19.896,-18.617,-17.079,-1.866,-6.777
-27.14,-41.388,-15.443,-19.687,-15.472,-15.691,0.279,-5.085
-22.149,-37.832,-10.665,-18.147,-12.16,-14.808,1.234,-4.318
-18.152,-36.622,-8.546,-18.471,-11.668,-16.007,-1.34,-5.414
-14.596,-36.181,-7.857,-18.442,-12.311,-15.769,-4.945,-5.769
-12.552,-35.326,-7.64,-17.237,-12.969,-13.592,-8.714,-5.845
-15.41,-37.009,-9.785,-17.993,-15.298,-13.419,-13.542,-8.355
-21.743,-42.038,-13.888,-21.014,-19.161,-16.175,-17.694,-12.474
-25.374,-46.182,-16.118,-22.466,-21.531,-17.962,-18.704,-14.566
-23.099,-45.328,-13.876,-19.462,-19.92,-15.19,-16.175,-12.547
-17.667,-40.311,-8.391,-12.692,-14.798,-8.302,-11.383,-7.432
-14.163,-36.654,-3.915,-6.566,-10.061,-1.9,-7.427,-3.029
-14.741,-38.323,-3.984,-5.58,-9.707,-0.626,-7.415,-2.944
-17.774,-43.171,-7.61,-8.745,-13.112,-4.058,-10.753,-6.514
-23.251,-49.12,-13.142,-13.418,-18.66,-10.03,-16.322,-12.407
-32.939,-58.448,-21.907,-20.76,-27.662,-19.116,-25.055,-21.761
-43.27,-69.451,-31.504,-28.79,-37.194,-28.274,-33.104,-30.843
-47.297,-74.123,-34.468,-29.96,-39.344,-29.521,-33.159,-31.722
-44.051,-69.346,-28.836,-22.771,-32.898,-21.937,-25.651,-24.914
-37.888,-60.528,-20.301,-14.544,-24.373,-13.798,-17.204,-18.49
-31.628,-53.303,-13.661,-10.42,-18.173,-10.339,-11.076,-15.509
-26.054,-48.923,-9.821,-8.881,-14.662,-9.09,-7.325,-13.36
-22.118,-46.304,-8.18,-7.585,-13.48,-7.196,-5.808,-11.368
-20.51,-44.935,-7.476,-7.26,-13.528,-6.322,-5.147,-11.008
-20.875,-45.591,-6.623,-9.192,-13.312,-8.463,-4.048,-12.138
-22.313,-48.523,-6.188,-12.564,-13.185,-11.882,-3.882,-13.827
-24.383,-52.626,-7.769,-16.158,-14.947,-14.931,-6.705,-16.496
-26.339,-56.009,-10.398,-18.729,-17.657,-17.47,-10.647,-19.472
-26.582,-57.357,-10.598,-18.218,-17.548,-17.542,-11.045,-19.725
-26.348,-58.621,-9.238,-15.788,-15.354,-14.969,-8.524,-17.569
-29.615,-63.195,-11.594,-15.59,-16.745,-13.566,-9.266,-17.632
-35.616,-70.218,-17.592,-18.071,-22.346,-14.709,-14.376,-20.798
-38.127,-74.458,-20.945,-19.868,-25.997,-15.859,-17.906,-22.963
-35.058,-72.745,-19.628,-19.384,-24.952,-15.75,-17.434,-22.713
-32.574,-68.874,-18.937,-18.809,-23.986,-16.064,-17.805,-23.306
-35.626,-68.564,-22.122,-20.403,-26.695,-17.963,-21.552,-26.293
-39.139,-70.282,-24.494,-22.141,-29.015,-19.234,-23.703,-28.272
-37.113,-69.52,-22.011,-21.726,-27.063,-18.48,-21.594,-27.038
-34.696,-69.266,-20.166,-23.123,-25.685,-20.019,-21.601,-26.904
-37.64,-73.002,-24.077,-29.3,-29.4,-26.098,-27.772,-31.404
-39.986,-75.097,-27.686,-33.913,-32.549,-30.017,-33.324,-35.82
-36.432,-71.332,-25.533,-32.144,-30.07,-27.881,-32.85,-35.916
-31.454,-65.722,-22.01,-28.434,-26.042,-24.894,-30.048,-34.531
-28.2,-60.782,-20.283,-25.689,-23.561,-23.192,-27.064,-32.394
-25.318,-56.132,-18.573,-22.355,-21.241,-20.069,-22.301,-27.236
-24.111,-54.095,-17.844,-20.185,-20.119,-17.405,-18.419,-22.589
-26.751,-56.465,-19.898,-22.146,-21.727,-18.987,-18.924,-23.468
-31.96,-61.314,-23.267,-26.907,-24.693,-23.568,-22.828,-28.784
-35.378,-64.454,-25.507,-29.88,-26.984,-26.072,-26.708,-33.138
-33.817,-63.127,-25.311,-28.14,-27.173,-23.684,-27.15,-32.257
-31.35,-60.832,-24.542,-25.748,-26.672,-21.04,-25.278,-29.681
-32.999,-61.83,-25.859,-28.469,-28.27,-23.746,-25.792,-32.2
-34.027,-61.777,-27.031,-32.603,-29.792,-27.3,-27.728,-36.338
-28.74,-55.119,-24.672,-30.345,-27.181,-23.884,-25.933,-33.795
-22.686,-47.78,-21.712,-24.287,-23.331,-17.062,-21.657,-27.249
-23.988,-49.748,-23.7,-23.842,-24.698,-16.727,-21.18,-25.947
-31.293,-59.535,-30.464,-30.228,-31.379,-23.462,-25.735,-31.033
-37.796,-67.513,-36.441,-35.711,-37.32,-28.726,-30.211,-35.248
-39.861,-69.052,-36.959,-34.976,-37.662,-27.197,-30.113,-33.695
-38.803,-67.188,-33.073,-31.236,-33.843,-22.696,-26.698,-29.605
-37.143,-65.687,-29.638,-30.089,-30.943,-21.232,-24.314,-28.19
-36.415,-64.871,-29.229,-31.815,-31.063,-23.135,-24.836,-29.561
-38.534,-65.614,-31.755,-35.012,-33.904,-26.542,-28.561,-32.549
-42.668,-69.211,-36.109,-40.074,-38.77,-31.036,-35.07,-37.761
-44.014,-71.841,-39.073,-44.341,-42.308,-34.17,-40.521,-42.879
-40.971,-68.433,-37.891,-42.904,-41.031,-32.225,-40.708,-43.122
-37.061,-61.277,-34.449,-36.599,-36.58,-26.268,-36.42,-38.118
-35.892,-57.666,-33.253,-32.445,-34.127,-22.37,-32.397,-33.707
-38.447,-59.812,-35.618,-34.275,-36.027,-23.921,-32.193,-34.923
-41.307,-61.978,-37.852,-37.629,-38.787,-27.164,-34.125,-38.785
-39.283,-58.578,-36.035,-36.533,-37.61,-26.696,-33.102,-38.34
-33.51,-51.625,-31.516,-31.794,-33.292,-22.576,-28.097,-33.01
-30.759,-47.596,-29.698,-29.383,-31.524,-19.92,-24.872,-29.398
-34.322,-49.294,-34.024,-32.543,-35.778,-22.639,-28.589,-32.198
-41.082,-53.319,-42.301,-38.391,-43.672,-28.737,-37.01,-39.009
-45.077,-54.265,-48.845,-42.271,-50.025,-33.101,-44.031,-44.45
-43.913,-50.873,-51.263,-43.547,-52.726,-34.653,-47.284,-46.481
-42.132,-47.512,-52.686,-45.016,-54.154,-36.743,-48.861,-47.53
-42.654,-47.07,-54.442,-46.864,-55.245,-39.617,-49.57,-49.421
-42.141,-46.829,-53.111,-46.271,-53.426,-39.649,-47.727,-50.486
-40.813,-45.804,-48.718,-43.924,-49.135,-37.381,-44.353,-49.911
-44.078,-47.644,-47.034,-43.595,-47.027,-37.248,-42.828,-49.475
-51.764,-52.352,-49.917,-45.257,-48.498,-39.537,-43.172,-49.565
-57.122,-55.318,-53.008,-46.755,-50.547,-41.809,-43.784,-49.742
-56.263,-55.046,-54.33,-48.843,-51.784,-44.549,-45.73,-51.329
-51.251,-52.405,-54.288,-50.874,-51.722,-47.185,-48.278,-53.361
-45.87,-46.698,-50.986,-48.851,-48.405,-45.927,-47.437,-51.899
-43.2,-40.251,-45.841,-43.921,-43.854,-41.896,-44.358,-48.16
-45.529,-39.114,-45.437,-43.041,-44.072,-41.664,-45.115,-48.061
-51.031,-42.678,-49.575,-46.586,-48.017,-45.119,-49.029,-50.939
-52.386,-42.448,-48.836,-46.61,-46.839,-44.389,-48.617,-49.663
-46.67,-36.423,-40.52,-40.916,-38.859,-37.918,-43.149,-43.649
-41.67,-32.979,-34.082,-36.897,-33.449,-33.336,-40.47,-40.606
-43.798,-36.695,-35.938,-39.031,-36.204,-35.02,-43.746,-43.861
-47.805,-41.118,-40.607,-42.277,-41.136,-38.288,-46.794,-47.195
-45.718,-38.929,-40.584,-40.51,-40.666,-37.277,-44.302,-44.598
-38.244,-31.804,-36.579,-35.624,-35.872,-33.4,-39.648,-39.266
-31.794,-26.468,-34.153,-34.062,-33.129,-32.567,-39.148,-38.429
-30.649,-26.397,-35.95,-38.011,-35.313,-36.861,-43.31,-42.961
-34.506,-29.756,-39.925,-43.353,-39.69,-42.199,-47.78,-47.369
-38.511,-32.016,-41.21,-44.238,-41.27,-42.887,-48.486,-47.011
-38.741,-31.257,-37.528,-40.179,-38.421,-38.658,-45.156,-43.138
-37.927,-30.04,-33.201,-37.051,-35.26,-35.466,-42.058,-41.489
-39.646,-30.818,-33.14,-38.966,-35.839,-37.501,-43.218,-45.096
-43.693,-34.4,-37.565,-44.7,-40.197,-43.524,-48.721,-51.656
-48.958,-40.26,-44.176,-51.176,-46.337,-50.213,-55.743,-57.761
-51.648,-43.488,-48.388,-54.034,-50.106,-52.915,-59.523,-60.379
-47.627,-39.303,-45.312,-49.973,-47.081,-48.114,-56.656,-57.101
-41.269,-32.014,-37.028,-42.42,-39.105,-39.642,-49.974,-49.942
-39.87,-29.812,-31.332,-38.506,-33.389,-35.632,-45.977,-45.371
-43.226,-34.169,-31.912,-40.741,-33.741,-38.798,-47.275,-47.254
-48.179,-41.305,-35.818,-45.845,-37.625,-44.78,-51.159,-52.611
-52.809,-47.192,-38.228,-48.698,-40.142,-47.665,-53.413,-55.391
-54.474,-48.924,-36.793,-46.644,-38.512,-45.4,-51.656,-52.67
-52.598,-46.67,-34.267,-42.274,-35.427,-41.469,-48.284,-47.788
-48.585,-43.018,-34.82,-40.392,-35.774,-40.433,-48.409,-46.572
-43.745,-40.434,-38.087,-42.485,-39.454,-42.769,-52.561,-50.093
-42.473,-41.117,-41.913,-46.478,-43.127,-46.26,-56.724,-54.682
-47.445,-44.921,-45.786,-49.672,-45.705,-49.239,-58.966,-57.459
-53.102,-48.497,-48.572,-50.56,-47.439,-50.628,-60.573,-58.286
-54.818,-50.217,-49.526,-49.938,-48.468,-50.363,-62.749,-58.376
-55.459,-51.786,-50.624,-50.231,-49.817,-50.455,-65.214,-58.812
-56.995,-53.472,-53.545,-52.591,-52.313,-52.653,-67.07,-60.061
-56.133,-52.283,-56.503,-54.99,-54.471,-54.997,-67.774,-61.492
-53.144,-48.287,-57.281,-55.804,-54.762,-55.183,-67.791,-62.237
-55.26,-47.127,-57.397,-57.656,-54.984,-55.762,-68.494,-63.481
-63.145,-50.154,-59.158,-62.157,-56.919,-59.323,-70.415,-66.427
-66.045,-50.759,-60.748,-64.946,-58.28,-62.354,-71.912,-68.664
-59.267,-45.653,-58.576,-62.177,-56.044,-60.515,-70.556,-67.011
-52.838,-40.483,-53.953,-57.493,-51.852,-56.284,-66.998,-63.16
-55.689,-41.096,-52.808,-57.227,-50.836,-55.593,-65.603,-62.018
-62.35,-45.112,-56.038,-60.834,-53.648,-58.388,-67.619,-63.916
-62.798,-46.057,-56.769,-61.853,-54.379,-58.821,-68.291,-63.94
-58.072,-43.394,-52.198,-58.706,-50.563,-55.41,-65.306,-60.641
-55.689,-41.382,-48.159,-56.393,-47.008,-52.8,-62.43,-58.051
-56.582,-39.887,-47.456,-56.122,-45.853,-52.126,-61.355,-57.215
-58.082,-36.26,-46.522,-54.126,-44.018,-50.112,-59.573,-55.032
-60.199,-33.119,-45.113,-51.346,-41.903,-48.14,-57.944,-52.561
-62.293,-34.473,-46.552,-52.541,-43.111,-50.689,-60.168,-53.987
-63.738,-38.87,-50.67,-57.367,-47.417,-56.416,-65.555,-58.417
-66.816,-43.416,-55.36,-62.004,-52.325,-60.997,-70.644,-61.878
-71.618,-47.481,-59.079,-64.563,-56.007,-63.28,-73.332,-62.911
-73.048,-48.625,-58.885,-63.56,-55.552,-62.389,-71.613,-61.086
-68.056,-44.369,-53.721,-58.717,-50,-57.776,-65.587,-56.825
-61.895,-39.33,-48.504,-54.636,-44.507,-53.793,-60.368,-53.827
-61.16,-40.071,-48.133,-56.021,-44.28,-55.099,-60.132,-54.931
-63.886,-44.326,-50.556,-60.545,-47.13,-59.399,-62.21,-57.196
-64.552,-45.408,-51.533,-62.612,-48.334,-61.546,-62.443,-56.629
-63.834,-43.071,-51.559,-60.918,-48.192,-60.501,-61.497,-53.9
-65.781,-42.544,-53.832,-58.901,-50.076,-59.097,-62.622,-52.677
-70.851,-47.321,-59.759,-60.875,-55.687,-61.101,-67.859,-56.272
-75.606,-55.507,-66.943,-67.044,-62.875,-66.954,-75.519,-63.698
-76.675,-61.426,-70.178,-72.247,-66.529,-71.691,-80.028,-68.626
-75.036,-62.488,-67.866,-73.236,-64.997,-71.868,-78.842,-67.636
-73.408,-60.902,-63.855,-71.923,-61.918,-69.758,-75.627,-64.407
-69.772,-56.824,-59.881,-68.637,-58.586,-66.654,-72.628,-61.714
-63.369,-50.842,-55.911,-63.262,-54.539,-62.409,-69.386,-59.249
-61.627,-50.238,-55.942,-61.184,-54.016,-61.249,-68.928,-59.311
-68.092,-58.017,-60.853,-65.247,-58.858,-65.51,-73.209,-63.405
-74.263,-65.217,-63.706,-69.367,-62.478,-69.575,-77.113,-67.391
-72.384,-64.505,-60.535,-68.297,-59.953,-68.526,-75.932,-67.456
-65.499,-59.427,-55.388,-63.977,-54.382,-64.109,-71.532,-64.361
-61.852,-57.42,-53.813,-61.294,-51.538,-60.99,-68.368,-60.926
-63.652,-60.732,-57.163,-63.137,-53.854,-62.239,-68.9,-60.395
-64.681,-64.493,-61.183,-67.29,-57.922,-66.222,-71.492,-63.625
-61.494,-64.459,-61.572,-69.414,-59.253,-69.228,-72.47,-67.242
-57.921,-62.026,-59.516,-68.591,-58.392,-70.139,-71.123,-67.893
-56.475,-59.634,-58.341,-67.036,-58.352,-69.92,-70.033,-66.456
-56.426,-58.8,-59.209,-66.977,-59.935,-69.959,-70.863,-66.007
-57.178,-60.179,-60.886,-67.508,-61.517,-69.806,-71.75,-66.321
-56.6,-60.962,-60.575,-64.895,-60.784,-66.662,-69.642,-63.599
-52,-57.414,-56.191,-58.277,-56.717,-60.252,-64.161,-56.634
-46.711,-52.329,-50.578,-53.257,-52.399,-56.13,-59.412,-50.868
-47.771,-52.932,-50.293,-56.019,-53.53,-59.797,-60.936,-52.954
-52.997,-57.553,-55.34,-63.057,-59.261,-67.005,-67.054,-60.248
-54.025,-57.925,-59.224,-66.031,-62.922,-69.412,-70.942,-64.423
-52.376,-55.988,-61.368,-66.091,-64.29,-68.865,-72.899,-65.222
-53.196,-57.54,-63.427,-67.548,-65.721,-70.324,-75.106,-65.969
-51.34,-56.647,-59.704,-65.312,-61.929,-68.981,-71.501,-62.537
-41.806,-47.527,-47.811,-55.597,-50.173,-60.744,-59.655,-52.408
-32.073,-38.694,-37.236,-46.629,-39.727,-52.724,-49.494,-43.653
-31.868,-39.498,-36.547,-46.271,-39.151,-52.023,-49.116,-43.771
-38.46,-44.956,-41.835,-50.577,-44.118,-55.516,-54.36,-49.268
-41.57,-45.899,-44.489,-52.548,-46.112,-57.563,-57.558,-52.638
-38.96,-43.764,-43.298,-52.482,-44.742,-58.572,-57.294,-52.533
-36.233,-43.972,-42.338,-53.572,-44.254,-60.679,-56.424,-52.415
-34.624,-44.599,-42.629,-55.402,-45.024,-62.616,-56.157,-53.626
-30.532,-41.585,-41.657,-55.932,-44.282,-62.362,-55.182,-53.836
-24.593,-36.325,-38.587,-54.509,-41.429,-59.788,-52.518,-50.916
-21.848,-32.405,-36.562,-51.859,-39.324,-56.484,-49.1,-46.066
-23.118,-31.014,-37.55,-49.27,-39.666,-54.519,-46.449,-42.236
-23.417,-30.791,-37.79,-46.951,-39.517,-53.477,-44.435,-40.227
-19.977,-29.367,-33.497,-43.602,-35.752,-50.46,-41.409,-38.281
-15.45,-25.784,-26.866,-38.503,-29.811,-44.642,-36.647,-35.062
-13.866,-22.887,-22.873,-33.886,-25.835,-39.669,-32.155,-31.914
-17.905,-25.188,-24.544,-34.075,-27.106,-40.277,-31.608,-32.038
-25.912,-31.821,-31.126,-39.591,-33.239,-46.128,-36.205,-36.432
-30.784,-35.734,-37.504,-43.908,-38.976,-50.51,-41.586,-41.048
-28.088,-33.096,-38.113,-40.842,-38.776,-47.733,-41.492,-40.326
-21.34,-27.435,-32.08,-32.088,-32.143,-39.534,-34.43,-33.293
-14.9,-22.59,-22.352,-23.499,-22.522,-31.712,-24.448,-24.193
-10.352,-19.604,-13.854,-19.394,-14.92,-28.854,-17.596,-18.756
-10.036,-20.015,-12.127,-21.267,-14.056,-32.29,-18.401,-20.416
-14.683,-24.241,-17.433,-26.282,-19.541,-38.281,-25.541,-26.978
-19.115,-27.894,-22.103,-28.843,-24.476,-40.571,-31.219,-31.517
-17.805,-27.027,-19.98,-27.38,-23.683,-37.98,-30.042,-30.3
-13.568,-25.607,-15.113,-26.602,-20.8,-36.051,-26.317,-27.863
-12.016,-27.65,-13.045,-28.536,-20.389,-37.216,-25.018,-28.29
-11.113,-27.846,-11.004,-27.619,-19.392,-36.073,-22.671,-27.655
-6.499,-21.736,-5.651,-21.077,-14.269,-29.949,-16.009,-22.613
-0.334,-14.53,-0.257,-14.154,-7.713,-23.643,-8.976,-16.689
2.346,-12.462,1.276,-11.001,-3.943,-20.597,-5.54,-13.601
0.279,-15.176,-0.906,-10.768,-4.359,-19.894,-5.53,-13.607
-4.175,-19.132,-5.153,-12.957,-8.181,-21.404,-8.592,-16.526
-8.443,-22.302,-9.562,-17.651,-12.975,-25.372,-14.153,-21.549
-10.76,-24.045,-11.556,-21.632,-15.583,-28.64,-18.831,-25.541
-10.516,-24.475,-10.747,-21.922,-15.541,-28.313,-20.288,-26.316
-9.009,-24.979,-9.948,-20.849,-15.558,-26.686,-20.707,-25.369
-7.906,-26.545,-11.202,-21.983,-17.264,-27.098,-22.765,-25.065
-7.947,-28.366,-13.853,-25.024,-19.556,-29.094,-26.011,-26.175
-7.892,-28.361,-14.669,-26.648,-19.408,-29.903,-27.003,-26.575
-3.995,-24.224,-9.435,-23.257,-13.338,-26.669,-21.639,-21.934
3.682,-17.655,0.053,-15.868,-3.324,-20.075,-11.804,-13.068
8.09,-15.171,5.672,-11.69,2.74,-16.135,-5.774,-7.698
4.835,-19.505,4.098,-15.401,1.335,-18.807,-7.38,-9.758
-2.205,-25.98,-0.625,-22.927,-3.568,-24.49,-12.597,-15.249
-7.096,-29.433,-4.521,-27.231,-7.573,-27.191,-16.67,-19.137
-8.179,-29.871,-6.211,-26.411,-9.191,-25.559,-17.613,-19.536
-9.227,-31.676,-6.956,-24.943,-9.8,-23.915,-16.691,-18.202
-13.137,-36.738,-9.142,-26.439,-11.723,-25.537,-17.011,-18.228
-15.692,-39.958,-11.441,-27.537,-13.772,-26.962,-18.397,-18.782
-13.723,-37.59,-11.721,-24.748,-13.925,-24.413,-18.435,-16.972
-11.964,-33.829,-12.087,-21.364,-14.083,-20.633,-17.61,-14.091
-11.859,-31.598,-12.587,-19.781,-14.487,-18.319,-16.289,-12.259
-8.376,-28.361,-9.795,-17.252,-12.077,-15.603,-13.035,-10.01
-2.599,-24.466,-5.089,-13.212,-7.667,-11.844,-9.15,-6.433
-0.516,-22.734,-2.524,-9.832,-4.553,-8.516,-6.875,-2.979
-2.365,-22.583,-2.366,-7.713,-3.581,-6.184,-6.237,-1.159
-4.772,-22.658,-3.648,-7.689,-4.814,-6.236,-7.862,-2.276
-7.147,-24.097,-6.647,-11.429,-8.279,-10.52,-12.582,-6.509
-10.449,-27.287,-10.728,-17.475,-12.432,-17.127,-18.029,-11.491
-13.611,-28.839,-13.673,-21.455,-14.976,-21.247,-20.66,-14.313
-13.392,-25.152,-13.052,-20.836,-14.012,-20.476,-19.292,-14.042
-8.031,-17.551,-8.319,-16.413,-9.071,-15.969,-14.805,-11.072
-0.872,-10.934,-2.734,-10.644,-3.121,-9.964,-9.344,-6.38
3.384,-7.483,0.155,-5.422,0.173,-3.967,-4.706,-1.344
4.805,-4.733,1.454,-0.827,1.669,1.325,-0.505,3.206
5.353,-1.119,3.46,2.59,3.874,4.676,3.388,6.523
5.645,2.268,6.002,4.393,6.809,6.357,6.102,8.667
7.32,5.408,8.84,6.64,9.967,9.275,8.165,11.452
10.351,7.567,11.122,9.102,12.13,12.682,9.301,14.334
11.418,6.505,11.252,8.364,11.645,12.127,7.84,14.102
10.306,3.604,10.745,5.447,10.396,8.53,5.34,11.589
9.853,1.935,11.642,4.499,11.06,6.867,4.989,10.925
8.799,0.148,11.457,4.431,11.32,6.531,5.258,11.328
3.884,-3.778,7.493,1.283,7.786,3.299,2.032,8.002
-2.372,-6.388,2.9,-3.333,3.095,-1.329,-3.137,1.922
-4.36,-3.418,2.692,-4.173,2.678,-1.972,-3.988,-0.188
-1.565,3.007,6.665,-0.731,6.706,1.777,0.882,3.549
2.082,6.734,10.428,2.29,10.421,5.106,6.063,7.993
4.485,5.868,11.336,2.147,10.947,5.407,7.575,9.389
5.67,4.354,10.238,0.9,9.637,4.94,7.047,9.148
3.667,3.778,7.908,-0.1,7.738,4.986,6.388,8.895
-2.33,1.429,4.194,-2.458,4.833,3.364,4.875,7.809
-7.715,-2.057,0.666,-5.866,1.973,-0.064,2.627,5.782
-9.183,-2.886,-0.588,-7.338,1.187,-1.952,1.415,4.596
-9.006,-0.752,0.647,-5.581,2.974,-0.434,2.316,5.767
-8.827,1.746,3.132,-2.152,6.327,3.029,4.379,8.695
-8.116,3.402,4.96,0.627,9.155,5.855,5.122,10.455
-8.481,4.494,4.883,1.232,9.705,6.264,3.545,8.702
-10.876,5.467,3.883,0.326,8.981,4.842,1.588,5.032
-10.723,7.865,4.953,1.205,10.574,5.038,2.232,3.956
-4.13,13.303,10.046,5.868,16.55,9.121,7.088,7.973
3.381,19.023,15.883,10.534,23.014,13.415,13.164,13.383
3.534,20.158,17.078,10.645,24.317,13.103,15.178,14.609
-1.648,17.981,14.566,8.877,22.055,10.69,14.037,13.145
-2.418,18.66,14.453,11.108,22.837,12.497,15.919,15.177
5.566,24.729,19.277,17.788,28.525,19.336,22.464,21.725
16.096,32.592,24.76,23.856,33.981,25.828,27.974,27.473
20.325,37.201,25.528,25.004,34.06,27.461,27.194,28.061
17.663,37.553,22.355,22.378,30.097,25.462,22.089,24.706
13.409,35.428,19.168,19.261,25.989,22.764,17.256,20.582
9.159,31.435,16.226,16.303,22.131,19.576,13.67,17.139
5.525,28.305,13.475,15.073,19.133,17.725,11.986,16.552
7.623,32.522,15.403,20.217,21.425,22.531,15.682,22.132
17.394,45.056,24.618,31.628,30.574,34.02,25.257,32.9
27.464,56.439,34.438,40.583,39.635,42.825,33.456,41.324
30.42,58.358,36.59,40.416,41.259,41.972,33.393,41.191
28.427,55.004,34.06,36.361,38.878,37.378,29.676,36.925
29.199,55.777,36.778,37.79,41.885,38.911,32.676,38.332
35.379,61.331,45.896,44.351,50.896,45.758,42.545,45.955
40.969,64.455,52.549,48.122,57.169,49.689,49.335,51.056
39.676,61.087,51.474,45.755,55.844,47.568,47.922,49.037
32.523,53.239,44.872,39.202,49.08,41.143,41.048,41.934
25.471,45.64,36.638,31.422,40.531,33.114,32.629,33.394
23.201,42.928,31.27,27.163,34.896,28.659,27.353,28.903
23.788,44.055,30.19,27.521,33.845,29.323,27.059,30.321
21.978,43.442,29.263,27.125,32.952,29.519,27.158,31.675
19.251,41.757,27.397,25.398,30.803,28.032,25.596,30.367
20.926,44.7,28.412,28.079,31.523,30.314,26.14,31.456
23.931,49.705,30.792,33.393,33.956,35.011,28.102,34.619
19.551,47.375,27.319,31.923,30.715,33.079,24.894,31.85
8.291,37.556,17.882,22.871,21.562,23.532,16.424,22.727
-0.157,29.852,11.142,15.964,15.367,15.829,11.122,16.771
-2.687,27.447,9.75,14.646,14.796,13.455,11.252,16.656
-4.32,26.033,8.056,13.497,13.788,11.495,10.447,15.929
-6.193,25.754,5.057,11.831,10.945,10.185,7.668,13.859
-7.065,28.397,3.541,12.329,9.098,12.582,6.957,14.478
-9.395,29.657,1.636,11.702,6.57,14.302,6.969,15.712
-14.402,25.571,-3.065,6.204,1.226,10.016,4.451,13.432
-20.522,18.619,-8.634,-1.234,-4.426,2.549,1.209,9.21
-26.846,13.144,-12.024,-5.717,-7.378,-2.043,0.742,7.201
-32.024,10.281,-12.977,-7.101,-8.324,-3.237,2.616,7.804
-34.654,8.587,-14.216,-8.557,-10.107,-4.706,3.137,8.078
-35.507,7.611,-17.32,-10.433,-13.44,-6.719,0.881,7.051
-36.854,7.17,-21.448,-11.8,-17.355,-8.091,-2.626,5.321
-39.992,5.403,-25.817,-14.646,-21.614,-11.198,-6.754,2
-41.498,4.206,-27.404,-17.441,-23.249,-14.649,-9.77,-1.174
-36.248,9.016,-21.662,-13.881,-17.348,-11.55,-7.744,0.876
-26.175,18.432,-10.421,-4.663,-5.799,-2.347,-0.918,8.043
-16.708,27.016,0.291,3.944,5.009,6.254,6.911,15.483
-7.107,36.121,10.126,12.503,14.832,14.444,15.699,22.96
4.161,47.365,20.407,23.447,25.449,24.553,25.416,31.782
11.036,54.626,25.991,31.852,32.114,31.647,30.999,37.657
8.669,54.109,23.208,33.459,31.076,31.872,30.44,37.682
3.419,51.113,17.872,31.624,27.062,29.312,28.643,35.885
4.527,51.659,17.722,31.556,26.802,29.345,29.853,36.459
12.518,56.211,24.413,35.105,32.356,33.256,34.725,39.996
21.183,61.61,34.645,40.687,41.325,38.862,42.194,45.442
25.063,64.107,42.566,44.557,48.211,42.465,48.025,49.437
24.565,63.001,43.4,44.526,48.439,42.303,47.513,48.798
24.119,60.911,38.48,42.2,43.409,39.958,42.238,45.505
23.148,57.925,32.134,38.935,36.971,36.687,36.853,42.496
18.104,52.609,26.019,33.996,30.289,32.146,32.18,38.405
12.232,47.715,21.22,28.155,24.586,27.015,27.809,32.328
10.82,46.163,19.97,24.141,22.494,23.366,25.423,27.612
13.164,46.939,22.429,23.465,24.158,22.786,25.827,27.174
16.407,49.091,25.728,25.122,26.57,24.651,27.192,29.5
19.51,52.552,26.608,26.96,26.631,26.449,27.016,31.15
21.897,55.626,24.426,28.141,23.778,27.127,24.765,31.277
23.665,57.433,22.532,30.332,21.412,28.777,23.423,32.367
25.167,58.528,23.657,34.17,22.635,31.986,25.508,35.334
25.049,57.325,24.808,36.375,24.478,33.048,28.187,36.69
23.326,53.481,23.317,35.638,23.557,31.236,28.553,35.003
23.321,51.333,22.747,35.937,22.938,31.418,29.04,34.06
26.014,52.737,25.64,38.679,25.445,34.457,31.247,35.018
28.851,54.769,29.138,40.968,28.533,36.461,32.921,35.049
31.672,57.118,31.442,43.042,30.534,37.956,34.212,34.812
35.644,60.896,33.117,46.278,32.289,41.039,36.704,36.291
37.566,62.458,32.831,47.624,32.372,42.327,37.921,36.991
34.295,58.732,29.844,45.372,29.677,39.467,36.192,34.988
30.344,54.225,27.87,44.077,28.034,37.368,35.849,33.902
32.035,54.344,30.337,47.318,30.887,40.314,40.079,37.18
37.409,56.398,34.37,51.046,34.828,44.42,44.474,41.845
40.389,54.976,35.31,49.895,35.041,44.303,44.053,42.879
40.873,51.624,34.109,45.521,32.868,41.353,40.93,40.548
42.81,51.503,33.869,42.68,31.84,39.49,39.487,38.349
46.164,54.684,33.967,42.046,31.769,38.834,40.021,37.577
48.204,57.048,33.267,41.674,31.521,37.983,41.245,37.768
48.8,56.687,33.377,41.047,31.995,37.481,43.306,38.603
48.764,54.976,34.799,40.66,33.187,37.844,45.429,39.035
48.083,53.376,35.524,40.44,33.29,37.814,45.497,37.762
47.695,52.237,34.701,40.019,31.821,36.628,43.102,35.402
48.772,52.029,33.642,39.824,30.376,35.561,40.171,34.132
52.138,54.297,34.771,42.031,31.662,37.431,40.048,36.181
57.954,59.511,39.362,47.802,36.931,43.365,44.635,41.86
62.449,63.799,43.845,52.938,42.229,48.699,50.163,47.433
61.404,63.014,43.913,53.097,42.951,48.769,51.674,49.057
59.01,60.795,43.341,52.806,42.839,48.245,52.334,49.708
62.296,63.658,49.04,58.82,48.913,54.015,58.888,55.182
68.382,68.889,58.173,67.216,58.47,62.252,68.926,63.529
70.823,70.19,62.492,70.219,63.158,65.345,74.293,68.184
70.514,68.982,61.288,69.124,61.954,64.596,73.609,68.394
68.427,66.973,58.37,67.803,58.664,63.819,70.712,66.68
63.061,61.95,55.039,65.436,55.015,62.087,67.907,63.67
58.565,57.07,52.467,62.749,52.515,60.055,66.353,61.253
58.719,57.197,51.64,62.23,52.018,60.21,65.777,61.515
60.29,59.784,51.323,62.485,51.735,60.832,64.382,62.324
62.019,61.557,50.963,61.36,50.67,59.402,62.151,60.792
67.036,64.462,51.347,59.812,50.009,57.286,60.191,57.562
73.221,68.668,51.265,58.541,49.279,56.084,57.332,54.091
74.345,70.323,48.921,56.86,46.636,55.281,52.367,50.64
71.996,69.611,47.369,56.544,44.769,55.869,48.945,49.031
73.735,71.374,51.782,60.728,49.048,60.286,52.168,52.193
79.371,76.03,60.159,67.826,57.689,66.994,59.695,58.774
81.501,78.226,64.365,71.767,62.354,70.313,63.315,62.797
77.524,74.535,60.486,68.783,58.9,66.947,59.447,60.187
72.337,68.079,52.982,61.719,51.603,60.32,52.504,53.344
71.141,65.154,48.7,57.415,47.193,57.147,48.673,48.582
73,66.618,48.634,58.506,46.854,58.689,49.07,48.683
73.815,67.429,49.337,61.026,47.585,60.031,51.096,51.215
73.457,65.958,50.197,61.874,49.186,59.174,53.87,54.101
73.533,64.899,51.861,61.41,52.127,57.965,56.475,56.036
72.882,65.016,52.765,59.618,53.821,56.247,56.085,54.753
70.647,64.861,51.9,55.982,52.439,52.957,52.004,49.902
67.811,63.261,49.113,50.724,48.385,48.375,46.3,43.314
64.993,60.715,44.42,45.095,42.864,43.421,41.517,37.238
62.501,58.905,39.781,41.245,38.097,39.737,39.495,33.853
60.325,57.778,37.195,39.845,35.669,38.284,39.709,33.401
58.513,56.416,36.523,40.162,35.444,38.837,40.391,34.367
58.699,56.187,37.681,42.876,37.422,41.82,41.642,36.357
61.981,58.571,41.379,48.418,41.901,47.062,44.672,39.911
65.877,61.363,46.102,53.331,46.952,51.535,48.109,43.316
66.085,59.936,46.983,52.019,47.625,50.762,47.498,42.194
61.623,53.484,41.216,43.911,41.302,44.181,41.357,35.315
55.561,46.504,32.506,35.415,32.148,37.491,34.577,27.956
49.477,41.477,25.76,30.656,25.212,34.822,30.955,24.374
43.126,37.541,22.062,27.427,21.264,33.727,28.912,22.753
38.891,36.201,21.593,25.139,20.471,32.505,27.718,21.499
39.754,39.591,25.307,27.049,23.965,34.209,29.34,22.774
45.456,45.933,32.344,33.85,30.817,40.662,33.916,28.047
52.887,51.238,38.969,41.275,37.317,48.379,38.824,34.666
58.048,52.908,41.068,43.759,39.4,51.678,40.544,37.308
59.876,51.978,38.076,39.904,36.298,48.694,37.604,34.008
60.4,51.369,33.249,34.076,31.238,43.38,32.963,29.146
58.843,51.012,28.892,30.365,26.763,39.896,29.719,26.21
52.96,49.177,24.728,27.817,22.577,37.745,26.903,23.323
46.373,47.534,22.097,25.003,19.663,35.516,24.096,19.976
45.558,49.661,24.283,24.931,21.24,35.641,24.677,20.157
51.266,56.325,31.082,30.572,27.752,40.869,30.368,25.979
59.21,64.451,37.775,38.078,34.824,47.545,37.082,33.535
65.331,69.349,40.209,40.439,37.401,48.677,39.213,36.821
66.91,68.478,37.846,37.146,34.484,44.251,36.203,34.426
63.377,63.813,32.668,33.402,29.358,40.383,31.9,29.927
57.119,58.939,26.925,31.328,25.102,38.841,28.311,25.827
50.685,54.899,22.146,29.032,21.897,36.483,24.885,21.93
46.608,52.553,20.908,26.926,20.647,33.73,23.201,19.577
49.077,55.629,26.41,29.302,24.697,35.614,26.445,22.306
57.071,64.256,35.945,37.112,32.946,42.945,33.402,30.107
61.952,71.405,40.903,43.668,37.745,48.998,37.762,36.522
60.161,72.705,38.65,43.403,35.785,48.807,36.179,36.336
57.157,71.547,35.735,39.847,32.854,45.691,32.793,32.836
55.936,70.802,35.758,38.629,33.107,44.647,31.95,31.603
52.783,67.343,33.828,37.915,32.457,44.02,31.346,31.391
45.685,58.935,27.342,32.93,27.557,39.228,27.687,27.859
39.029,50.145,21.704,24.705,22.038,30.975,22.812,21.468
36.889,46.536,20.452,18.511,19.242,24.422,19.202,15.931
38.389,49.252,21.536,18.479,18.87,23.81,17.2,13.916
41.273,55.643,23.757,23.446,20.554,28.082,17.206,15.615
44.13,60.83,26.47,27.031,23.047,31.24,18.573,18.259
45.766,62.07,27.557,26.661,24.348,30.841,19.842,19.413
46.173,61.293,27.775,27.728,25.713,31.701,22.154,20.724
46.634,60.244,30.351,33.398,29.81,36.584,27.164,24.379
46.801,57.503,34.185,38.305,34.594,40.341,32.057,27.85
45.508,53.451,35.669,38.168,36.034,39.411,33.222,27.985
44.724,51.904,35.884,36.327,35.5,37.924,32.6,26.983
47.307,54.364,38.167,36.112,37.175,38.782,33.912,28.12
52.256,58.417,41.883,36.767,40.88,39.991,36.735,30.548
56.08,61.704,43.605,37.674,42.693,40.869,38.489,32.15
57.079,63.521,41.74,38.484,40.505,41.692,37.824,32.201
55.037,62.453,37.127,36.674,35.439,39.751,34.053,29.518
49.094,55.974,30.563,30.052,28.827,32.847,27.046,22.818
40.049,44.805,22.623,20.497,21.115,23.675,18.84,13.98
31.859,33.809,15.421,11.998,13.747,16.136,12.375,6.844
27.517,26.543,11.555,6.245,9.138,10.734,8.434,2.38
26.274,23.234,11.203,2.953,8.005,6.858,6.327,-0.755
26.404,23.74,12.06,2.125,8.613,5.554,6.065,-1.905
26.895,26.607,11.293,2.372,8.286,6.092,6.517,-0.82
26.382,28.16,8.151,0.866,6.067,4.928,5.687,-0.483
24.336,28.043,5.841,-1.293,4.894,2.719,5.492,-0.992
22.574,30.355,7.998,0.739,8.065,5.048,9.46,1.789
23.095,36.455,13.79,7.885,14.129,13.042,16.23,8.224
24.275,41.45,18.701,15.046,18.45,20.775,21.247,13.765
21.803,39.426,18.234,16.872,17.446,22.438,21.616,15.15
14.915,30.345,11.052,12.296,10.392,17.159,16.823,12.099
7.565,20.172,0.41,4.309,0.046,8.391,8.493,5.334
2.216,13.858,-8.871,-3.453,-9.196,0.379,-0.147,-3.328
-2.733,10.171,-15.173,-9.952,-15.439,-5.945,-6.991,-11.147
-7.807,6.202,-18.845,-14.731,-18.835,-11.126,-11.578,-15.849
-9.28,3.992,-18.056,-15.112,-17.877,-12.698,-12.544,-15.927
-5.425,6.172,-12.048,-10.341,-12.216,-9.094,-9.586,-12.23
-1.638,8.958,-6.034,-5.157,-7.049,-4.669,-6.802,-9.104
-3.244,7.117,-5.788,-4.721,-7.842,-4.522,-8.073,-10.381
-8.31,1.524,-10.038,-9.247,-13.175,-8.572,-11.834,-15.086
-11.186,-2.197,-12.596,-14.445,-16.747,-12.88,-13.671,-18.413
-8.129,1.068,-9.425,-14.54,-13.917,-12.793,-10.769,-16.31
0.31,11.28,-1.748,-7.512,-5.374,-6.818,-3.741,-9.54
9.526,22.327,6.454,1.897,4.112,0.833,3.961,-2.42
14.547,27.879,11.995,7.54,10.145,4.937,9.025,2.114
15.161,27.819,14.377,9.036,12.332,5.794,11.498,4.717
15.633,26.394,15.439,10.591,13.275,7.749,14.085,7.814
15.991,23.828,14.355,12.046,12.398,10.322,15.852,10.802
10.718,16.491,7.114,7.303,5.551,6.814,11.441,8.654
0.901,7.172,-4.04,-3.431,-5.349,-3.218,1.05,-0.252
-4.768,3.076,-10.318,-10.941,-11.661,-10.847,-7.32,-9.549
-3.891,2.983,-9.39,-11.628,-10.677,-12.136,-9.38,-13.495
-2.194,0.387,-7.34,-10.871,-8.153,-11.761,-8.903,-13.746
-1.043,-2.594,-6.212,-10.132,-6.47,-10.873,-8.338,-12.919
3.874,0.799,-2.357,-6.017,-2.6,-6.329,-5.644,-10.022
10.312,6.309,1.761,-2.017,1.096,-2.062,-2.506,-6.827
9.203,2.576,-1.717,-5.957,-2.501,-6.193,-4.346,-8.589
-0.616,-10.396,-11.953,-16.081,-12.447,-16.632,-10.559,-14.64
-8.557,-20.072,-18.143,-21.639,-18.553,-21.96,-13.75,-17.154
-7.257,-18.967,-14.538,-17.464,-15.244,-16.948,-10.383,-12.389
-2.171,-13.612,-7.736,-9.936,-8.773,-8.75,-6.068,-6.544
-0.77,-13.025,-5.083,-6.672,-6.548,-5.902,-6.44,-6.21
-1.74,-16.699,-5.11,-7.405,-7.191,-8.252,-9.068,-9.505
-0.466,-18.912,-4.311,-8.104,-6.459,-10.634,-9.587,-11.383
3.293,-17.497,-3.096,-6.965,-4.382,-9.965,-8.217,-10.592
5.848,-15.36,-3.231,-5.346,-3.681,-7.709,-7.433,-9.058
2.999,-17.664,-7.062,-7.237,-7.452,-8.487,-9.899,-10.028
-5.299,-26.064,-14.941,-14.413,-15.593,-13.962,-16.119,-14.921
-13.564,-35.724,-21.503,-22.374,-22.214,-20.193,-21.54,-20.352
-17.562,-41.402,-21.955,-25.994,-22.74,-23.522,-21.896,-22.369
-17.242,-41.843,-17.546,-24.248,-18.71,-22.847,-18.191,-20.503
-11.982,-36.774,-10.539,-18.119,-12.278,-17.601,-12.61,-15.757
-2.588,-27.795,-2.71,-10.872,-5.084,-10.614,-6.887,-10.581
4.742,-20.257,2.086,-6.457,-0.713,-6.731,-3.59,-8.246
4.577,-18.09,1.357,-4.268,-1.008,-5.596,-3.306,-8.213
-2.838,-21.809,-3.9,-3.039,-4.825,-5.024,-5.111,-8.452
-13.525,-30.02,-11.167,-5.241,-10.678,-6.903,-8.987,-10.23
-21.21,-37.509,-16.638,-9.801,-15.525,-10.507,-12.533,-12.927
-22.367,-39.489,-17.906,-11.402,-16.39,-10.923,-11.923,-12.277
-21.148,-38.732,-17.403,-10.811,-15.347,-9.326,-9.135,-9.197
-22.617,-40.334,-18.587,-13.694,-16.738,-11.951,-9.978,-9.895
-25.31,-43.322,-21.224,-19.627,-20.796,-18.646,-14.933,-15.421
-24.744,-43.09,-22.592,-22.263,-23.666,-22.921,-18.412,-19.697
-20.052,-38.625,-21.435,-19.754,-22.942,-22.333,-17.218,-19.025
-15.313,-33.989,-20.104,-17.434,-21.325,-21.203,-14.822,-17.092
-13.808,-32.072,-20.675,-17.914,-21.872,-21.613,-14.662,-17.488
-13.559,-30.005,-20.789,-16.426,-22.312,-19.546,-14.664,-17.723
-12.371,-24.959,-18.258,-10.885,-19.846,-14.073,-12.659,-15.256
-12.353,-20.56,-16.114,-7.431,-17.688,-11.07,-11.478,-13.244
-15.141,-21.434,-17.957,-10.334,-20.2,-13.496,-14.029,-15.142
-17.93,-25.006,-22.233,-15.239,-25.322,-16.968,-17.834,-18.362
-18.146,-25.712,-25.136,-16.916,-27.991,-17.694,-18.979,-18.793
-18.316,-24.455,-26.2,-16.761,-28.037,-18.06,-18.501,-17.921
-21.745,-25.446,-27.091,-18.617,-28.48,-21.611,-19.715,-19.565
-25.476,-26.403,-26.365,-21.272,-28.203,-26.34,-20.92,-22.211
-24.167,-22.255,-21.434,-20.834,-24.069,-27.681,-17.84,-21.732
-19.318,-15.381,-15.128,-17.896,-18.353,-25.631,-12.065,-18.991
-16.598,-11.691,-12.398,-15.137,-15.649,-23.089,-8.484,-16.797
-16.554,-10.969,-12.372,-11.577,-15.476,-19.983,-6.852,-14.222
-15.593,-9.198,-11.153,-5.712,-14.376,-14.493,-3.818,-9.863
-12.89,-5.319,-8.323,0.346,-11.366,-7.632,0.944,-4.532
-11.187,-1.769,-6.005,3.476,-8.282,-2.804,5.142,0.355
-13.088,-1.738,-6,2.689,-7.614,-2.197,6.317,2.75
-17.1,-4.775,-8.033,-0.277,-9.341,-4.595,4.13,1.619
-18.377,-5.827,-9.282,-2.19,-10.343,-6.683,1.45,-0.717
-16.017,-2.46,-8.312,-1.781,-9.108,-6.913,0.671,-1.417
-13.907,1.734,-6.706,-0.425,-7.243,-6.004,1.506,-0.024
-13.646,2.686,-5.796,0.63,-6.167,-4.857,2.965,1.962
-14.452,-0.36,-5.733,1.083,-6.193,-4.445,3.936,2.482
-16.526,-5.188,-5.961,1.214,-6.683,-4.88,3.788,1.245
-19.135,-8.936,-5.354,1.52,-6.194,-4.826,3.463,-0.092
-20.003,-10.591,-3.699,2.148,-4.341,-3.53,3.769,-0.714
-18.062,-9.99,-1.819,3.122,-2.331,-1.536,3.952,-1.012
-14.955,-7.861,-0.902,3.853,-1.774,-0.208,2.972,-1.19
-13.906,-7.657,-2.229,3.188,-3.359,-0.938,0.848,-1.904
-15.917,-10.992,-5.03,1.481,-5.387,-3.235,-1.133,-3.718
-17.814,-13.297,-6.3,0.858,-4.893,-4.747,-0.991,-4.904
-15.982,-10.107,-4.056,2.821,-0.822,-3.623,2.525,-3.026
-11.545,-4.743,0.671,5.831,4.648,-0.939,7.709,0.753
-10.242,-5.136,3.59,5.698,6.953,-0.754,9.575,1.571
-15.451,-14.089,0.596,0.061,3.002,-6.018,4.791,-3.306
-23.076,-25.976,-6.217,-8.335,-4.397,-14.841,-3.557,-10.362
-26.917,-33.751,-10.866,-14.89,-9.596,-22.436,-9.587,-14.519
-26.583,-36.464,-12.057,-18.359,-11.395,-26.394,-11.8,-15.828
-25.14,-36.878,-12.309,-19.376,-11.643,-27.048,-12.393,-16.824
-23.311,-36.172,-11.666,-17.325,-10.096,-24.841,-12.261,-17.098
-21.216,-35.359,-9.771,-13.617,-7.203,-21.915,-11.464,-15.741
-19.367,-35.2,-7.92,-11.128,-5.051,-20.29,-10.189,-13.788
-17.023,-34.569,-6.375,-9.686,-3.304,-18.744,-7.968,-12.269
-15.302,-34.385,-5.866,-9.368,-1.694,-17.761,-5.815,-11.935
-16.273,-36.356,-7.176,-11.139,-1.478,-18.947,-5.149,-12.188
-17.951,-38.186,-8.049,-12.468,-1.714,-19.56,-5.011,-11.209
-17.905,-38.598,-7.5,-12.135,-1.716,-18.621,-5.403,-10.593
-16.651,-39.504,-7.232,-12.693,-2.411,-19.475,-7.256,-12.67
-14.226,-39.867,-6.517,-13.318,-2.268,-21.071,-8.061,-14.055
-11.497,-38.302,-4.841,-11.669,-0.628,-20.004,-6.193,-11.943
-12.155,-38.573,-5.464,-10.771,-1.264,-18.736,-5.611,-10.714
-17.326,-43.799,-10.033,-14.523,-6.089,-21.525,-9.746,-14.49
-22.615,-49.974,-15.442,-20.533,-11.548,-26.997,-15.974,-20.331
-23.199,-50.892,-17.28,-22.795,-13.085,-29.789,-18.985,-22.293
-20.437,-47.874,-14.457,-20.501,-10.361,-28.353,-17.292,-19.004
-20.808,-48.46,-11.58,-19.533,-8.401,-27.531,-15.186,-15.674
-26.786,-54.783,-14.07,-23.33,-11.648,-30.937,-17.209,-17.478
-34.088,-61.266,-20.331,-28.225,-17.587,-35.489,-22.069,-22.74
-38.076,-63.486,-23.639,-29.498,-20.352,-36.754,-24.713,-25.604
-38.082,-62.953,-22.67,-27.738,-19.635,-35.468,-24.259,-24.767
-36.662,-63.336,-22.601,-27.232,-19.993,-35.285,-24.568,-24.405
-34.962,-63.749,-23.62,-28.331,-20.814,-35.97,-25.364,-24.812
-31.982,-60.426,-21.045,-27.222,-17.581,-34.569,-22.847,-21.946
