EEG 1,EEG 2,EEG 3,EEG 4,EEG 5,EEG 6,EEG 7,EEG 8
116.268,151.212,124.797,133.201,129.536,142.163,130.465,124.738
112.749,147.686,121.54,132.53,126.522,142.143,130.786,127.124
117.43,149.539,122.533,136.216,126.284,146.614,132.462,131.657
122.179,152.784,125.445,139.282,127.365,150.11,134.119,134.81
119.355,150.094,123.674,135.335,124.385,145.872,131.123,130.472
112.431,140.603,116.066,125.425,116.651,134.951,122.284,118.767
111.138,133.337,110.95,119.305,112.191,127.999,116.004,111.952
115.757,134.019,113.143,121.357,115.25,130.022,118.428,117.141
118.495,137.373,117.333,124.646,119.818,133.689,123.787,124.773
117.431,136.521,117.172,122.379,119.176,131.649,123.514,123.729
114.722,131.094,111.927,115.55,113.048,124.667,116.527,114.641
109.878,124.924,104.872,108.6,105.377,117.331,107.517,104.311
105.065,121.758,100.676,105.125,100.793,114.079,101.967,98.913
107.206,123.898,103.031,106.838,102.25,116.716,103.29,101.494
116.197,129.264,109.316,110.661,107.025,120.647,108.76,107.453
120.555,130.672,111.483,111.695,108.646,120.584,112.191,110.669
112.345,122.625,105.597,107.966,104.11,115.923,110.379,110.187
96.791,107.403,94.56,97.602,94.326,105.084,101.41,101.32
84.227,94.125,84.28,83.456,83.494,90.457,87.701,82.788
80.352,90.781,80.383,77.057,78.802,84.094,80.118,71.165
84.49,96.457,83.438,82.777,82.241,90.48,84.086,77.926
92.928,104.446,88.884,90.43,87.724,98.429,91.152,89.919
101.741,110.413,93.001,92.33,90.421,99.892,94.08,94.323
106.648,113.378,94.197,91.038,90.282,98.004,94.283,93.603
104.318,111.897,90.907,87.942,86.838,94.561,91.287,88.005
96.342,105.192,83.863,81.324,80.225,88.03,83.581,75.801
87.681,97.12,77.397,74.503,74.673,81.705,77.357,66.247
82.058,93.12,75.688,72.644,74.053,80.283,78.579,67.619
82.042,94.084,79.106,75.395,77.27,83.022,83.813,75.093
85.496,95.941,82.167,77.31,78.956,84.238,85.502,78.456
84.332,94.431,78.286,73.544,74.432,79.051,79.839,72.279
77.645,91.006,70.811,67.607,67.431,71.982,71.642,62.617
73.172,89.013,67.699,66.079,64.71,70.457,67.824,58.23
70.374,84.872,66.086,65.705,63.134,70.559,65.784,56.695
62.98,75.16,60.667,61.509,57.918,66.875,61.752,54.49
54.57,65.511,56.907,57.744,54.133,63.649,60.188,54.46
53.659,62.901,60.673,59.255,57.08,64.867,64.341,57.549
61.059,68.367,68.647,65.523,64.394,69.909,71.494,64.029
68.674,76.107,73.078,71.573,69.623,74.914,76.297,70.865
67.248,76.379,68.994,69.235,66.824,71.946,72.897,67.141
58.455,68.618,60.42,58.842,57.809,61.253,62.805,52.914
55.71,65.808,57.893,53.923,53.245,56.988,57.17,47.218
65.189,74.363,63.939,60.831,57.969,64.849,61.028,57.241
74.226,82.135,67.712,66.834,62.313,70.372,64.565,63.837
70.929,78.676,62.225,61.749,58.088,63.958,60.062,55.552
62.361,71.256,55.314,53.799,51.339,56.145,53.751,46.342
58.08,68.423,53.667,51.529,48.734,55.405,51.462,44.928
55.423,66.403,52.514,50.16,46.974,54.931,49.235,42.047
52.496,61.84,49.034,45.628,43.669,50.477,44.834,35.362
55.602,61.346,49.665,45.205,44.576,50.721,44.921,36.808
65.596,69.516,56.772,54.129,52.575,60.805,53.639,50.485
69.793,77.003,60.431,61.833,58.417,68.733,60.978,60.399
59.637,72.27,54.22,56.816,54.002,63.094,56.199,53.865
47.157,60.222,47.158,46.264,46.582,52.632,46.326,43.276
47.852,54.398,48.635,42.581,46.082,50.061,43.058,42.092
58.643,57.257,54.917,44.329,50.116,52.806,44.56,43.099
64.847,60.361,56.267,43.751,50.444,52.438,43.944,38.522
59.591,57.608,48.779,38.854,44.045,47.303,39.895,32.049
51.484,53.61,39.922,34.768,37.079,43.301,36.261,29.736
50.744,55.346,38.694,36.16,36.92,45.414,36.979,33.749
52.966,57.34,40.644,37.551,39.141,47.559,37.557,35.417
51.625,52.134,38.75,33.591,36.904,43.784,32.981,27.897
51.588,46.502,38.201,31.374,35.373,41.289,30.32,23.469
54.867,47.616,42.32,35.69,38.822,44.954,34.332,29.988
55.213,50.215,44.359,39.864,41.246,48.044,36.944,34.614
51.809,48.841,42.689,39.949,40.022,47.101,34.03,31.19
49.545,45.743,42.634,39.072,39.473,45.81,31.479,29.094
47.698,42.3,42.19,37.133,38.447,43.953,29.777,28.726
41.315,35.001,35.355,31.039,31.924,38.035,23.506,22.12
32.851,24.786,27.301,24.472,24.406,31.362,16.8,15.027
30.458,19.878,27.338,24.496,24.441,30.706,17.906,17.635
34.92,22.726,32.421,29.55,29.45,34.785,23.133,24.752
38.975,25.979,34.205,33.131,31.69,37.837,25.27,28.598
37.593,24.809,32.973,33.867,31.137,38.723,25.808,30.863
31.436,20.13,31.166,31.164,29.472,36.186,25.342,29.381
23.135,12.392,25.284,22.083,23.084,26.771,18.69,17.933
17.404,5.032,16.817,11.765,13.78,16.219,8.745,4.605
20.16,5.623,16.13,11.512,11.861,16.466,7.034,4.604
30.202,14.274,25.299,21.139,19.59,26.392,15.236,15.527
37.876,21.445,33.184,29.391,26.918,33.441,23.151,23.578
36.587,20.569,31.835,29.965,26.578,31.807,24.547,25.076
31.075,15.345,25.47,25.488,21.669,25.548,21.761,23.865
31.016,13.78,22.443,21.698,18.926,20.791,18.727,21.049
37.332,17.316,24.132,21.545,19.836,20.023,17.009,16.916
40.756,19.756,24.762,22.596,20.099,20.648,16.411,14.68
36.89,18.56,22.356,23.133,18.387,21.324,17.606,18.749
32.022,18.086,21.492,25.15,18.475,24.008,20.962,27.018
30.504,19.379,22.728,26.319,19.867,25.274,22.126,28.207
30.862,18.549,21.605,21.232,17.663,19.21,16.9,17.827
33.563,15.545,18.743,12.71,12.891,9.811,9.382,7.535
38.758,14.166,17.802,8.254,10.457,5.287,5.686,5.563
41.683,14.881,16.925,7.935,9.552,4.796,4.596,5.136
39.9,15.362,13.911,7.855,7.758,3.668,3.469,2.74
37.417,15.717,12.331,9.446,7.893,3.692,5.206,6.542
36.265,16.988,13.555,14.389,11.143,7.241,10.641,17.557
34.437,18.024,13.317,17.921,12.871,9.748,13.454,22.78
32.889,17.066,10.766,15.473,10.927,6.306,9.634,15.034
32.69,12.839,9.668,8.829,8.483,-1.628,3.2,2.184
31.093,6.508,11.134,3.304,8.146,-8.433,0.037,-4.716
27.682,2.3,12.278,1.637,8.836,-10.674,0.875,-3.36
25.617,2.243,11.27,1.856,8.506,-10.505,2.229,-0.756
26.345,5.004,11.2,3.751,9.023,-8.976,4.523,1.216
28.037,7.849,14.305,8.229,12.366,-5.231,9.94,6.993
28.542,7.031,16.266,9.236,14.187,-5.154,12.982,9.593
27.696,2.251,13.631,2.038,10.75,-13.72,8.247,-0.273
26.145,-1.864,10.273,-5.793,6.331,-22.981,1.933,-12.193
25.067,-2.351,10.57,-5.762,5.993,-23.67,2.207,-11.117
25.097,-1.703,12.058,-1.323,7.653,-19.206,6.539,-1.707
24.45,-2.309,11.431,1.324,7.912,-16.143,8.991,3.907
22.441,-1.718,11.609,3.126,8.421,-13.817,10.183,5.216
20.778,1.028,14.059,4.784,9.654,-11.972,11.661,5.611
20.78,2.593,14.402,3.965,8.608,-13.156,11.678,4.925
23.775,4.059,12.123,3.005,6.464,-14.56,10.532,4.323
28.185,8.522,11.108,5.661,6.475,-11.767,9.884,4.507
28.094,10.927,11.283,9.614,7.098,-6.999,9.559,4.845
22.53,5.474,10.963,10.11,6.201,-5.715,9.527,5.95
16.561,-4.585,9.66,4.99,3.729,-10.847,8.463,4.87
11.555,-12.621,5.923,-2.865,-0.573,-19.482,4.675,-0.93
6.684,-15.622,1.053,-7.172,-4.827,-24.622,1.003,-5.474
5.268,-14.181,-0.721,-6.194,-5.693,-23.717,1.069,-3.279
10.998,-9.169,2.206,-2.474,-1.911,-19.185,5.231,3.676
20.31,-2.357,8.015,1.944,4.862,-14.113,11.464,10.313
24.16,2.355,13.049,4.785,10.492,-11.559,16.023,13.028
20.096,4.892,13.841,5.312,11.817,-11.72,15.979,11.191
13.211,6.223,8.312,2.504,7.448,-15.224,9.26,2.278
5.869,1.796,-1.845,-5.101,-1.359,-23.611,-2.215,-11.752
0.548,-7.069,-8.281,-10.776,-6.614,-29.412,-7.911,-15.878
1.148,-11.586,-6.13,-9.171,-3.511,-26.92,-3.179,-5.886
3.247,-12.629,-3.432,-9.623,-0.772,-26.821,0.251,-1.46
2.697,-15.126,-5.979,-16.669,-4.294,-34.331,-4.383,-10.907
5.48,-14.267,-6.607,-18.618,-5.837,-36.545,-7.277,-16.913
12.357,-7.528,-1.372,-10.919,-0.598,-28.17,-2.582,-10.4
15.174,-1.206,3.85,-2.53,5.252,-18.66,4.047,-0.798
13.781,1.719,6.206,1.789,7.907,-13.31,8.857,5.576
14.526,2.731,7.1,2.863,8.488,-11.79,11.167,8.041
16.106,1.536,5.674,0.192,6.751,-14.695,8.518,4.205
13.849,-2.096,2.081,-4.935,3.173,-19.708,1.688,-4.024
10.228,-6.396,-0.397,-8.696,1.049,-22.2,-3.369,-8.297
9.112,-9.354,-0.417,-9.432,1.735,-21.288,-3.105,-4.402
9.224,-10.029,0.115,-8.922,2.525,-19.868,-1.209,0.64
8.624,-9.614,-1.197,-9.832,0.356,-20.585,-3.103,-1.716
5.502,-11.139,-6.179,-12.878,-5.43,-23.491,-8.815,-9.109
-1.389,-15.564,-13.732,-16.242,-12.71,-26.439,-14.633,-14.421
-7.312,-18.994,-18.396,-16.933,-16.977,-26.564,-17.604,-15.836
-6.141,-17.345,-15.746,-12.937,-14.491,-22.091,-15.949,-13.419
0.548,-12.349,-7.648,-6.123,-6.646,-14.833,-10.457,-7.031
6.607,-8.803,-0.591,-2.403,-0.06,-10.498,-6.31,-1.714
9.002,-8.036,-0.224,-5.684,-0.594,-13.206,-8.273,-4.97
8.635,-8.082,-5.608,-12.029,-6.505,-19.111,-13.515,-14.036
8.076,-7.214,-9.773,-13.405,-10.125,-19.424,-13.932,-15.32
9.23,-4.815,-8.908,-7.931,-7.926,-11.996,-7.446,-4.597
10.444,-2.746,-6.373,-2.668,-4.388,-5.21,-1.5,4.625
9.385,-4.159,-5.211,-3.416,-3.564,-6.167,-1.708,2.549
7.312,-8.245,-5.189,-8.36,-4.442,-12.499,-5.706,-5.739
5.443,-10.629,-6.584,-13.392,-5.603,-18.309,-9.745,-13.103
3.893,-8.56,-8.264,-15.355,-6.232,-19.793,-11.787,-15.954
4.432,-3.41,-8.203,-13.467,-5.841,-17.551,-11.79,-14.331
7.459,1.204,-8.32,-10.509,-5.826,-15.053,-11.87,-11.824
9.702,2.677,-11.452,-9.211,-7.448,-13.73,-12.888,-10.68
9.067,1.081,-15.969,-10.209,-9.783,-13.789,-14.116,-11.545
8.488,-0.28,-17.643,-12.796,-10.67,-15.718,-15.393,-14.986
10.404,1.166,-16.78,-16.395,-10.573,-19.284,-18.177,-21.414
12.967,3.389,-17.814,-20.965,-12.546,-23.579,-23.546,-29.556
14.836,5.273,-18.935,-23.128,-14.331,-24.74,-26.528,-31.508
15.503,8.351,-14.993,-19.341,-10.69,-19.851,-21.448,-21.473
13.077,9.451,-11.214,-15.991,-6.229,-16.589,-15.674,-13.39
7.897,4.532,-15.078,-20.647,-9.047,-22.732,-19.902,-23.072
2.317,-2.987,-20.901,-27.264,-15.041,-30.688,-28.165,-38.046
-3.095,-7.308,-20.618,-27.065,-15.789,-30.556,-28.628,-38.178
-5.954,-5.514,-16.832,-21.735,-12.006,-24.46,-22.312,-26.89
-3.026,1.064,-14.616,-18.047,-8.827,-20.143,-17.181,-19.313
0.141,4.826,-15.105,-20.503,-9.145,-22.493,-17.265,-20.636
-4.138,0.044,-19.204,-28.284,-13.991,-30.073,-22.532,-27.092
-11.366,-7.936,-26.008,-36.044,-21.267,-37.262,-30.147,-35.058
-13.275,-10.872,-30.261,-38.77,-25.527,-39.75,-34.432,-40.004
-12.79,-10.292,-30.101,-36.591,-25.334,-37.505,-32.877,-37.867
-17.8,-12.821,-31.125,-34.977,-26.257,-35.143,-30.754,-33.509
-27.085,-18.063,-35.796,-37.862,-31.092,-37.021,-32.864,-34.498
-32.5,-21.619,-39.301,-42.793,-35.673,-41.555,-36.939,-39.239
-30.368,-23.048,-38.044,-44.629,-36.106,-43.332,-38.769,-40.622
-24.048,-23.135,-33.075,-41.086,-32.517,-39.46,-36.783,-34.756
-20.173,-22.719,-29.843,-36.113,-29.584,-34.045,-33.765,-26.619
-23.309,-24.647,-34.23,-36.819,-33.235,-34.907,-35.639,-27.907
-30.304,-28.817,-42.683,-43.297,-41.245,-42.389,-42.603,-39.546
-34.75,-31.754,-46.751,-48.789,-45.854,-49.25,-48.1,-48.554
-36.551,-33.097,-46.453,-50.94,-46.103,-52.956,-49.959,-50.464
-37.617,-32.801,-44.347,-50.121,-44.023,-53.867,-49.14,-49.725
-34.464,-28.044,-37.207,-43.193,-37.005,-48.07,-42.556,-43.396
-27.724,-21.86,-27.296,-33.179,-27.614,-38.113,-32.514,-32.065
-26.494,-22.486,-25.114,-31.274,-26.091,-36.217,-30.189,-28.683
-32.5,-28.628,-31.736,-38.077,-33.125,-43.921,-37.093,-36.046
-37.812,-30.879,-36.711,-41.131,-37.586,-47.953,-40.839,-39.732
-39.823,-28.37,-35.978,-36.99,-35.359,-44.089,-37.022,-35.538
-41.885,-28.658,-35.287,-35.186,-33.248,-42.701,-34.638,-34.923
-45.635,-34.217,-38.122,-39.678,-35.353,-48.173,-37.325,-39.809
-51.086,-41,-42.118,-45.383,-39.323,-54.243,-39.341,-41.816
-58.044,-46.48,-45.721,-50.142,-43.771,-58.08,-39.499,-41.752
-63.935,-50.447,-50.207,-55.739,-49.692,-62.678,-43.048,-46.502
-65.497,-52.059,-55.124,-60.612,-55.707,-67.539,-49.99,-52.892
-65.63,-52.725,-58.556,-61.986,-59.359,-69.123,-54.485,-53.03
-70.058,-56.698,-61.52,-63.033,-62.295,-69.963,-56.837,-51.967
-75.98,-63.144,-65.073,-67.522,-66.474,-74.707,-62.139,-58.815
-73.978,-63.894,-64.485,-70.016,-67.269,-78.435,-67.38,-66.927
-64.301,-56.756,-57.525,-65.539,-61.974,-75.198,-66.798,-67.001
-60.551,-51.451,-53.323,-61.333,-58.604,-71.277,-64.698,-64.57
-67.362,-53.049,-57.236,-63.427,-61.816,-73.318,-66.855,-66.669
-72.215,-55.402,-60.871,-66.244,-64.314,-76.865,-70.032,-70.176
-70.163,-55.791,-59.488,-65.554,-62.28,-76.972,-69.638,-69.769
-69.786,-57.56,-58.644,-65.136,-60.945,-76.018,-67.334,-66.711
-73.017,-61.19,-60.817,-68.227,-63.147,-78.067,-67.986,-68.214
-76.549,-66.059,-64.163,-73.793,-67.438,-83.618,-73.711,-77.256
-81.497,-71.727,-67.692,-78.041,-71.551,-88.397,-79.722,-84.91
-84.561,-73.345,-68.221,-76.012,-71.207,-86.405,-78.097,-80.316
-80.676,-68.935,-64.652,-69.393,-66.49,-79.572,-71.015,-69.801
-76.203,-65.921,-62.965,-67.427,-65.08,-77.426,-69.959,-70.334
-77.808,-67.599,-65.599,-71.165,-68.742,-80.434,-75.439,-80.042
-77.311,-65.489,-65.782,-70.112,-68.831,-78.088,-75.216,-80.086
-66.791,-55.912,-60.037,-61.779,-61.833,-69.19,-66.483,-68.052
-57.666,-50.055,-55.934,-58.064,-56.638,-66.488,-61.302,-62.978
-62.436,-55.377,-58.847,-63.988,-59.286,-73.904,-65.346,-72.122
-70.918,-60.78,-61.164,-67.439,-61.834,-77.698,-67.778,-78.248
-71.231,-56.935,-57.615,-61.85,-58.346,-71.469,-62.309,-72.049
-71.597,-54.646,-57.179,-58.861,-57.847,-68.162,-59.791,-67.913
-78.315,-62.323,-64.955,-64.447,-65.821,-73.892,-65.859,-73.042
-80.354,-66.739,-69.843,-65.807,-70.772,-75.042,-68.125,-73.188
-71.701,-57.92,-63.864,-56.272,-64.72,-64.966,-59.632,-61.31
-64.639,-49.571,-56.906,-49.867,-58.529,-58.455,-52.901,-52.839
-67.757,-54.578,-58.782,-56.321,-61.961,-65.205,-57.452,-59.364
-72.001,-63.39,-62.473,-63.099,-66.511,-71.875,-63.093,-67.471
-69.61,-63.161,-59.041,-57.804,-62.396,-66.341,-58.882,-62.019
-64.806,-56.914,-52.576,-48.267,-54.824,-57.744,-50.877,-52.155
-61.262,-52.911,-49.438,-46.125,-51.824,-57.45,-48.687,-52.345
-58.002,-51.605,-47.591,-47.897,-51.023,-59.88,-49.146,-56.3
-56.595,-50.14,-44.288,-45.156,-47.631,-56.053,-44.833,-51.607
-59.148,-49.455,-42.559,-40.448,-44.319,-50.547,-38.267,-42.724
-60.801,-50.73,-43.554,-40.814,-44.683,-51.486,-36.464,-40.61
-57.717,-52.458,-44.158,-45.581,-46.819,-56.844,-39.647,-44.952
-57.299,-53.836,-44.449,-49.265,-48.444,-60.252,-42.817,-47.821
-63.461,-54.433,-46.32,-49.533,-49.893,-60.131,-43.279,-46.375
-65.509,-53.095,-48.302,-48.213,-51.597,-58.901,-43.073,-45.855
-57.516,-50.683,-49.315,-47.548,-53.55,-58.427,-44.56,-48.765
-51.169,-50.285,-52.347,-48.448,-56.719,-59.062,-47.274,-50.536
-56.897,-53.475,-58.537,-51.227,-61.379,-61.261,-50.079,-50.016
-66.684,-57.505,-62.557,-55.24,-64.683,-65.168,-52.677,-51.518
-68.695,-58.753,-61.664,-59.171,-65.173,-69.703,-55.646,-56.27
-64.888,-57.109,-60.618,-61.146,-65.167,-72.437,-58.275,-59.998
-60.343,-52.72,-59.862,-57.379,-63.514,-69.326,-56,-56.444
-55.508,-47.3,-56.536,-49.191,-59.13,-61.623,-49.834,-47.646
-56.014,-49.288,-58.081,-48.941,-60.898,-61.462,-53.127,-48.975
-64.25,-59.855,-68.478,-60.423,-71.825,-73.089,-68.822,-64.869
-67.557,-63.911,-72.456,-65.772,-75.547,-79.158,-75.854,-72.686
-58.495,-54.867,-60.579,-55.139,-63.15,-69.256,-62.576,-57.739
-46.036,-43.487,-45.031,-42.398,-47.82,-56.941,-44.92,-37.507
-34.347,-32.24,-33.614,-34.315,-36.873,-49.581,-33.26,-26.429
-20.243,-15.999,-21.453,-22.454,-24.112,-38.714,-20.078,-15.183
-9.844,-3.664,-11.006,-10.353,-12.365,-27.303,-7.052,-2.427
-11.044,-6.241,-9.807,-10.414,-10.707,-27.917,-5.765,-3.599
-18.515,-16.158,-15.102,-19.589,-16.429,-38.099,-14.496,-19.45
-22.25,-20.02,-19.266,-26.269,-20.946,-46.293,-22.158,-33.687
-20.822,-17.342,-19.777,-28.487,-21.895,-49.826,-25.101,-38.163
-18.179,-14.315,-17.122,-28.784,-20.243,-50.348,-24.776,-34.956
-15.902,-11.14,-12.535,-25.158,-16.192,-45.808,-20.49,-25.459
-13.845,-4.951,-8.985,-17.617,-11.66,-37.291,-13.514,-14.082
-12.409,2.444,-9.614,-12.81,-10.799,-32.532,-10.473,-10.816
-10.92,7.53,-14.002,-13.598,-14.468,-34.227,-14.308,-16.288
-9.459,9.66,-18.988,-14.84,-18.82,-36.298,-19.458,-19.421
-8.348,11.353,-21.362,-12.617,-19.604,-34.486,-20.167,-15.577
-2.198,18.135,-16.451,-5.946,-12.926,-28.013,-14.033,-7.028
12.119,31.462,-2.609,5.187,1.372,-16.979,-1.779,5.701
26.524,44.132,12.818,16.559,15.785,-5.835,10.423,17.985
33.705,49.659,21.169,22.063,22.511,-0.922,15.421,21.402
34.462,48.726,21.084,20.242,21.085,-3.49,12.306,15.482
30.439,45.385,16.474,16.381,16.472,-7.914,7.707,10.756
23.672,42.894,11.735,16.602,13.434,-7.935,8.174,15.51
18.797,42.513,8.752,19.351,12.408,-5.031,9.993,22.396
19.143,46.146,8.888,21.339,13.199,-2.589,8.291,22.492
23.326,53.796,13.039,23.661,16.788,-0.037,7.448,20.335
25.328,57.031,15.009,22.117,17.588,-2.018,6.214,16.833
22.924,51.1,10.434,14.126,11.631,-10.767,-0.168,8.737
22.735,46.446,8.407,11.496,8.953,-13.78,-2.25,5.831
26.106,49.694,13.272,20.697,14.882,-4.552,5.288,13.958
24.724,51.844,15.154,30.35,18.914,4.851,10.326,22.511
16.912,45.914,11.303,30.726,16.075,4.181,7.534,23.552
5.759,33.418,6.653,21.916,10.446,-5.841,2.637,17.904
-13.5,13.581,-4.884,4.051,-1.888,-23.78,-7.637,4.579
-41.033,-12.6,-28.281,-20.578,-24.485,-47.43,-28.69,-17.315
-60.486,-32.841,-48.561,-39.647,-44.286,-66.165,-50.076,-38.34
-59.169,-35.884,-51.053,-41.34,-47.899,-68.765,-58.704,-45.504
-47.252,-26.403,-42.673,-29.175,-40.26,-57.305,-55.384,-37.653
-43.401,-17.889,-37.308,-17.338,-33.5,-45.1,-47.871,-25.671
-53.208,-20.957,-40.72,-18.541,-34.72,-45.974,-46.174,-24.422
-68.668,-36.088,-50.936,-33.37,-44.071,-61.425,-55.988,-38.196
-77.062,-47.892,-57.124,-44.234,-50.438,-72.702,-65.103,-49.294
-69.616,-40.904,-47.332,-34.37,-40.694,-61.863,-56.94,-39.543
-53.102,-24.439,-27.466,-14.03,-21.169,-40.105,-38.112,-19.196
-46.685,-20.661,-18.527,-6.96,-12.955,-32.221,-30.115,-12.082
-57.962,-32.794,-28.297,-16.868,-22.531,-41.549,-37.407,-21.041
-74.225,-46.769,-42.835,-28.678,-35.922,-52.996,-46.059,-30.313
-81.222,-53.392,-48.708,-32.488,-41.074,-57.294,-48.758,-31.85
-78.984,-53.897,-47.166,-30.466,-39.549,-56.528,-49.902,-30.221
-75.789,-52.328,-44.433,-27.265,-36.982,-54.508,-50.804,-27.925
-73.962,-49.542,-41.516,-23.683,-34.322,-50.901,-48.361,-23.131
-72.807,-48.027,-41.111,-23.119,-34.135,-48.815,-48.161,-24.362
-76.783,-54.169,-49.081,-31.276,-41.754,-55.329,-59.109,-41.473
-86.95,-66.113,-60.81,-42.839,-52.847,-66.476,-73.612,-60.043
-95.277,-72.755,-64.195,-45.805,-56.018,-70.118,-74.759,-59.036
-94.236,-68.943,-56.6,-38.493,-48.547,-63.753,-60.587,-43.013
-87.464,-62.771,-47.077,-32.032,-39.523,-57.512,-45.601,-31.991
-86.91,-66.271,-46.272,-38.142,-39.983,-62.1,-42.553,-36.108
-96.565,-80.106,-57.459,-54.346,-52.263,-75.68,-51.842,-49.962
-107.732,-93.687,-74.311,-67.701,-69.04,-88.283,-66.737,-65.575
-110.298,-97.547,-84.295,-70.849,-78.716,-94.096,-76.891,-78.029
-99.697,-88.684,-77.503,-62.591,-71.878,-89.408,-70,-75.291
-82.579,-74.281,-60.936,-47.982,-54.783,-76.597,-50.92,-55.439
-76.4,-70.251,-54.859,-42.24,-48.681,-71.09,-45.655,-46.258
-89.491,-83.549,-65.749,-53.125,-61.301,-81.318,-63.133,-64.231
-109.087,-102.503,-80.298,-68.573,-77.506,-94.848,-81.619,-85.611
-117.046,-111.38,-86.596,-74.665,-83.461,-98.039,-84.965,-87.811
-110.538,-108.971,-84.223,-72.608,-80.012,-94.006,-79.58,-78.283
-104.195,-109.09,-80.637,-73.542,-76.28,-96.134,-77.279,-73.748
-109.712,-120.449,-83.527,-82.056,-79.455,-108.008,-81.389,-79.099
-120.562,-134.303,-91.787,-90.625,-87.477,-117.391,-87.091,-87.342
-125.468,-139.531,-97.222,-90.854,-92.215,-114.834,-88.043,-88.596
-122.293,-135.315,-93.426,-81.278,-87.689,-103.747,-79.907,-77.359
-111.532,-123.385,-79.93,-65.606,-73.895,-89.473,-64.125,-58.56
-96.056,-107.965,-64.789,-53.55,-59.393,-78.213,-52.394,-49.603
-88.935,-102.212,-62.012,-56.375,-57.991,-80.656,-56.851,-62.483
-99.2,-112.225,-75.555,-70.729,-72.752,-95.404,-73.019,-83.485
-114.984,-125.117,-91.141,-80.536,-89.138,-105.254,-83.47,-89.39
-119.338,-128.589,-94.28,-80.751,-93.221,-103.552,-79.267,-78.574
-110.674,-123.726,-86.066,-78.61,-86.226,-98.871,-67.756,-67.307
-98.84,-115.749,-76.677,-76.195,-77.721,-94.68,-61.514,-64.398
-94.076,-110.692,-75.438,-74.428,-76.644,-91.738,-68.217,-69.502
-97.677,-112.49,-82.186,-78.485,-83.456,-95.279,-82.675,-81.068
-97.556,-112.826,-83.162,-82.462,-84.974,-99.564,-85.719,-86.186
-83.055,-99.522,-69.33,-72.606,-71.202,-90.037,-67.549,-70.472
-63.09,-78.951,-53.495,-54.814,-54.314,-72.026,-47.434,-48.691
-56.13,-70.951,-52.322,-49.952,-52.583,-67.174,-48.254,-46.787
-64.532,-79.129,-61.916,-58.996,-63.035,-76.91,-62.018,-59.954
-72.454,-86.565,-66.664,-63.653,-68.388,-82.027,-65.562,-66.992
-68.041,-81.601,-60.65,-56.38,-61.493,-74.173,-55.02,-61.521
-56.875,-71.028,-49.587,-45.864,-49.223,-62.782,-43.308,-48.791
-53.922,-69.542,-44.777,-45.353,-44.471,-62.762,-43.182,-44.087
-65.699,-82.36,-55.718,-61.606,-56.477,-80.555,-59.893,-63.208
-82.536,-98.733,-76.476,-84.237,-77.797,-103.129,-82.627,-93.17
-91.907,-106.552,-89.446,-95.348,-90.414,-111.952,-91.889,-103.82
-92.67,-106.33,-88.325,-91.875,-88.867,-106.604,-84.72,-90.207
-93.279,-106.765,-84.99,-87.831,-85.521,-102.795,-79.497,-78.675
-100.701,-113.699,-91.204,-95.095,-92.122,-110.916,-91.363,-93.233
-110.565,-122.828,-101.996,-106.876,-103.475,-121.93,-110.304,-120.742
-111.637,-123.806,-102.846,-107.24,-104.664,-120.146,-112.331,-124.162
-99.681,-112.309,-88.015,-93.058,-90.189,-104.803,-91.047,-96.277
-84.65,-97.39,-69.826,-78.201,-72.784,-90.7,-69.076,-71.852
-80.658,-93.166,-66.929,-77.036,-70.498,-90.935,-70.74,-75.547
-85.35,-98.439,-78.003,-85.715,-81.649,-100.452,-89.164,-90.993
-85.225,-99.411,-85.27,-90.142,-89.367,-104.59,-101.789,-97.482
-79.12,-93.052,-83.232,-87.169,-88.384,-100.262,-103.49,-95.51
-75.823,-87.845,-79.505,-82.629,-85.135,-94.486,-100.252,-88.794
-77.278,-87.114,-77.563,-79.261,-82.744,-90.899,-94.828,-79.974
-78.341,-86.743,-76.488,-77.042,-81.273,-88.789,-91.699,-76.948
-77.693,-86.092,-77.867,-78.05,-82.805,-89.395,-95.276,-82.575
-78.766,-89.306,-82.54,-83.349,-87.787,-93.755,-101.091,-88.975
-81.222,-95.52,-87.263,-88.961,-92.713,-98.077,-102.925,-90.894
-81.009,-98.211,-88.439,-90.157,-93.844,-98.2,-100.786,-90.779
-78.25,-95.374,-85.113,-86.453,-90.087,-94.34,-94.556,-88.874
-78.591,-93.834,-82.129,-83.25,-86.628,-91.728,-87.309,-87.472
-85.188,-99.715,-87.625,-87.828,-91.922,-96.927,-90.578,-95.39
-91.014,-105.941,-97.37,-95.94,-101.62,-104.842,-102.594,-107.877
-84.774,-99.134,-93.982,-91.75,-98.297,-99.159,-99.066,-102.105
-68.146,-82.257,-75.087,-73.574,-79.523,-79.291,-72.73,-74.318
-57.256,-73.761,-61.639,-61.127,-65.988,-66.418,-51.916,-54.514
-59.018,-78.959,-64.649,-64.461,-68.637,-70.311,-54.281,-61.369
-60.659,-82.222,-68.645,-68.403,-72.068,-74.365,-60.503,-73.231
-53.733,-75.075,-61.741,-60.986,-64.358,-65.666,-54.11,-67.093
-48.712,-70.778,-56.092,-54.832,-57.888,-57.462,-48.288,-55.263
-54.046,-79.242,-63.632,-63.23,-65.239,-64.557,-56.51,-57.912
-63.311,-91.039,-76.255,-77.391,-78.625,-78.038,-69.165,-69.564
-70.054,-97.384,-83.893,-84.983,-87.235,-84.004,-74.37,-76.04
-75.265,-101.43,-89.765,-88.867,-93.236,-85.654,-77.531,-77.909
-80.162,-106.104,-97.269,-95.422,-100.387,-91.389,-86.468,-83.423
-83.51,-109.084,-100.611,-101.536,-103.98,-98.116,-94.24,-91.85
-83.393,-108.024,-95.522,-100.421,-99.437,-96.996,-90.303,-91.76
-78.782,-103.163,-86.342,-92.82,-90.488,-87.963,-78.624,-80.109
-69.975,-95.311,-78.145,-84.751,-82.744,-78.149,-70.818,-69.355
-58.679,-84.612,-70.918,-77.369,-76.296,-69.576,-68.148,-65.642
-48.457,-73.354,-63.612,-68.655,-69.355,-60.4,-63.351,-61.095
-40.267,-63.869,-55.545,-59.129,-61.248,-51.372,-53.461,-51.212
-32.411,-56.692,-46.483,-51.349,-52.284,-44.5,-42.345,-42.149
-28.01,-54.657,-40.379,-48.961,-46.437,-42.223,-35.957,-41.107
-27.886,-56.197,-38.266,-50.373,-44.873,-42.883,-34.746,-44.778
-21.526,-50.738,-30.239,-45.888,-38.242,-37.823,-29.082,-40.641
-4.759,-36.155,-13.046,-33.188,-22.824,-25.096,-14.837,-26.592
9.012,-24.445,-1.442,-22.899,-11.878,-14.572,-5.458,-15.577
12.358,-20.289,-0.967,-18.054,-10.743,-8.859,-6.082,-10.707
14.082,-16.964,2.207,-11.357,-6.94,-1.417,-2.015,-4.238
18.211,-13.811,11.13,-5.15,1.988,4.831,7.895,-1.593
22.231,-11.941,16.716,-3.315,7.802,7.016,11.284,-6.539
31.298,-3.425,24.411,4.538,16.306,16.143,16.801,-1.154
45.688,11.021,40.012,19.808,32.298,31.919,33.745,19.7
50.284,15.243,46.14,23.523,38.215,34.99,39.634,30.892
40.708,6.83,33.586,11.661,25.878,23.879,22.003,21.069
33.115,1.995,23.108,3.856,15.982,18.949,8.265,10.28
34.557,5.127,26.531,7.114,19.772,24.834,15.225,11.6
36.874,7.126,30.6,9.586,24.322,27.772,23.888,14.197
38.223,7.212,29.565,8.695,24.01,25.654,21.869,12.613
42.228,10.952,32.473,14.184,27.809,30.368,21.786,18.681
46.97,17.677,42.046,27.022,38.727,44.126,32.664,34.833
51.502,24.221,53.465,38.167,51.545,56.807,48.377,48.746
59.017,31.086,63.667,44.16,62.379,63.76,61.948,55.734
67.523,37.751,69.161,47.846,68.022,68.369,69.44,60.305
71.094,40.599,66.859,49.282,66.167,71.315,67.887,63.066
69.053,38.251,59.524,46.105,59.431,69.148,59.526,60.509
65.8,34.751,53.439,40.689,53.874,63.023,52.644,53.958
65.509,36.397,53.477,40.624,54.885,61.496,55.5,51.378
68.649,43.853,59.463,48.724,62.547,69.338,67.225,57.679
71.458,49.989,64.387,56.538,69.291,78.165,74.913,65.568
71.62,51.581,63.333,56.04,69.179,78.095,69.718,64.118
74.061,56.814,64.016,54.763,69.383,76.056,64.861,59.764
83.591,69.841,75.434,64.361,79.746,85.798,77.694,69.044
92.801,78.286,89.198,77.62,92.938,101.337,98.122,85.865
90.21,71.349,89.822,77.327,93.19,103.161,102.143,87.375
80.737,59.245,80.145,64.667,82.58,90.29,89.992,73.148
79.703,59.06,76.394,57.616,77.659,81.984,82.866,65.05
86.568,69.845,81.462,62.898,82.384,87.27,88.183,72.131
88.986,78.842,85.328,71.101,86.908,96.914,94.969,84.16
86.54,82.655,85.026,75.766,87.255,102.934,96.695,91.355
85.386,83.429,83.456,75.719,85.285,103.377,94.343,89.992
87.265,80.679,81.703,69.874,81.452,97.827,88.151,81.295
95.473,80.25,83.275,64.334,79.608,92.694,81.63,73.465
104.122,88.263,86.553,66.095,81.119,94.438,78.812,71.985
95.033,94.204,79.497,67.187,76.871,95.902,75.761,71.375
72.149,86.201,62.839,56.7,64.534,87.69,69.399,66.53
63.763,73.684,55.574,42.567,57.451,75.825,65.314,62.297
77.336,71.131,63.884,39.857,62.174,71.811,66.388,62.555
90.223,75.452,72.149,45.797,67.989,74.251,67.198,61.723
86.399,75.478,68.668,46.799,65.242,73.476,63.25,56.482
75.435,70.652,59.72,42.064,58.051,68.472,56.093,51.776
70.822,69.396,55.77,41.561,55.153,67.759,51.515,50.776
72.269,75.547,58.994,48.726,59.31,75.806,55.387,54.019
79.591,86.88,68.958,59.154,69.48,88.243,67.679,62.266
95.364,99.343,84.299,67.769,82.562,98.072,80.939,70.836
108.22,103.505,94.581,69.41,89.82,99.388,84.499,72.505
104.166,92.163,89.767,62.401,84.522,91.267,74.412,67.266
89.864,75.653,77.89,53.864,74.047,81.854,61.706,62.381
83.052,71.546,73.664,52.847,70.504,80.907,59.178,63.715
91.858,84.088,79.25,62.753,76.276,91.388,67,72.217
107.431,103.206,88.918,80.513,87.146,109.269,80.595,86.632
109.528,113.879,95.608,94.064,95.811,122.849,93.284,100.103
94.794,110.92,94.529,92.719,96.424,122.768,96.758,103.624
88.744,106.695,92.592,84.632,95.142,116.588,94.913,100.329
105.769,112.829,100.43,85.923,102.094,117.517,98.757,101.343
125.671,124.117,114.454,97.068,114.383,125.7,107.559,108.569
128.553,129.476,122.101,105.976,121.112,132.618,113.046,114.799
120.334,125.735,118.524,106.302,118.113,133.113,111.51,115.635
113.91,116.959,110.627,101.613,110.977,128.109,104.671,112.149
112.664,110.144,108.824,98.38,108.36,123.522,99.347,107.86
115.664,110.734,113.885,100.625,111.838,125.624,101.768,107.78
118.425,114.946,114.899,104.641,113.021,130.925,106.598,110.936
112.678,111.811,104.959,100.697,104.934,127.741,101.703,107.256
98.812,98.832,92.067,88.387,92.887,115.233,87.41,94.822
88.617,87.329,88.274,81.184,87.917,107.935,78.813,86.96
89.577,87.354,93.678,87.229,91.932,114.087,83.435,90.956
96.527,94.791,99.091,97.841,97.244,124.262,91.86,98.315
101.584,99.335,100.292,101.751,99.1,127.114,94.795,100.711
105.592,100.419,102.067,100.621,101.05,124.809,94.859,100.313
113.57,104.538,109.637,103.615,107.956,127.097,99.272,103.704
121.435,109.417,119.075,111.078,116.536,135.049,106.078,110.355
118.586,106.169,119.809,113.094,117.262,138.527,105.084,111.519
106.496,95.846,110.166,105.113,108.727,131.243,96.484,104.554
102.175,89.943,103.014,96.459,102.379,121.786,93.331,99.32
114.441,94.773,107.54,97.885,106.324,122.431,99.719,103.508
128.438,102.352,113.894,104.324,111.93,129.183,102.972,109.346
127.423,100.94,109.383,102.773,107.577,128.186,94.729,105.188
116.623,92.921,100.466,96.077,98.92,121.589,85.684,96.069
111.44,90.835,100.392,97.468,98.555,123.006,87.304,95.78
116.294,95.938,105.738,103.855,103.115,129.155,91.569,101.228
122.42,96.667,103.633,100.478,100.034,124.728,85.004,96.906
119.071,89.236,92.959,88.93,89.674,112.334,72.264,83.23
108.045,82.613,84.829,84.724,83.626,109.039,68.278,76.978
102.062,81.546,86.248,89.946,86.143,116.225,74.852,83.064
103.911,80.86,90.101,91.269,88.914,118.312,79.379,86.595
104.113,78.868,86.713,83.886,85.224,109.982,74.289,77.741
101.84,81.648,81.325,77.927,81.312,102.734,67.513,66.59
104.755,88.95,83.925,78.922,84.18,103.083,67.435,64.057
110.484,90.745,90.418,80.598,88.976,104.832,70.946,67.665
110.13,84.618,92.851,80.658,90.988,105.298,75.592,73.802
104.761,80.11,93.378,84.291,93.882,109,83.952,82.65
103.14,81.729,95.386,90.592,98.11,114.722,90.825,88.895
107.987,84.947,95.965,93.578,98.421,117.144,87.328,87.006
113.109,87.186,93.755,94.351,95.492,118.247,79.432,84.612
112.234,88.803,93.337,97.694,95.772,122.648,81.388,91.925
106.19,88.378,95.976,101.283,99.143,127.043,91.315,101.132
101.104,84.552,95.284,98.777,98.419,124.421,93.976,97.085
99.71,78.832,88.46,90.707,91.948,115.552,85.332,83.272
97.195,74.057,82.118,85.8,86.978,110.262,78.204,78.679
90.125,70.787,80.96,87.549,87.345,112.625,80.5,87.917
82.744,66.58,80.72,86.356,86.836,112.087,81.231,91
80.881,62.141,79.358,78.908,82.996,104.767,74.015,80.475
81.782,59.89,77.479,73.693,79.501,99.311,67.71,71.226
74.916,55.226,68.711,68.236,72.159,92.415,61.629,61.086
63.363,48.516,57.132,61.321,62.682,83.697,54.537,48.248
63.351,50.878,58.741,66.849,64.616,90.1,58.289,53.504
72.254,61.613,69.81,83.373,75.265,109.887,70.723,74.913
72.634,68.224,74.367,93.225,79.976,122.046,77.283,88.069
63.406,67.479,71.734,91.78,77.432,120.865,75.897,87.299
57.161,65.268,69.656,86.426,74.773,114.64,73.307,81.198
60.214,67.227,72.371,85.115,76.846,111.983,76.377,79.305
69.545,74.774,80.327,92.073,84.467,118.193,86.899,88.533
77.744,82.881,88.031,101.224,91.625,127.807,95.115,101.929
77.292,84.516,87.634,101.097,90.673,128.03,90.701,104.243
68.504,79.485,79.58,91.737,83.153,118.012,78.82,94.471
59.148,72.989,71.122,83.7,76.268,109.365,70.593,85.257
52.352,66.794,65.877,80.847,72.172,106.559,66.473,81.998
46.607,61.347,64.188,80.228,70.435,105.958,63.001,80.332
42.718,59.085,63.9,79.754,70.074,105.158,59.842,75.844
42.457,60.329,61.597,78.469,68.802,103.807,57.115,69.938
47.505,64.287,60.581,78.825,69.062,104.935,57.637,70.859
54.152,68.229,61.684,80.817,71.004,108.112,60.142,78.644
54.346,68.035,58.134,78.903,68.29,106.687,57.545,80.617
50.105,65.963,52.574,74.356,62.961,101.436,51.821,72.929
48.081,65.973,52.441,73.533,61.968,99.419,49.754,64.294
46.53,65.95,54.542,75.273,63.409,100.311,50.019,60.93
46.982,64.887,56.076,75.412,65.091,99.651,51.277,63.757
56.115,65.995,61.522,75.659,70.26,98.912,56.462,69.772
65.354,67.459,67.228,76.739,75.116,99.864,61.435,71.286
60.991,63.817,63.31,72.986,70.996,96.899,57.262,62.585
52.331,58.419,55.714,65.09,63.315,89.105,48.226,49.816
54.139,58.673,58.235,63.239,64.799,86.746,48.274,46.064
58.966,61.228,64.838,67.544,70.607,91.779,55.261,51.567
55.58,58.082,59.771,65.715,65.931,91.872,52.745,52.988
47.435,50.173,45.552,54.297,51.876,81.736,39.11,45.259
39.918,43.189,36.147,42.634,41.24,70.335,29.155,36.494
35.331,40.19,35.593,38.277,38.821,66.544,29.251,33.547
37.799,41.781,38.671,40.319,40.421,69.773,31.916,35.372
44.565,44.919,40.373,43.543,41.386,73.893,31.211,37.609
44.903,45.456,38.085,44.832,39.727,75.806,29.255,37.856
37.68,43.973,32.904,44.365,36.529,75.91,28.837,36.539
33.41,42.243,29.007,41.486,33.864,72.745,27.591,33.551
36.593,39.663,28.746,36.089,32.591,66.241,23.238,28.061
41.114,38.313,31.366,33.467,33.725,63.303,20.872,24.942
41.956,41.426,34.776,37.51,37.13,68.737,25.236,29.899
40.07,45.17,35.108,41.388,38.176,74.377,29.39,34.715
35.256,42.564,29.236,37.151,32.724,70.477,25.809,28.344
26.807,35.983,21.914,30.145,25.981,62.878,22.426,19.309
21.13,34.2,21.493,29.821,26.405,62.711,29.072,21.272
22.971,37.175,25.855,32.944,31.287,66.479,38.132,28.845
26.375,38.32,26.775,31.622,32.152,64.795,37.828,29.206
28.132,39.216,26.319,29.461,31.094,61.52,33.124,23.675
33.499,45.426,31.893,34.252,35.76,66.128,36.118,23.308
39.781,51.686,39.689,42.001,42.797,74.884,44.414,30.182
36.868,48.508,40.508,42.968,43.147,76.76,46.612,36.112
26.382,39.244,34.9,38.187,37.361,72.486,41.868,37.85
18.502,33.65,27.866,35.273,31.025,70.382,36.541,38.685
15.621,31.84,20.398,33.852,25.154,69.723,31.514,37.87
14.711,29.712,14.822,29.785,20.51,65.482,26.186,32.466
16.168,29.11,15.146,25.821,19.957,60.678,23.331,24.996
20.847,31.974,19.989,26.427,23.052,60.573,24.058,21.043
24.47,34.222,23.586,29.233,25.68,62.822,26.394,22.835
22.27,32.068,22.268,28.998,24.548,61.821,27.517,26.472
18.03,29.326,18.609,26.754,21.238,58.707,25.744,26.967
17.563,30.62,17.489,26.973,19.959,58.298,22.485,25.142
16.847,32.457,17.69,27.849,19.922,58.784,19.531,23.676
12.018,31.654,16.063,25.629,18.14,56.23,17.052,21.67
9.436,31.931,15.841,22.902,17.064,53.084,15.531,17.903
13.332,33.679,19.677,22.56,19.281,51.923,14.59,13.159
18.099,31.694,22.404,22.53,21.269,50.622,12.51,8.986
18.66,26.526,19.387,21.715,19.578,48.832,9.933,7.513
17.637,24.429,14.427,21.959,16.573,48.968,9.786,9.541
18.39,26.572,13.311,23.452,16.045,50.59,13.016,12.522
19.17,29.306,15.59,25.222,17.899,52.101,17.566,13.918
19.187,31.21,16.943,26.619,19.156,53.43,20.203,13.731
20.938,32.217,16.136,25.738,18.176,53.182,18.332,11.676
23.575,31.961,16.786,23.133,17.423,51.402,13.952,8.825
23.631,30.63,20.405,22.837,19.175,51.715,12.904,9.718
20.757,27.702,21.944,25.39,20.306,55.063,16.217,15.599
16.677,24.025,18.728,28.823,18.37,59.95,19.817,22.624
11.96,21.931,15.053,32.306,15.965,65.339,21.391,27.041
6.602,19.398,12.654,32.484,13.451,67.247,19.717,25.862
1.759,13.677,9.084,27.2,8.71,63.108,14.609,19.3
-1.948,8.284,4.024,20.647,2.894,57.034,9.01,12.549
-6.01,5.878,-2.761,14.936,-3.407,51.013,3.758,7.944
-10.239,2.791,-11.212,7.287,-11.34,42.437,-2.843,2.616
-13.831,-3.09,-18.068,-0.499,-18.631,34.47,-8.586,-3.178
-19.968,-9.028,-23.072,-3.879,-23.454,32.473,-11.452,-6.953
-29.906,-14.33,-29.635,-5.777,-28.559,31.634,-15.699,-11.7
-39.698,-21.958,-37.002,-12.127,-35.44,24.447,-24.682,-21.145
-47.697,-31.8,-42.208,-21.32,-41.786,14.072,-34.796,-32.059
-54.437,-39.047,-45.853,-28.024,-46.084,7.467,-41.45,-39.149
-58.169,-40.877,-49.571,-31.588,-49.304,4.574,-44.639,-41.814
-60.877,-41.445,-53.807,-34.877,-53.239,1.534,-47.06,-42.828
-68.91,-47.472,-59.821,-39.606,-59.444,-3.206,-50.746,-44.383
-81.042,-59.106,-68.685,-45.411,-67.948,-9.203,-56.214,-47.345
-89.821,-70.34,-78.474,-51.79,-76.601,-16.684,-63.27,-53.449
-93.498,-77.69,-85.01,-58.285,-82.322,-25.577,-70.644,-63.059
-94.57,-81.846,-85.645,-62.473,-83.157,-32.373,-74.522,-70.191
-93.92,-83.598,-82.344,-62.12,-80.475,-33.24,-72.056,-69.18
-92.161,-83.632,-79.796,-59.596,-78.259,-30.635,-67.473,-64.235
-91.377,-83.369,-80.793,-59.081,-79.02,-30.157,-67.551,-62.103
-92.699,-82.884,-84.54,-60.436,-81.834,-32.204,-71.906,-62.561
-93.399,-81.312,-87.818,-61.868,-84.332,-34.699,-75.935,-64.365
-92.294,-81.341,-88.853,-65.398,-85.91,-39.59,-78.953,-69.992
-93.047,-85.47,-88.795,-71.042,-87.085,-46.722,-81.259,-77.529
-94.503,-87.903,-86.872,-72.368,-85.877,-49.348,-79.7,-79.22
-90.198,-82.863,-81.472,-67.238,-80.975,-45.153,-73.523,-73.554
-81.418,-75.75,-76.682,-62.432,-76.678,-40.872,-68.031,-67.475
-76.589,-74.483,-76.936,-61.945,-76.576,-40.922,-66.392,-64.487
-78.878,-78.945,-79.259,-62.938,-77.7,-43.127,-65.298,-62.177
-85.233,-84.93,-80.376,-64.103,-77.788,-46.015,-63.841,-61.23
-92,-89.244,-81.444,-66.235,-78.428,-49.454,-64.7,-63.658
-94.682,-89.717,-81.907,-67.943,-78.973,-51.722,-66.065,-65.939
-90.447,-86.496,-80.446,-68.671,-78.338,-53.094,-66.918,-66.588
-83.088,-82.48,-78.166,-68.509,-77.34,-54.429,-68.546,-67.456
-78.381,-80.546,-75.546,-65.337,-74.991,-53.157,-65.418,-63.987
-78.471,-82.569,-73.899,-60.95,-72.263,-50.235,-56.438,-55.047
-82.925,-87.981,-75.956,-60.995,-73.738,-51.31,-53.197,-50.943
-86.264,-90.29,-79.163,-63.834,-77.862,-55.312,-58.753,-54.579
-81.907,-85.039,-78.266,-64.01,-78.275,-57.231,-62.316,-57.322
-75.639,-80.326,-75.835,-64.153,-76.523,-59.429,-61.398,-57.802
-76.832,-83.349,-76.888,-67.332,-77.838,-64.042,-63.269,-60.037
-79.816,-86.696,-78.524,-68.547,-80.085,-65.944,-68.03,-61.479
-75.816,-83.557,-77.755,-66.04,-80.713,-64.328,-71.425,-60.905
-71.389,-80.317,-78.391,-66.337,-83.2,-66.091,-75.052,-63.627
-76.597,-83.907,-82.376,-72.471,-88.616,-73.883,-80.402,-70.925
-85.828,-90.09,-85.556,-78.711,-91.992,-81.942,-83.467,-76.919
-87.154,-91.09,-85.278,-79.266,-90.39,-84.495,-81.842,-77.492
-81.563,-86.423,-82.802,-74.809,-85.886,-81.621,-77.763,-74.112
-76.822,-80.033,-78.207,-68.426,-80.008,-76.149,-72.812,-69.535
-74.42,-74.634,-72.591,-62.36,-74.082,-71.214,-68.821,-66.011
-72.33,-72.598,-69.89,-59.084,-71.302,-69.81,-68.656,-64.638
-69.731,-74.17,-69.27,-58.775,-70.705,-70.995,-68.798,-63.05
-68.51,-76.485,-66.712,-58.655,-67.993,-70.901,-63.854,-60.3
-71.734,-78.44,-63.964,-57.886,-64.356,-69.325,-58.082,-59.851
-76.323,-79.675,-63.924,-58.193,-63.499,-69.482,-57.621,-61.496
-75.519,-77.534,-63.937,-59.736,-63.822,-72.219,-59.449,-61.257
-69.949,-72.057,-60.716,-59.848,-61.243,-74.134,-57.093,-58.231
-63.859,-66.55,-54.626,-56.572,-55.189,-72.183,-49.977,-53.639
-56.293,-60.906,-48.685,-51.772,-49.323,-68.266,-44.35,-50.175
-46.647,-53.546,-44.983,-47.785,-46.31,-65.146,-43.488,-49.449
-39.964,-48.342,-41.837,-44.739,-44.013,-62.84,-42.3,-48.329
-40.896,-50.21,-39.263,-43.831,-41.736,-62.624,-39.009,-46.148
-45.645,-54.257,-39.473,-43.831,-41.014,-63.186,-36.949,-43.779
-44.131,-49.777,-37.77,-38.22,-37.785,-57.426,-33.192,-36.454
-35.411,-38.318,-31.413,-29.422,-31.251,-48.376,-27.261,-27.454
-29.413,-31.502,-29.392,-29.037,-30.517,-48.985,-28.238,-29.548
-27.433,-29.252,-33.85,-34.818,-35.963,-56.226,-35.525,-38.815
-22.501,-23.982,-35.192,-34.596,-37.233,-55.971,-36.833,-38.575
-16.114,-18.682,-31.656,-28.841,-32.81,-49.023,-29.527,-27.789
-13.437,-17.907,-28.083,-24.992,-27.932,-44.729,-20.91,-17.901
-13.656,-17.698,-25.077,-24.433,-23.925,-44.674,-15.718,-15.039
-13.947,-15.685,-22.075,-25.616,-20.74,-45.959,-14.493,-18.068
-11.691,-13.343,-18.559,-26.223,-17.702,-45.843,-15.045,-21.977
-5.669,-10.031,-13.446,-24.192,-13.277,-43.048,-14.957,-22.933
2.225,-4.901,-7.931,-20.335,-8.063,-38.706,-12.76,-20.648
10.524,1.686,-4.413,-15.413,-3.686,-33.159,-6.605,-14.033
17.395,8.112,-3.769,-10.133,-1.203,-27.239,1.809,-3.717
17.3,9.207,-5.808,-9.704,-2.154,-27.073,5.247,1.257
8.725,1.949,-10.816,-18.753,-7.738,-37.45,-0.879,-7.999
0.925,-6.188,-16.635,-30.027,-14.377,-49.666,-10.068,-23.078
1.205,-6.198,-17.77,-31.36,-15.519,-50.53,-12.505,-27.054
4.041,-1.576,-13.731,-24.821,-11.755,-43.317,-10.299,-21.567
3.791,-0.453,-10.165,-21.98,-9.619,-41.079,-11.135,-20.596
3.154,-2.295,-10.033,-24.525,-11.056,-44.736,-13.313,-23.755
2.287,-4.222,-12.829,-26.581,-14.308,-46.615,-12.881,-22.494
-2.685,-8.1,-17.157,-27.472,-18.228,-46.431,-12.827,-19.446
-8.063,-11.932,-18.223,-27.695,-18.84,-46.831,-13.287,-18.755
-5.588,-8.106,-11.39,-22.599,-11.444,-43.21,-7.664,-13.638
2.685,2.24,-0.979,-12.557,-0.084,-33.977,3.353,-2.312
7.447,8.211,3.879,-6.996,5.511,-28.288,9.425,3.152
8.458,7.358,3.039,-8.469,4.422,-29.817,7.929,-1.582
11.119,6.698,2.834,-9.553,3.198,-30.795,6.181,-6.34
12.934,6.42,2.867,-8.955,2.339,-29.049,6.413,-6.367
9.991,2.762,-0.266,-11.068,-0.9,-29.672,6.134,-5.494
5.917,-0.258,-3.647,-13.584,-3.378,-31.536,6.256,-5.16
4.387,1.476,-3.471,-11.716,-1.593,-29.77,7.873,-4.643
2.858,2.555,-2.017,-8.352,1.152,-26.317,8.98,-4.106
-1.558,-2.064,-2.976,-8.671,0.287,-25.955,8.325,-3.18
-6.46,-7.382,-5.923,-10.892,-3.227,-27.614,7.214,-2.155
-8.759,-8.661,-9.042,-12.043,-6.681,-28.782,5.729,-4.386
-9.386,-9.262,-11.669,-13.67,-9.813,-29.954,2.976,-10.212
-10.748,-11.528,-13.8,-16.121,-12.842,-30.688,0.701,-13.087
-12.906,-12.822,-15.78,-17.833,-15.362,-30.805,0.232,-10.62
-12.828,-12.047,-16.434,-18.934,-16.329,-31.884,-0.07,-8.663
-8.679,-10.486,-14.065,-18.592,-14.291,-32.121,-0.379,-7.93
-3.281,-8.032,-9.763,-14.877,-9.513,-27.994,1.859,-1.946
-0.209,-4.672,-5.795,-10.252,-4.787,-22.516,6.408,7.369
0.959,-1.639,-2.503,-8.903,-2.298,-21.364,9.275,10.227
4.261,2.674,1.734,-8.287,-0.163,-21.713,9.803,7.116
10.616,9.673,6.263,-4.953,2.89,-19,9.857,5.598
11.882,12.373,4.46,-5.598,0.945,-20.019,5.359,2.153
2.491,4.531,-6.294,-15.645,-9.151,-30.548,-6.184,-8.896
-7.199,-5.1,-15.785,-25.483,-17.902,-40.689,-15.881,-19.223
-7.979,-6.84,-18.038,-27.914,-19.81,-43.404,-18.943,-22.722
-9.135,-7.184,-22.472,-31.732,-23.985,-48.159,-23.828,-28.208
-19.369,-13.177,-32.735,-41.283,-33.679,-59.271,-33.416,-39.763
-31.918,-20.273,-39.2,-48.493,-39.684,-67.881,-39.974,-49.004
-38.752,-24.206,-38.57,-49.935,-38.735,-69.837,-40.23,-50.248
-38.173,-24.095,-34.899,-47.614,-34.593,-67.283,-36.128,-43.827
-31.712,-19.843,-29.11,-42.557,-28.862,-62.246,-30.2,-34
-26.14,-16.484,-24.627,-38.961,-24.868,-59.68,-27.485,-30.575
-27.14,-17.393,-26.232,-38.885,-25.68,-61.384,-29.05,-36.357
-29.413,-16.675,-29.193,-36.575,-26.449,-60.811,-28.634,-39.683
-25.705,-10.604,-26.621,-30.179,-22.364,-55.775,-23.661,-33.553
-17.789,-4.071,-19.786,-24.797,-16.009,-51.379,-17.178,-24.149
-9.935,-0.065,-12.29,-21.385,-10.438,-48.522,-10.377,-16.146
-3.507,3.294,-7.007,-18.651,-7.033,-46.407,-5.859,-10.785
-0.369,6.069,-6.945,-19.009,-7.733,-48.049,-7.792,-11.266
-2.725,4.808,-11.188,-23.668,-11.863,-54.04,-13.617,-16.829
-8.713,-1.694,-15.618,-29.065,-16.179,-60.034,-17.759,-21.37
-11.587,-6.939,-17.597,-30.116,-18.346,-61.626,-19.516,-21.142
-7.44,-4.189,-17.235,-26.355,-18.066,-59.292,-20.317,-19.175
-2.122,2.712,-16.011,-22.954,-16.583,-57.917,-19.786,-19.943
-2.535,5.598,-14.713,-23.046,-15.036,-60.053,-17.797,-22.27
-5.88,3.88,-13.237,-24.319,-13.606,-63.268,-16.143,-22.829
-5.174,3.101,-10.83,-23.506,-11.385,-64.013,-14.371,-20.328
1.964,7.113,-6.023,-19.178,-6.791,-60.525,-9.465,-14.535
10.975,13.927,-0.453,-13.37,-1.51,-54.982,-3.761,-8.985
13.614,17.524,1.256,-10.659,-0.19,-52.258,-3.09,-8.069
8.276,15.345,-1.736,-12.647,-3.622,-54.134,-7.286,-10.584
2.084,10.988,-7.22,-17.833,-9.404,-59.269,-12.815,-15.073
-0.975,7.875,-13.883,-24.543,-16.202,-66.158,-18.385,-21.835
-3.32,5.874,-19.037,-29.162,-21.56,-71.101,-22.369,-26.194
-4.705,4.564,-18.838,-28.086,-21.834,-70.024,-21.598,-22.785
-2.593,5.284,-13.706,-23.232,-17.269,-64.586,-15.661,-14.316
1.205,8.972,-8.7,-19.894,-12.4,-60.676,-9.027,-7.686
5.04,13.532,-5.838,-19.895,-9.59,-60.943,-5.226,-5.137
9.758,15.395,-3.495,-21.357,-7.996,-63.346,-3.869,-5.277
11.797,13.329,-3.926,-24.379,-9.267,-67.193,-6.062,-9.66
7.646,9.404,-9.143,-30.506,-14.766,-73.823,-12.347,-19.19
1.315,6.008,-15.13,-37.714,-21.045,-81.463,-18.209,-28.057
-3.386,2.215,-19.859,-43.345,-26.14,-87.453,-21.433,-31.437
-8.299,-4.516,-26.201,-48.779,-32.514,-93.24,-25.632,-33.708
-15.623,-13.699,-35.121,-55.851,-41.409,-101.049,-33.492,-41.29
-23.348,-21.603,-42.95,-61.383,-49.236,-107.495,-42.066,-50.818
-24.902,-24.226,-43.791,-59.889,-49.951,-106.223,-44.018,-52.125
-18.497,-21.929,-37.669,-53.231,-44.006,-99.176,-37.719,-44.812
-15.68,-21.992,-34.906,-51.235,-41.443,-97.059,-33.53,-41.221
-25.672,-29.474,-42.261,-57.53,-47.837,-103.472,-38.777,-47.043
-38.126,-37.261,-50.111,-62.417,-53.959,-108.275,-44.196,-51.397
-38.739,-35.452,-45.67,-56.366,-48.849,-102.224,-38.19,-44.239
-29.929,-26.313,-31.58,-43.413,-35.623,-89.677,-24.93,-31.33
-22.878,-19.969,-20.212,-33.962,-25.138,-80.713,-15.676,-22.813
-21.518,-20.365,-17.523,-31.096,-21.681,-77.896,-12.308,-19.519
-21.735,-22.696,-19.419,-30.434,-21.51,-76.867,-9.969,-17.558
-19.64,-21.876,-18.71,-27.918,-19.4,-73.947,-6.719,-15.257
-17.815,-20.325,-15.438,-25.34,-15.848,-71.004,-5.721,-14.905
-21.321,-23.207,-16.792,-27.366,-16.538,-72.743,-9.999,-19.726
-26.623,-26.362,-21.393,-30.728,-19.766,-76.174,-13.823,-24.381
-24.104,-21.164,-17.776,-26.424,-15.686,-72.077,-7.408,-19.235
-13.712,-10.168,-4.372,-15.21,-3.546,-60.294,7.392,-6.263
-6.17,-3.659,6.438,-7.136,5.488,-50.53,18.216,3.609
-6.275,-3.121,7.1,-5.616,5.359,-47.108,18.881,5.589
-6.405,-0.373,3.908,-3.589,2.535,-43.87,15.56,5.074
-2.289,6.363,4.114,2.587,3.332,-37.202,14.886,7.298
-0.825,8.592,5.464,6.217,4.595,-33.433,14.632,9.108
-5.877,3.248,3.421,2.743,2.073,-36.763,11.719,7.097
-13.207,-3.763,-1.591,-3.569,-2.946,-42.839,8.013,3.675
-18.58,-9.111,-6.462,-8.516,-7.686,-47.532,4.082,-0.02
-19.019,-11.328,-8.451,-10.508,-9.774,-49.115,-0.834,-4.158
-13.08,-6.986,-6.244,-7.609,-7.106,-45.88,-3.476,-4.573
-4.627,1.272,-1.135,-1.737,-1.125,-40.504,-1.165,0.449
1.118,6.332,4.466,2.713,4.729,-37.312,3.66,5.638
5.851,9.28,11.592,7.013,11.347,-34.051,9.932,9.205
12.807,14.501,20.472,12.721,19.365,-28.958,17.003,13.093
16.155,17.379,23.563,13.868,22.074,-28.705,17.524,12.521
11.3,13.73,17.215,8.197,16.489,-35.582,8.728,4.428
8.142,11.508,12.038,5.123,12.28,-39.48,2.018,-1.736
15.941,17.757,16.407,10.645,16.721,-34.53,5.913,1.61
27.169,26.038,24.026,18.06,24.06,-28.216,14.835,9.319
31.387,27.491,27.554,20.644,27.571,-26.854,21.423,14.742
30.582,22.797,28.015,19.762,27.837,-27.702,23.71,16.479
30.71,18.472,27.861,18.892,27.293,-27.349,21.903,15.423
29.493,16.628,26.188,17.652,25.546,-27.805,17.488,12.899
21.026,12.267,20.881,12.961,20.172,-32.626,12.052,8.746
8.336,3.709,12.992,5.977,11.833,-39.689,7.418,4.202
1.296,-3.04,7.454,1.941,5.88,-43.526,6.448,3
2.94,-4.409,8.077,2.405,6.108,-42.94,9.59,4.314
7.831,-2.845,13.422,5.144,10.687,-39.933,14.071,4.862
10.424,-1.017,17.418,7.501,14.112,-37.068,16.46,5.188
8.74,0.576,15.964,7.804,13.016,-36.412,15.066,6.083
4.96,2.599,12.73,8.064,10.623,-36.066,12.981,7.592
3.704,4.73,13.557,10.563,11.6,-33.632,14.661,10.53
4.855,3.61,16.8,12.147,14.092,-32.036,17.955,12.97
0.338,-4.099,14.08,8.507,11.273,-34.979,15.85,10.855
-15.184,-15.941,1.7,0.695,0.556,-41.38,5.819,2.73
-33.128,-25.054,-12.724,-6.796,-11.969,-47.62,-7.052,-8.078
-40.327,-26.991,-19.362,-9.942,-18.1,-49.742,-14.091,-13.226
-36.789,-23.666,-17.806,-7.776,-16.472,-46.257,-11.314,-7.681
-33.714,-21.996,-15.507,-5.316,-13.5,-42.816,-6.352,-0.566
-37.386,-25.616,-17.406,-7.553,-14.749,-44.989,-8.109,-3.427
-43.454,-29.41,-21.01,-11.057,-17.998,-48.284,-13.109,-11.676
-44.743,-27.96,-21.91,-10.881,-18.707,-46.84,-14.656,-14.394
-39.666,-23.145,-19.578,-8.912,-16.9,-43.165,-13.441,-11.159
-31.72,-17.737,-15.071,-7.267,-13.444,-40.279,-10.113,-6.063
-22.99,-10.44,-7.223,-2.946,-6.152,-35.756,-1.625,1.178
-13.945,-1.854,3.503,4.722,4.529,-29.047,10.05,9.781
-9.436,2.738,9.731,10.004,11.27,-24.62,16.153,14.537
-14.916,0.029,4.434,8.951,7.999,-24.992,11.843,12.689
-25.569,-5.938,-6.855,5.073,-0.42,-27.36,3.311,7.632
-29.478,-7.892,-10.92,3.962,-3.101,-27.705,0.927,4.336
-23.163,-4.213,-4.38,6.367,2.698,-25.072,6.517,4.542
-15.931,0.501,3.61,9.463,9.495,-21.145,12.873,7.403
-15.219,3.526,6.405,12.831,12.348,-16.444,16.553,12.78
-16.274,6.139,7.324,17.825,14.323,-10.593,20.892,19.536
-13.71,8.107,9.754,21.948,17.021,-6.234,24.982,22.641
-12.554,6.571,9.328,20.795,15.667,-6.888,22.522,18.769
-17.154,2.186,3.729,16.322,9.392,-10.472,14.594,12.879
-21.439,-0.158,-0.018,14.508,5.494,-12.17,10.702,12.14
-21.472,-0.664,0.532,13.326,5.259,-14.151,11.759,13.592
-22.162,-4.228,-1.813,6.684,1.373,-21.009,8.509,8.943
-25.477,-9.695,-7.724,-1.536,-5.859,-28.351,1.272,1.273
-28.401,-12.096,-10.195,-3.864,-9.006,-29.848,-0.254,-0.518
-29.93,-11.303,-7.918,-1.564,-7.141,-27.439,4.676,2.241
-29.246,-9.636,-4.196,1.637,-3.993,-24.338,9.483,5.205
-23.816,-6.299,0.765,6.889,0.281,-18.842,13.366,11.272
-14.191,-0.204,7.532,13.974,6.594,-11.419,19.098,20.514
-5.392,4.677,13.051,16.882,11.551,-8.627,23.478,23.915
-1.127,4.03,14.231,12.187,11.032,-13.56,19.919,16.934
-0.151,1.214,12.584,5.882,6.993,-19.387,10.242,7.963
0.05,2.813,10.634,4.974,4.402,-19.216,4.352,5.767
-1.529,8.499,7.184,7.52,3.151,-16.033,5.251,7.928
-6.148,11.953,1.688,7.609,0.387,-16.41,6.63,8.147
-9.415,10.05,-2.121,4.049,-3.012,-21.203,4.704,5.146
-6.804,6.125,-2.649,-0.852,-5.489,-27.29,-0.266,-0.64
-1.239,4.591,-2.567,-4.528,-7.494,-31.477,-6.766,-7.959
0.473,4.153,-3.406,-6.163,-9.198,-32.838,-11.686,-13.23
-3.61,0.618,-4.128,-7.741,-10.239,-33.976,-13.49,-15.628
-6.704,-2.248,-1.904,-7.586,-8.14,-33.808,-10.793,-15.366
-3.413,1.985,3.389,-1.513,-1.89,-27.711,-3.209,-10.944
0.492,7.137,5.717,4.884,2.005,-20.721,2.418,-5.804
-0.665,4.446,2.555,3.473,-0.662,-21.115,0.65,-4.862
-1.991,0.54,0.777,0.351,-2.797,-22.845,-1.828,-4.843
2.84,6.837,6.556,6.242,3.19,-15.429,4.116,0.251
12.966,20.659,16.814,17.996,13.989,-2.594,15.15,8.646
23.39,30.206,23.477,24.727,20.509,5.261,19.254,13.445
29.151,31.13,23.399,24.633,20.114,7.172,13.811,12.699
25.737,27.276,18.541,22.171,16.427,7.039,7.213,9.153
14.573,21.711,10.984,17.869,11.796,4.362,4.421,5.088
7.896,17.746,7.594,14.054,10.319,1.29,6.377,4.4
15.136,20.472,16.178,17.789,17.434,5.313,14.008,10.526
28.482,28.914,29.075,27.807,27.817,15.793,21.734,19.395
33.939,34.645,30.456,32.431,28.871,21.543,21.081,22.584
30.206,33.006,21.799,27.156,20.837,17.862,14.399,17.932
26.619,28.259,18.286,20.801,16.569,12.867,11.583,11.98
26.99,24.344,22.702,19.513,19.805,12.421,14.364,10.314
26.237,19.308,24.606,18.576,21.544,11.873,16.199,10.897
22.761,13.254,21.776,15.315,18.769,8.487,15.26,10.854
22.816,11.562,22.135,14.93,18.429,7.994,15.095,11.796
28.647,15.233,26.548,18.152,21.907,12.056,15.645,13.997
33.487,18.5,28.251,19.422,23.351,14.729,15.678,15.326
33.035,18.094,26.686,17.823,21.929,13.602,17.381,16.285
31.536,16.941,26.877,17.216,21.748,12.133,20.466,18.262
32.019,17.582,28.417,18.986,23.031,13.161,20.809,20.496
28.342,14.892,24.153,17.899,20.067,12.723,15.621,19.51
15.83,4.155,11.887,8.391,9.743,4.34,6.304,12.111
4.084,-4.958,2.27,-1.935,0.445,-5.81,0.104,4.252
5.405,-0.849,5.081,-0.903,1.889,-5.047,2.765,5.359
16.051,10.043,14.053,6.876,9.374,3.014,8.54,11.473
21.894,14.706,17.226,9.046,12.206,5.801,9.359,12.855
18.075,12.732,14.062,6.712,10.615,4,8.462,12.232
13.924,12.073,13.263,8.173,12.345,5.816,12.419,16.838
17.978,16.087,18.347,13.091,18.437,10.91,17.689,21.892
23.887,19.986,22.299,14.272,21.458,12.453,16.613,17.937
20.984,19.139,19.217,9.401,17.608,8.25,10.028,8.15
14.13,17.577,14.401,4.717,13.329,3.869,5.324,4.114
14.917,20.316,15.468,6.205,15.312,5.083,6.711,8.405
20.867,23.358,19.987,11.629,20.212,10.671,11.128,13.782
22.53,22.028,19.898,14.828,20.39,15.208,12.163,15.167
20.211,20.371,14.092,14.701,15.37,16.937,8.293,13.877
19.238,23.177,9.041,14.711,11.162,18.519,4.136,12.607
19.371,27.252,7.959,14.968,10.188,20.121,2.019,10.698
18.528,27.88,8.137,13.065,9.872,19.259,0.079,7.335
18.805,27.594,9.216,12.197,10.643,18.644,0.015,6.851
21.81,30.928,13.509,17.276,15.165,23.512,5.835,13.088
23.893,34.805,18.466,24.368,20.431,30.638,13.914,20.677
23.469,34.531,20.385,27.113,22.14,33.435,17.469,22.527
26.05,33.57,22.041,28.161,23.177,34.067,18.502,21.75
32.207,35.048,25.457,30.849,26.278,36.278,20.937,23.31
33.512,35.104,27.368,31.684,28.189,37.136,21.918,24.213
28.521,32.818,28.282,29.751,28.641,35.219,20.776,22.531
24.78,31.384,31.033,28.494,30.786,33.282,21.513,21.922
23.87,30.313,32.218,28.155,32.447,32.165,22.827,23.467
21.448,27.998,27.846,26.539,29.362,30.469,18.833,23.181
18.838,26.385,22.145,23.393,23.975,27.496,10.392,18.233
20.726,27.8,21.686,20.947,22.521,25.178,5.474,11.826
24.178,30.744,24.39,20.954,24.911,25.977,6.233,9.235
22.888,32.049,24.101,22.016,25.933,28.32,7.527,11.176
18.274,30.517,20.772,21.155,24.013,27.791,7.53,13.536
14.494,25.621,15.621,16.155,19.366,21.744,5.655,10.883
10.397,17.775,6.836,7.409,10.636,11.955,-1.992,1.775
5.273,11.282,-3.022,-0.211,0.681,4.794,-12.609,-7.097
2.466,10.523,-8.466,-2.329,-4.765,4.244,-16.834,-8.23
2.611,13.674,-10.045,-1.585,-6.073,5.528,-14.636,-4.734
2.4,15.057,-11.289,-2.376,-7.319,3.302,-14.096,-4.727
-0.054,12.127,-11.582,-3.451,-8.046,0.653,-15.666,-7.395
-3.336,8.547,-8.154,-1.232,-4.711,2.73,-12.388,-5.576
-3.192,10.043,-1.094,3.731,2.773,7.655,-3.805,0.047
3.472,16.832,7.11,8.599,11.215,11.11,3.561,2.797
12.108,22.964,14.239,13.236,18.443,14.134,8.33,4.149
15.476,24.268,18.091,17.71,23.1,18.273,13.149,8.708
14.593,22.986,18.025,20.145,24.315,21.19,16.512,12.916
13.44,20.702,15.572,19.102,22.315,20.653,14.971,12.566
9.063,13.923,10.528,14.045,16.759,16.193,8.53,9.714
-1.08,3.352,2.913,7.103,9.007,10.32,2.383,8.083
-10.782,-3.425,-3.45,2.592,3.479,7.612,1.258,8.498
-12.438,-3.236,-5.526,1.337,2.023,8.228,2.265,8.76
-5.994,0.086,-2.989,1.838,3.535,9.356,1.372,8.438
2.953,4.352,4.31,5.68,8.552,12.904,1.861,10.449
9.214,10.265,13.068,13.347,16.008,20.627,6.876,14.68
11.492,15.82,16.417,19.196,20.227,26.221,11.613,16.703
12.464,17.402,13.317,19.083,18.264,24.747,10.983,15.063
13.253,14.065,9.138,15.455,13.486,20.237,6.803,12.109
9.29,5.738,4.67,9.071,7.618,14.578,1.121,6.656
-0.976,-5.21,-2.269,-0.386,0.245,6.016,-6.136,-2.101
-8.186,-10.092,-6.194,-5.366,-3.153,0.677,-9.283,-5.867
-5.257,-5.563,-1.927,-0.875,1.336,4.082,-3.981,-0.626
0.457,-1.636,3.585,4.924,6.291,9.126,1.923,3.646
0.556,-4.927,3.094,5.792,5.632,9.569,2.175,2.692
-3.629,-10.233,-0.299,5.175,3.125,8.343,0.948,2.331
-9.019,-14.415,-3.349,3.418,0.895,5.771,-0.937,0.439
-13.587,-19.107,-7.146,-1.201,-2.601,0.547,-5.846,-5.472
-15.529,-22.339,-10.619,-4.716,-5.358,-3.273,-9.529,-8.015
-17.08,-23.094,-12.93,-7.119,-6.964,-6.16,-11.275,-8.92
-19.994,-25.764,-16.416,-14.072,-11.253,-13.852,-18.143,-18.311
-21.439,-31.533,-20.673,-22.971,-17.107,-23.227,-28.753,-29.733
-20.992,-35.526,-22.028,-25.425,-18.621,-25.778,-32.642,-29.192
-21.819,-35.021,-20.023,-21.284,-15.187,-21.49,-27.889,-20.908
-23.699,-32.008,-18.165,-16.975,-12.169,-16.638,-23.787,-18.092
-22.993,-28.149,-17.994,-14.676,-11.892,-13.669,-25.432,-20.016
-19.181,-24.111,-17.534,-12.562,-11.52,-11.754,-27.784,-18.39
-17.518,-22.893,-17.823,-12.331,-11.247,-12.974,-28.101,-16.617
-22.318,-27.362,-22.458,-16.931,-14.499,-19.265,-29.862,-21.812
-30.577,-35.55,-28.785,-23.613,-19.154,-26.64,-31.752,-28.031
-35.697,-41.781,-30.249,-26.616,-19.764,-29.016,-29.007,-26.484
-34.476,-42.194,-27.004,-24.465,-16.968,-25.676,-24.507,-20.912
-31.441,-40.813,-26.154,-22.848,-17.175,-23.437,-26.054,-21.416
-33.258,-44.37,-30.702,-27.062,-22.645,-27.837,-33.989,-29.461
-36.4,-48.136,-33.656,-30.609,-26.111,-31.75,-38.186,-34.101
-33.544,-43.06,-29.549,-24.571,-21.925,-25.696,-32.26,-27.226
-29.892,-35.755,-25.868,-16.732,-17.929,-17.667,-26.272,-19.187
-34.865,-38.626,-31.468,-20.288,-23.625,-21.911,-32.019,-24.776
-43.839,-46.889,-39.844,-29.49,-32.441,-32.854,-41.528,-36.505
-44.414,-46.964,-37.793,-28.647,-30.947,-33.233,-37.904,-33.05
-34.737,-38.173,-26.217,-17.381,-20.292,-21.701,-22.733,-14.665
-24.767,-30.915,-18.952,-9.421,-14.326,-12.927,-15.179,-5.879
-24.364,-32.555,-24.159,-12.896,-20.458,-16.015,-24.576,-18.099
-34.186,-41.815,-36.255,-22.938,-32.405,-25.985,-39.318,-34.36
-44.312,-50.668,-43.779,-30.028,-39.244,-32.982,-45.301,-37.565
-44.806,-52.278,-41.294,-30.024,-36.807,-32.764,-42.606,-31.788
-38.43,-48.185,-33.09,-25.989,-29.513,-28.501,-38.264,-28.939
-34.81,-43.748,-25.893,-22.014,-22.893,-24.485,-33.331,-29.558
-35.872,-41.146,-22.386,-19.612,-19.189,-22.098,-27.258,-26.879
-36.893,-40.625,-22.556,-19.666,-19.364,-21.95,-24.771,-22.473
-38.068,-44.127,-27.233,-23.633,-24.574,-25.5,-29.486,-25.13
-44.832,-53.89,-36.904,-32.561,-34.563,-33.763,-38.98,-36.387
-55.509,-65.695,-46.86,-42.906,-44.598,-43.029,-47.427,-47.112
-60.54,-70.347,-50.448,-47.235,-48.483,-45.869,-50.161,-50.516
-57.632,-66.856,-48.536,-44.657,-46.951,-41.563,-48.837,-50.629
-54.182,-63.406,-46.946,-41.273,-45.5,-36.653,-47.679,-51.067
-53.887,-63.485,-46.325,-39.369,-45.008,-34.007,-45.993,-48.376
-53.553,-62.961,-43.282,-37.365,-42.894,-31.985,-42.872,-43.752
-51.291,-59.751,-38.483,-35.403,-39.632,-29.745,-41.353,-43.273
-49.56,-58.098,-37.093,-35.007,-38.722,-28.129,-43.204,-46.736
-51.342,-62.76,-40.971,-37.741,-41.849,-29.227,-46.77,-49.568
-54.987,-70.907,-44.315,-41.953,-45.192,-31.797,-48.087,-48.132
-55.308,-74.619,-41.885,-42.568,-43.916,-30.472,-44.235,-40.87
-52.259,-72.261,-37.317,-38.95,-39.815,-25.019,-38.377,-31.51
-51.647,-69.589,-36.745,-36.279,-38.527,-21.297,-36.722,-27.647
-55.864,-70.963,-40.641,-38.049,-41.872,-22.519,-41.424,-32.742
-60.777,-74.627,-45.305,-42.144,-46.319,-26.171,-48.359,-40.871
-60.898,-74.581,-46.181,-43.087,-46.249,-27.011,-50.29,-42.564
-55.284,-68.36,-41.551,-38.744,-40.148,-23.028,-45.267,-37.202
-48.28,-61.326,-34.893,-33.26,-32.704,-18.013,-38.514,-32.534
-43.431,-58.464,-29.962,-30.322,-27.879,-15.327,-33.321,-31.106
-40.44,-58.051,-27.171,-28.935,-25.473,-13.763,-29.63,-28.647
-39.711,-57.979,-27.481,-28.516,-26.189,-12.555,-30.743,-26.823
-43.227,-60.457,-33.45,-32.546,-32.627,-15.692,-40.445,-34.667
-49.554,-66.475,-43.143,-42.491,-42.752,-25.67,-53.72,-51.248
-54.579,-71.947,-50.388,-52.376,-50.099,-36.389,-61.326,-62.3
-55.936,-71.706,-52.946,-55.742,-52.244,-40.277,-63.028,-62.575
-51.325,-63.011,-50.485,-51.272,-49.225,-35.697,-61.225,-58.231
-40.109,-48.322,-41.727,-41.228,-40.363,-25.4,-53.234,-50.45
-29.67,-37.272,-33.17,-33.88,-32.199,-18.147,-44.778,-43.329
-27.691,-37.081,-34.023,-37.286,-33.52,-22.199,-46.565,-46.712
-30.936,-42.862,-41.036,-46.137,-40.802,-31.596,-54.488,-56.697
-33.11,-47.148,-46.016,-50.219,-45.9,-35.179,-59.348,-61.178
-35.651,-50.901,-50.467,-50.887,-50.243,-34.656,-64.241,-60.852
-40.94,-55.226,-57.377,-53.133,-56.419,-36.326,-71.38,-61.723
-43.154,-53.046,-59.929,-52.111,-57.787,-35.645,-71.479,-60.208
-36.612,-41.105,-52.652,-43.204,-49.992,-27.319,-60.691,-51.703
-25.929,-28.676,-42.22,-33.405,-40.443,-17.941,-48.589,-40.977
-17.871,-22.645,-36.486,-30.054,-36.361,-14.648,-42.762,-34.641
-12.657,-18.439,-36.088,-31.464,-37.191,-15.736,-43.469,-34.547
-9.657,-12.935,-40.726,-34.675,-42.103,-18.823,-51.519,-40.655
-9.692,-9.935,-48.307,-38.495,-49.211,-22.952,-62.188,-48.51
-9.573,-9.986,-51.203,-39.549,-51.519,-24.101,-62.931,-49.742
-5.712,-8.369,-45.87,-36.592,-46.53,-20.866,-52.788,-44.651
-1.468,-4.125,-39.261,-34.844,-41.716,-19.491,-47.225,-44.339
-1.144,-0.933,-37.948,-37.97,-42.702,-24.021,-54.724,-53.78
-1.073,1.288,-37.216,-39.638,-43.284,-26.862,-61.487,-60.59
3.358,5.467,-30.728,-33.171,-36.666,-20.706,-52.938,-53.196
7.566,7.942,-24.556,-25.415,-29.961,-13.491,-40.301,-42.739
5.232,2.743,-26.784,-26.431,-32.54,-15.89,-41.048,-44.685
-0.137,-5.331,-32.174,-31.953,-38.858,-22.848,-48.784,-52.3
-1.865,-6.993,-32.02,-32.117,-38.983,-23.777,-48.55,-51.927
-2.024,-4.637,-29.004,-28.776,-35.628,-20.496,-42.627,-45.943
-6.132,-7.064,-30.289,-29.517,-36.915,-20.733,-42.081,-43.157
-13.747,-14.774,-35.25,-33.792,-42.42,-24.231,-46.986,-43.727
-21.966,-22.327,-39.347,-36.288,-47.036,-26.473,-49.521,-43.453
-29.259,-27.028,-42.387,-36.448,-50.186,-27.61,-49.268,-41.725
-33.59,-29.04,-45.715,-37.13,-53.424,-29.991,-51.167,-40.975
-34.85,-29.652,-47.158,-38.476,-55.076,-32.287,-53.366,-42.355
-36.64,-31.188,-45.565,-39.143,-53.877,-32.52,-51.305,-44.415
-39.244,-33.703,-43.882,-39.729,-52.075,-32.49,-47.002,-45.437
-38.167,-33.844,-43.057,-40.443,-50.841,-33.502,-44.917,-45.604
-34.054,-31.778,-41.275,-41.241,-49.465,-34.944,-46.548,-47.787
-32.335,-31.874,-38.389,-43.281,-47.784,-37.626,-49.502,-52.365
-32.694,-33.627,-34.779,-44.258,-44.728,-39.39,-47.504,-52.456
-31.444,-33.246,-30.455,-39.954,-39.71,-34.875,-38.493,-43.606
-31.419,-33.219,-28.884,-34.508,-37.145,-27.775,-32.416,-34.705
-39.116,-39.742,-36.091,-38.434,-43.541,-30.64,-41.04,-39.326
-51.784,-51.105,-49.385,-51.016,-56.077,-43.748,-59.176,-55.426
-56.641,-56.35,-54.819,-56.668,-61.478,-49.602,-67.266,-63.818
-48.796,-49.831,-46.118,-47.806,-53.805,-39.507,-57.619,-55.12
-38.959,-39.771,-33.972,-36.401,-42.804,-26.777,-43.508,-43.188
-37.566,-36.574,-30.189,-34.75,-39.595,-24.429,-39.097,-42.644
-43.792,-41.128,-35.898,-41.152,-45.437,-29.937,-46.047,-51.326
-51.756,-47.649,-44.27,-47.101,-53.472,-34.666,-55.555,-57.647
-57.489,-51.858,-47.604,-47.994,-56.214,-34.961,-57.038,-55.014
-60.715,-55.355,-46.167,-47.696,-55.117,-35.055,-52.544,-49.984
-64.46,-61.946,-48.025,-52.127,-58.516,-39.913,-54.058,-51.809
-70.632,-69.881,-56.416,-58.401,-67.607,-45.747,-63.247,-56.604
-76.582,-73.207,-64.407,-58.709,-74.141,-45.381,-69.656,-54.851
-79.841,-72.115,-65.501,-53.983,-73.434,-40.743,-67.898,-48.822
-80.749,-71.993,-61.756,-52.083,-69.575,-39.407,-62.78,-47.412
-78.026,-71.525,-56.85,-53.253,-65.705,-40.996,-57.737,-48.674
-70.494,-66.089,-50.263,-51.213,-59.771,-39.394,-50.827,-44.436
-61.379,-58.25,-42.603,-45.614,-51.842,-34.268,-42.954,-35.945
-54.434,-52.473,-37.148,-41.006,-45.781,-29.692,-38.602,-30.695
-51.409,-49.694,-35.812,-39.84,-44.44,-28.376,-40.143,-33.32
-53.711,-50.148,-38.455,-41.971,-47.591,-30.707,-46.083,-42.716
-57.962,-51.374,-41.012,-44.638,-50.482,-33.417,-50.351,-50.338
-55.48,-48.502,-37.335,-44.286,-47.293,-32.322,-46.873,-49.31
-47.303,-43.599,-30.629,-43.134,-41.356,-29.888,-39.345,-45.669
-46.544,-45.095,-31.339,-47.202,-42.171,-32.62,-37.459,-48.301
-55.034,-52.462,-37.824,-53.523,-48.079,-37.67,-40.443,-53.081
-60.59,-56.732,-39.759,-53.664,-49.432,-36.581,-39.511,-51.542
-61.319,-58.213,-40.364,-51.787,-49.145,-33.686,-37.796,-48.559
-64.16,-63.006,-47.662,-56.634,-55.324,-37.636,-43.853,-51.974
-66.334,-67.527,-53.882,-61.605,-61.39,-41.033,-50.322,-54.068
-63.371,-66.667,-51.258,-57.786,-59.529,-34.564,-47.405,-46.329
-61.098,-64.525,-48.155,-51.584,-56.618,-25.591,-41.857,-36.348
-63.049,-64.324,-50.37,-50.756,-58.407,-23.022,-41.464,-32.238
-62.747,-62.671,-50.721,-51.419,-59.005,-23.023,-41.971,-30.642
-56.082,-57.235,-44.665,-47.541,-53.689,-18.91,-37.859,-26.85
-47.585,-49.829,-36.914,-40.205,-46.033,-11.233,-30.743,-21.945
-43.595,-44.243,-32.508,-34.882,-41.239,-5.042,-25.636,-19.443
-44.114,-42.834,-30.841,-33.995,-39.851,-2.605,-24.867,-20.426
-42.524,-42.879,-28.326,-34.283,-38.493,-1.325,-25.861,-22.073
-35.105,-39.083,-23.625,-31.09,-34.298,2.557,-23.6,-19.875
-24.164,-29.215,-16.682,-22.953,-26.329,10.331,-15.719,-12.619
-12.194,-15.639,-6.639,-12.635,-15.285,19.452,-4.751,-4.878
-2.495,-4.065,3.224,-4.67,-5.515,26.038,4.053,-1.86
-1.422,-0.768,5.309,-2.046,-3.306,28.505,5.607,-4.022
-10.556,-6.707,-1.619,-4.528,-8.974,27.856,-0.278,-7.858
-20.827,-15.24,-9.34,-8.335,-15.342,26.7,-6.798,-9.223
-22.349,-19.032,-10.612,-8.779,-16.221,27.732,-7.116,-6.277
-16.715,-17.163,-6.38,-5.073,-12.202,31.378,-1.305,-0.852
-13.928,-14.752,-3.24,-1.818,-8.919,34.653,4.067,2.437
-17.201,-15.09,-4.674,-2.674,-9.662,34.809,3.222,0.753
-17.296,-13.284,-4.971,-3.002,-9.247,35.469,0.357,-1.153
-8.062,-5.058,1.89,3.919,-1.895,42.615,4.738,4.691
2.566,3.331,11.203,14.857,7.749,53.632,14.986,16.684
5.318,4.455,14.405,20.219,11.08,59.285,20.381,23.855
0.582,-0.446,10.08,16.785,6.801,55.911,17.329,21.465
-6.141,-6.476,3.065,10.15,-0.054,49.202,12.589,16.898
-8.11,-9.148,0.377,8.103,-2.769,47.446,13.446,18.886
-1.021,-5.055,6.442,14,2.672,53.884,21.495,28.768
11.072,4.013,17.39,23.98,12.743,64.298,31.608,40.767
18.424,10.903,24.147,30.095,19.185,70.585,36.12,46.76
15.345,9.873,21.848,27.336,17.309,67.788,31.998,43.037
6.033,2.408,14.149,18.195,9.93,58.508,22.592,32.858
-0.812,-4.433,8.629,9.911,3.935,49.819,14.277,22.816
0.682,-3.558,10.067,8.427,4.574,47.626,12.981,19.294
12.615,7.596,18.997,15.17,13.045,53.798,20.766,25.377
29.672,23.303,31.259,25.847,25.096,64.329,32.731,36.452
40.79,33.171,39.281,32.896,33.141,71.6,40.388,42.99
41.725,33.012,39.381,32.579,33.92,71.685,40.423,41.333
38.643,29.29,35.876,29.305,31.633,68.347,37.482,37.449
39.546,31.316,36.178,30.453,32.944,68.235,38.394,37.585
45.688,38.853,41.824,35.631,38.883,71.444,43.696,39.329
51.529,43.261,46.43,37.894,43.302,72.614,47.189,38.396
54.256,42.686,46.666,37.031,43.398,71.959,47.086,38.133
57.183,43.787,48.068,39.351,44.79,74.503,49.686,42.633
61.154,48.511,53.91,45.554,50.689,80.55,58.219,50.091
62.569,52.409,58.837,50.594,55.933,86.027,67.028,57.142
62.058,54.414,58.99,52.758,56.613,89.158,69.749,61.029
65.091,58.538,58.81,55.465,56.886,92.137,68.533,61.813
72.226,65.352,62.425,60.628,60.869,96.33,70.052,63.76
77.049,68.745,65.773,64.574,64.546,98.72,73.159,67.306
76.358,65.932,64.783,64.358,63.628,97.257,72.292,68.237
74.519,63.626,63.648,63.687,62.389,95.887,71.054,68.155
74.076,66.488,65.485,65.422,64.372,97.212,74.351,70.644
72.27,68.937,65.54,65.018,64.575,96.458,75.762,71.552
70.856,67.011,62.469,60.052,60.797,91.116,70.808,67.851
76.166,66.619,63.47,57.62,60.381,88.431,68.511,66.643
85.475,71.99,71.542,63.353,67.807,94.362,76.282,73.78
88.363,77.906,78.864,70.991,75.946,102.376,86.148,81.698
84.184,79.752,79.03,72.479,77.122,103.538,87.322,80.66
81.934,80.288,76.718,71.516,75.139,101.468,83.472,75.929
83.588,81.664,77.556,74.657,76.34,103.407,83.314,76.505
84.169,81.497,78.78,78.234,77.949,105.923,84.098,77.152
83.991,80.074,78.107,78.132,76.806,105.186,81.842,72.777
86.31,81.002,79.381,78.977,77.317,106.428,82.895,72.636
90.29,85.262,84.08,83.977,82.007,112.5,90.45,81.856
94.593,91.154,87.963,89.304,86.191,118.544,97.282,90.737
98.206,95.266,87.3,90.732,85.665,120.195,98.803,92.57
98.227,93.994,83.44,88.093,82.27,117.723,98.254,92.027
95.485,89.062,81.177,84.763,80.608,114.316,98.796,92.897
94.546,85.943,82.404,84.073,81.849,113.065,99.97,93.721
95.551,86.617,84.572,86.613,83.831,115.223,101.516,95.346
95.579,89.72,86.597,91.787,86.137,120.557,105.244,100.173
94.295,93.636,89.233,98.116,89.299,126.836,110.682,105.554
92.455,96.078,90.185,101.915,90.81,130.139,112.981,106.366
89.723,94.695,86.588,99.899,87.794,127.964,109.48,101.73
86.082,90.192,80.962,93.648,82.207,121.984,104.271,95.039
83.459,86.906,78.436,88.777,78.775,117.183,101.576,89.669
84.769,88.466,79.895,88.977,79.087,117.503,100.682,88.174
90.45,93.875,83.083,92.958,81.831,122.509,101.162,92.269
95.882,98.461,86.164,96.33,85.232,127.446,103.37,98.173
96.055,99.083,87.446,95.791,87.113,127.562,104.601,99.201
93.763,98.72,87.633,93.389,87.606,124.547,104.275,96.778
95.569,102.409,89.975,93.971,89.619,124.498,105.702,97.826
101.298,109.416,94.955,98.292,94.132,129.117,109.583,102.938
106.109,114.899,99.618,103.027,98.857,134.597,113.276,107.349
108.064,116.671,101.914,105.893,101.466,137.694,115.125,109.599
108.066,115.578,102.221,106.899,101.787,137.921,115.785,111.623
106.749,112.541,100.657,105.812,100.096,135.159,115.005,111.759
105.005,109.359,97.207,103.248,96.929,130.85,111.996,107.881
105.026,109.295,94.918,102.484,95.286,129.225,109.724,105.386
106.88,112.615,96.172,104.645,96.883,131.431,110.981,108.964
106.407,114.176,97.352,105.842,98.095,132.857,112.032,112.819
100.213,108.682,92.967,101.666,94.115,128.535,106.411,108.522
91.447,97.887,84.229,92.997,86.001,119.274,95.572,97.851
87.656,90.345,79.686,87.699,81.525,113.282,90.667,92.947
91.831,91.982,84.301,91.748,85.611,116.769,96.733,99.887
100.433,100.209,93.439,100.251,93.97,124.407,105.25,109.011
109.709,109.13,100.782,104.918,100.521,127.671,109.298,110.27
116.492,115.914,104.013,104.635,103.226,126.041,109.584,105.064
118.374,121.008,103.619,102.98,102.387,123.244,106.315,98.219
117.707,125.03,102.299,102.277,100.491,121.314,101.217,93.349
117.584,127.399,102.984,103.35,101.199,121.682,100.655,94.74
116.052,127.418,105.666,106.056,104.806,124.461,107.047,102.94
111.474,125.409,107.847,108.549,107.605,126.605,114.771,111.853
108.445,123.91,108.595,109.254,107.724,125.874,118.113,115.129
111.277,125.351,108.944,108.265,106.76,123.153,115.482,110.971
116.389,127.831,108.933,106.661,105.768,120.307,108.973,103.167
118.218,128.647,109.226,106.832,105.785,119.928,106.09,101.103
116.431,128.249,110.947,109.142,107.691,122.281,111.017,107.523
112.682,125.971,111.568,109.021,108.609,122.177,115.239,110.545
107.859,119.993,108.1,103.615,105.501,115.926,110.506,102.714
103.542,112.823,102.507,96.965,100.347,107.819,102.077,93.373
100.607,108.283,98.287,93.744,96.341,103.811,98.03,91.006
98.102,105.762,96.132,93.379,94.231,103.566,98.231,92.685
95.899,103.674,95.764,93.287,94.275,103.31,99.954,94.513
95.54,103.495,96.578,92.803,95.738,102.047,101.912,96.092
97.735,106.388,95.84,91.784,95.469,100.588,101.455,96.018
101.94,110.865,92.723,89.881,92.558,98.654,97.679,93.214
108.273,116.372,93.339,90.719,92.956,98.959,97.469,93.705
113.717,121.496,100.354,97.177,99.748,104.348,105.239,101.837
109.718,119.098,101.887,99.948,102.187,106.114,108.554,104.54
95.864,106.948,89.713,90.222,92.027,95.494,96.314,90.99
84.582,94.961,75.251,76.674,79.022,80.833,79.077,73.098
81.412,89.619,69.924,70.603,73.747,73.3,71.07,64.421
80.673,87.679,71.623,71.986,75.377,73.283,73.729,66.172
80.725,87.374,76.091,76.578,80.696,76.936,82.239,74.179
84.314,90.269,81.518,81.276,87.403,80.81,90.976,82.063
89.857,95.428,84.854,84.336,91.951,83.034,95.11,86.346
91.752,98.437,83.207,84.595,91.277,82.943,92.704,87.051
87.395,96.484,77.811,81.79,86.316,79.957,87.135,84.34
81.871,93.32,74.054,79.448,82.452,76.936,85.892,82.615
80.948,93.419,74.026,80.78,82.046,77.725,89.706,85.945
81.749,93.505,72.901,82.165,80.423,79.454,89.619,87.89
78.927,88.751,68.287,79.776,75.274,77.667,83.041,83.19
74.932,82.613,65.615,77.56,72.241,75.21,79.407,80.639
74.839,81.167,69.546,80.288,76.069,76.696,84.713,88.048
77.677,83.51,77.792,85.615,84.159,80.637,94.851,99.383
80.148,85.761,85.017,88.212,91.018,82.111,103.221,105.036
81.096,87.188,86.015,85.6,91.809,78.339,102.951,100.519
79.073,86.566,78.003,78.515,83.985,70.391,90.626,87.142
74.703,82.767,67.557,71.956,73.72,63.568,77.014,75.084
74.696,81.103,68.108,73.95,73.941,65.049,79.322,77.427
83.355,87.034,81.937,85.776,87.201,75.507,96.88,93.258
92.012,94.222,92.361,95.256,97.669,83.497,107.28,103.658
88.486,91.481,83.48,88.425,89.502,75.78,92.866,91.595
76.01,81.006,62.894,70.255,69.648,57.057,65.864,66.495
68.992,75.939,52.858,62.178,60.45,48.593,55.822,57.854
71.424,79.749,60.829,72.31,69.599,58.721,71.265,75.084
73.534,82.338,71.317,83.069,80.654,69.389,87.921,91.132
68.944,77.617,69.276,79.32,78.024,65.337,83.572,84.429
62.552,71.206,59.826,70.273,68.165,56.668,70.05,71.428
59.505,67.738,55.24,67.714,64.09,54.519,68.063,69.546
58.844,65.171,55.758,67.052,64.649,52.569,70.904,67.336
60.832,65.001,57.478,66.397,65.422,50.216,66.972,61.371
66.422,70.547,61.79,72.851,69.388,57.201,65.85,67.553
69.335,74.711,65.942,80.153,74.262,66.046,71.923,79.269
62.692,67.929,63.006,73.932,71.263,59.576,69.866,73.707
51.619,55.609,55.141,59.423,61.688,43.678,55.054,56.257
48.577,52.089,52.767,55.534,57.897,39.434,47.563,52.814
57.333,60.338,59.964,65.555,65.409,50.01,60.383,68.44
68.869,69.991,68.833,74.738,74.699,59.441,76.14,82.283
72.095,71.864,68.079,72.011,72.967,56.927,71.631,76.937
66.31,66.966,57.44,61.682,61.256,47.152,52.221,58.824
61.782,63.102,50.267,55.685,54.286,40.844,43.587,49.045
63.9,63.234,53.023,57.498,57.869,41.295,51.594,54.206
67.868,64.847,57.951,61.689,63.439,44.91,60.188,62.088
68.648,65.902,58.922,63.564,64.683,47.6,62.307,63.765
61.716,60.315,53.416,57.282,58.609,42.198,58.272,56.099
49.22,47.212,42.812,42.933,46.732,27.885,47.925,41.469
44.413,40.204,37.728,34.441,40.755,19.079,41.082,33.698
49.859,43.825,42.134,38.643,45.035,23.645,44.417,39.241
50.676,44.117,43.342,43.362,46.622,29.479,44.637,43.355
40.754,35.16,34.867,40.217,39.161,26.997,32.589,34.395
30.86,26.916,29.574,37.324,35.478,23.231,25.106,25.182
28.376,25.192,35.316,41.17,42.991,25.321,36.009,31.842
31.207,27.113,41.405,46.297,50.64,29.803,50.097,46.96
36.524,30.527,39.897,46.45,49.935,30.95,49.92,53.171
39.663,32.002,35.276,40.702,45.049,26.134,41.211,48.035
36.998,28.12,33.002,32.779,41.897,17.931,36.676,40.339
32.084,21.972,34.341,28.617,42.171,12.752,36.85,34.894
28.203,17.189,37.571,29.605,44.273,12.504,37.396,32.712
26.441,15.248,41.778,34.238,47.965,15.587,40.897,36.996
30.005,19.084,47.043,42.406,54.124,22.216,47.578,46.687
34.809,24.458,46.602,48.538,55.592,28.044,44.975,49.481
28.931,18.819,32.349,42.3,42.914,22.702,25.325,34.017
14.286,2.776,13.397,26.593,24.366,6.843,4.686,11.513
6.408,-7.881,6.296,16.541,17.093,-5.179,1.71,4.199
6.99,-9.582,7,14.114,18.217,-8.814,8.342,9.801
5.451,-12.391,2.003,9.305,13.792,-11.844,7.321,11.777
2.38,-16.47,-4.605,1.666,6.187,-15.904,0.628,10.269
3.036,-15.815,-4.494,-4.42,3.826,-19.275,-3.861,8.287
1.429,-14.944,-5.117,-11.82,1.361,-25.456,-11.339,-1.903
-7.97,-20.119,-13.582,-21.557,-7.091,-34.485,-23.603,-16.284
-18.697,-27.331,-22.197,-28.088,-14.666,-40.818,-29.442,-20.361
-23.702,-30.634,-23.236,-28.944,-15.01,-42.384,-25.294,-16.192
-24.771,-30.588,-21.214,-26.821,-12.575,-41.239,-21.776,-15.824
-25.886,-30.259,-23.606,-24.658,-13.871,-40.1,-26.193,-21.133
-25.907,-29.747,-27.943,-22.223,-16.74,-39.325,-30.957,-24.211
-24.257,-28.932,-28.544,-18.634,-16.735,-37.626,-28.089,-20.768
-28.179,-32.519,-31.77,-20.25,-20.436,-40.263,-29.42,-22.973
-41.135,-42.26,-44.516,-31.593,-33.938,-51.323,-44.992,-39.06
-53.172,-50.334,-57.891,-42.91,-47.756,-61.236,-58.794,-51.438
-57.773,-52.687,-64.077,-46.679,-53.883,-62.993,-58.351,-46.369
-60.419,-54.484,-67.143,-47.967,-56.42,-62.144,-52.536,-33.666
-64.19,-58.207,-68.982,-51.158,-58.079,-63.818,-49.406,-26.868
-67.394,-62.743,-68.311,-55.991,-58.51,-68.807,-49.575,-29.456
-69.686,-67.766,-66.888,-59.626,-58.68,-73.885,-50.564,-33.04
-67.328,-69.427,-63.698,-57.247,-56.281,-72.81,-46.76,-29.251
-55.962,-63.196,-54.748,-48.561,-47.851,-65.161,-36.725,-22.294
-42.863,-54.345,-44.202,-41.185,-38.594,-59.137,-29.695,-21.943
-38.337,-51.065,-41.211,-41.789,-37.349,-61.148,-35.378,-31.62
-39.087,-50.075,-44.061,-46.204,-41.408,-66.236,-46.699,-42.092
-39.378,-46.334,-46.422,-48.63,-43.908,-68.053,-50.57,-43.807
-41.415,-43.344,-49.271,-51.067,-46.157,-69.042,-49.135,-42.646
-42.05,-41.596,-50.738,-52.531,-47.254,-69.543,-48.717,-44.994
-36.007,-38.209,-46.35,-48.464,-43.225,-65.379,-47.926,-45.962
-30.892,-36.849,-41.951,-42.402,-38.9,-59.099,-46.817,-42.693
-34.333,-39.8,-44.053,-40.071,-39.82,-56.189,-47.273,-39.136
-39.829,-41.984,-47.125,-39.606,-41.778,-55.357,-48.087,-39.3
-39.954,-40.864,-45.451,-37.284,-40.464,-52.637,-49.247,-42.536
-36.351,-38.76,-42.731,-33.695,-38.259,-48.199,-51.264,-43.139
-32.366,-36.189,-41.911,-30.672,-36.705,-43.883,-50.414,-39.047
-30.095,-33.555,-41.008,-29.685,-34.948,-41.43,-45.254,-36.585
-32.003,-34.028,-40.756,-32.552,-34.983,-43.609,-41.302,-38.8
-36.364,-37.184,-43.634,-37.493,-38.351,-48.61,-42.225,-39.984
-38.187,-38.137,-48.382,-40.48,-42.73,-50.973,-46.818,-38.712
-39.119,-38.246,-53.28,-43.658,-47.363,-52.715,-54.394,-43.222
-46.205,-45.3,-59.757,-51.953,-54.847,-59.508,-64.8,-58.399
-57.599,-58.385,-66.85,-62.446,-63.615,-69.265,-74.631,-75.402
-62.389,-66.121,-67.965,-66.97,-65.545,-75.221,-74.894,-78.411
-58.541,-64.678,-60.57,-63.066,-57.612,-73.656,-61.783,-64.176
-55.951,-63.095,-53.358,-57.475,-49.576,-68.249,-49.959,-48.889
-59.959,-67.441,-56.466,-58.55,-52.243,-68.178,-55.432,-48.344
-64.757,-70.987,-66.526,-64.467,-61.817,-74.071,-69.954,-59.025
-62.751,-64.308,-69.358,-63.851,-64.352,-73.987,-72.237,-64.201
-57.984,-54.4,-62.826,-55.514,-58.236,-65.646,-59.676,-57.524
-62.298,-58.135,-60.567,-53.11,-56.761,-62.899,-50.321,-50.921
-71.515,-70.766,-64.987,-59.519,-62.128,-68.558,-52.852,-52.398
-71.487,-73.811,-66.161,-63.226,-64.332,-71.175,-58.802,-56.885
-66.983,-69.363,-65.678,-61.541,-64.19,-68.78,-62.875,-60.088
-68.98,-68.931,-68.22,-59.133,-66.311,-66.515,-63.639,-59.576
-70.824,-69.089,-66.652,-55.533,-64.889,-64.15,-57.51,-54.362
-64.15,-63.517,-58.185,-50.521,-57.675,-60.95,-49.763,-51.161
-55.967,-57.887,-53.417,-48.674,-53.966,-59.738,-51.386,-56.228
-55.893,-60.592,-58.646,-52.734,-58.982,-62.471,-60.252,-65.017
-61.979,-69.453,-65.968,-58.993,-65.491,-67.291,-63.583,-68.123
-65.978,-74.531,-66.145,-61.589,-65.39,-70.393,-57.759,-63.278
-64.48,-71.61,-60.082,-58.681,-59.615,-68.888,-51.225,-56.902
-62.294,-67.708,-55.855,-54.358,-55.382,-64.212,-50.675,-54.202
-64.45,-68.497,-58.268,-53.46,-56.948,-61.269,-53.871,-53.733
-66.685,-67.502,-62.313,-54.268,-59.723,-60.834,-55.08,-53.6
-62.791,-59.11,-60.679,-51.557,-57.195,-58.362,-52.047,-53.3
-56.989,-51.437,-55.09,-46.573,-51.519,-53.554,-47.113,-51.017
-58.62,-54.375,-54.826,-47.205,-51.586,-53.895,-46.806,-49.954
-66.675,-62.625,-62.142,-53.483,-58.531,-59.906,-54.343,-54.82
-69.568,-62.68,-66.691,-54.463,-61.625,-60.151,-61.228,-60.242
-63.002,-54.185,-62.048,-47.504,-55.617,-52.216,-58.977,-59.198
-54.995,-48.407,-54.27,-41.781,-47.757,-46.631,-51.547,-53.639
-53.013,-50.323,-50.655,-42.091,-45.11,-48.161,-47.82,-49.663
-55.36,-54.774,-51.608,-44.788,-46.866,-51.69,-49.607,-49.278
-53.37,-53.781,-51.524,-44.238,-46.876,-50.918,-50.338,-48.51
-44.165,-46.106,-46.83,-39.363,-42.317,-45.664,-45.608,-44.971
-35.71,-38.4,-40.707,-34.115,-37.088,-40.794,-38.336,-40.288
-33.631,-34.734,-36.868,-31.056,-34.593,-38.39,-33.305,-35.517
-35.685,-34.8,-37.182,-31.689,-35.99,-39.135,-35.328,-35.097
-40.683,-40.43,-44.348,-39.545,-43.819,-46.741,-47.007,-45.992
-48.881,-50.687,-56.85,-52.512,-56.905,-59.411,-62.445,-62.939
-52.767,-54.28,-62.608,-57.114,-63.37,-63.48,-67.746,-67.052
-44.59,-43.487,-52.293,-45.309,-53.816,-51.429,-56.242,-51.612
-33.718,-30.951,-38.447,-32.228,-40.629,-39.588,-41.953,-36.888
-34.569,-32.141,-39.45,-35.666,-41.971,-45.29,-42.067,-41.635
-42.21,-40.378,-50.149,-47.523,-52.787,-58.355,-52.181,-55.831
-42.74,-40.205,-53.074,-49.776,-56.044,-60.276,-57.104,-60.82
-37.407,-32.825,-47.278,-43.301,-50.613,-53.362,-53.82,-56.598
-37.736,-31.149,-44.625,-40.7,-47.779,-50.728,-49.751,-53.402
-46.716,-39.646,-49.126,-45.749,-51.826,-55.489,-49.868,-54.906
-56.803,-50.57,-54.936,-52.797,-57.6,-62.086,-53.038,-58.611
-61.484,-56.234,-57.511,-56.953,-60.53,-66.186,-55.704,-61.264
-61.708,-57.293,-57.477,-57.911,-60.747,-66.98,-55.411,-60.86
-61.144,-57.459,-56.559,-57.287,-59.883,-65.335,-52.004,-57.676
-59.649,-55.932,-54.539,-55.035,-58.022,-61.625,-46.78,-52.559
-54.878,-50.8,-50.468,-50.057,-54.248,-55.753,-40.624,-45.023
-48.857,-46.037,-46.456,-45.208,-50.509,-51.092,-36.088,-38.274
-47.164,-46.945,-46.978,-46.281,-51.481,-53.102,-38.954,-40.818
-50.344,-51.222,-51.077,-52.194,-56.471,-59.81,-48.105,-51.814
-53.119,-52.629,-51.672,-54.558,-58.153,-62.464,-51.826,-57.198
-53.671,-51.004,-47.558,-51.452,-54.76,-59.696,-46.859,-53.122
-54.618,-50.69,-45.246,-49.6,-52.371,-58.581,-43.666,-50.546
-54.443,-51.028,-45.896,-50.922,-52.224,-60.703,-45.723,-53.147
-48.094,-46.175,-42.666,-48.944,-48.147,-59.296,-44.258,-53.258
-37.792,-36.013,-34.091,-40.92,-39.078,-51.576,-36.115,-47.076
-33.503,-29.256,-30.234,-34.883,-34.372,-45.636,-31.528,-42.045
-36.919,-29.234,-36.249,-36.601,-38.715,-47.61,-36.766,-44.469
-38.1,-28.919,-41.581,-39.577,-42.642,-51.503,-41.981,-47.848
-34.57,-26.505,-39.314,-38.975,-40.102,-52.263,-39.165,-45.858
-33.489,-27.483,-36.848,-39.605,-37.981,-53.94,-35.706,-43.886
-34.932,-30.778,-37.934,-42.948,-39.661,-57.866,-37.929,-46.634
-36.519,-31.944,-38.45,-44.445,-40.637,-59.89,-40.201,-49.487
-41.614,-32.063,-38.097,-43.534,-39.814,-59.461,-37.406,-47.387
-46.61,-31.287,-37.874,-42.38,-38.659,-58.517,-33.317,-42.315
-44.08,-27.244,-36.503,-40.746,-36.839,-57.25,-33.147,-40.456
-39.002,-22.488,-34.127,-38.187,-34.298,-55.624,-35.083,-43.649
-38.141,-20.785,-30.461,-34.171,-30.682,-52.142,-32.506,-44.227
-37.069,-20.596,-24.793,-28.195,-25.629,-45.434,-23.828,-35.392
-31.302,-18.653,-18.492,-22.251,-20.338,-38.618,-14.678,-23.617
-22.533,-12.695,-11.146,-16.157,-13.907,-32.527,-7.253,-15.992
-13.298,-3.103,-2.191,-7.427,-5.169,-23.795,1.209,-9.098
-8.212,2.881,2.61,-1.178,0.337,-16.947,7.21,-4
-12.347,-2.593,-2.438,-6.239,-3.991,-21.651,2.679,-9.678
-22.255,-15.658,-12.763,-19.515,-14.632,-35.168,-11,-24.448
-29.52,-25.24,-19.452,-28.309,-22.137,-43.842,-21.583,-33.296
-34.189,-29.133,-23.023,-29.288,-25.48,-43.782,-23.133,-29.892
-39.387,-31.808,-27.962,-28.972,-29.153,-42.603,-21.263,-23.426
-39.529,-31.755,-29.636,-27.892,-30.16,-41.998,-18.392,-20.233
-33.267,-27.81,-25.639,-24.416,-26.641,-39.715,-14.682,-20.06
-31.497,-26.641,-24.906,-24.379,-26.583,-40.261,-16.188,-23.962
-37.461,-30.891,-30.859,-30.634,-32.868,-46.151,-24.405,-30.466
-39.927,-33.118,-35.497,-36.006,-37.616,-50.696,-32.021,-35.121
-34.433,-29.233,-35.139,-35.266,-37.238,-49.416,-35.183,-37.695
-31.07,-26.066,-34.071,-32.524,-36.156,-46.91,-35.245,-39.729
-35.311,-29.686,-33.809,-32.746,-36.265,-47.643,-32.284,-38.82
-40.222,-36.751,-33.03,-36.11,-36.636,-51.011,-29.945,-36.606
-40.64,-41,-33.393,-40.17,-38.326,-54.794,-34.361,-39.708
-38.835,-40.378,-35.716,-41.495,-40.679,-56.187,-41.939,-45.624
-38.636,-38.017,-38.003,-40.123,-41.581,-55.224,-45.06,-47.183
-42.028,-38.303,-39.58,-40.214,-41.971,-55.726,-44.33,-45.69
-44.847,-38.838,-37.59,-40.141,-39.935,-55.841,-39.349,-41.823
-39.755,-32.811,-27.348,-33.188,-30.066,-48.68,-25.009,-29.737
-29.594,-22.447,-14.882,-22.908,-17.489,-38.046,-9.242,-14.374
-23.618,-16.009,-11.705,-19.769,-13.897,-35.151,-8.468,-11.461
-20.837,-12.936,-15.429,-22.066,-17.497,-38.382,-20.513,-20.358
-15.425,-8.56,-15.284,-20.539,-17.549,-37.854,-26.921,-23.517
-13.024,-8.098,-13.73,-19.646,-16.443,-37.661,-24.397,-20.856
-22.238,-18.658,-22.96,-31.734,-26.477,-49.898,-31.654,-33.797
-34.578,-31.699,-37.679,-48.645,-42.077,-66.187,-50.654,-59.16
-34.53,-33.132,-38.348,-49.391,-43.317,-65.717,-55.843,-64.049
-24.567,-25.773,-25.258,-37.132,-30.776,-52.452,-41.781,-45.192
-18.876,-21.734,-16.199,-32.034,-22.495,-47.475,-31.226,-33.985
-19.823,-21.397,-14.878,-34.553,-21.482,-50.857,-30.101,-37.655
-18.092,-16.882,-11.095,-29.927,-17.034,-46.749,-24.102,-34.569
-11.498,-9.201,-4.643,-19.516,-9.81,-36.695,-15.512,-23.867
-6.884,-6.297,-3.673,-16.955,-9.084,-35.207,-19.257,-25.954
-4.048,-6.783,-3.935,-19.284,-10.333,-38.84,-27.217,-36.134
3.161,-2.165,5.765,-11.564,-1.061,-31.186,-17.62,-27.721
12.073,6.852,22.012,5.198,15.878,-13.154,6.831,0.988
14.761,11.751,31.089,16.252,26.244,-1.048,24.105,23.558
11.377,11.109,29.163,17.181,25.792,0.053,26.205,26.087
7.465,9.978,22.936,14.906,20.676,-2.094,19.695,17.58
3.337,7.486,16.13,10.989,13.457,-5.642,7.288,4.769
-3.39,0.059,8.02,3.311,3.607,-12.924,-8.331,-10.698
-9.302,-7.605,1.6,-3.069,-4.058,-18.614,-17.713,-20.227
-8.808,-8.089,4.479,-0.918,-1.252,-16.013,-10.383,-15.308
-3.667,-2.581,17.143,8.293,11.855,-7.442,12.543,0.62
-1.511,1.244,25.142,13.932,20.386,-2.381,26.674,11.254
-3.094,1.341,19.763,11.231,15.106,-4.05,14.032,9.997
-1.459,3.155,13.049,7.946,7.753,-5.757,-4.728,8.576
1.266,4.934,9.2,3.028,3.087,-10.633,-15.409,-1.06
-1.766,0.51,-1.528,-10.415,-8.048,-25.187,-31.762,-30.852
-0.936,-0.182,-6.813,-14.808,-12.87,-29.541,-37.528,-40.794
12.656,13.948,10.625,5.621,5.908,-7.37,-7.377,-2.211
20.393,26.338,26.284,21.62,22.589,9.936,18.703,25.289
7.745,19.528,11.952,5.344,8.172,-6.653,-3.765,-7.125
-2.942,10.707,-6.963,-14.154,-10.972,-26.09,-33.227,-40.658
6.342,18.464,0.803,-5.334,-2.617,-15.45,-18.824,-18.592
17.685,29.444,16.513,10.712,13.854,2.378,8.933,13.856
17.262,29.672,16.649,10.15,14.003,2.333,9.458,8.363
14.794,25.594,11.5,5.533,8.622,-1.508,-0.278,-6.672
13.214,20.885,9.455,6.311,6.842,1.455,-2.332,-3.18
4.578,10.329,0.639,-0.708,-1.953,-3.355,-11.057,-4.272
-5.895,-1.066,-12.234,-16.048,-15.851,-17.902,-25.741,-22.225
-5.591,-1.819,-12.46,-19.753,-16.97,-21.071,-23.191,-28.163
0.752,5.405,-1.999,-8.667,-5.911,-8.082,-5.459,-9.657
-0.336,9.314,1.169,-1.933,-1.689,0.787,0.275,4.067
-5.809,8.311,-5.185,-6.603,-8.16,-3.477,-10.651,-6.31
-3.147,9.179,-7.212,-9.549,-11.009,-6.952,-16.319,-20.463
8.091,15.757,0.841,-1.787,-3.153,1.275,-6.94,-15.446
18.416,24.075,11.577,10.727,7.981,14.901,5.787,2.066
21.371,27.404,16.717,17.821,13.409,22.157,10.964,13.148
17.229,25.629,14.873,15.918,11.805,19.495,9.777,12.626
12.126,24.921,11.288,10.215,8.508,13.564,9.002,8.204
13.8,30.496,11.919,8.372,8.7,12.48,11.261,6.751
22.751,40.488,16.934,12.37,12.155,17.639,13.133,9.103
28.121,41.204,20.649,15.851,14.179,22.632,11.244,11.783
20.847,23.563,19.185,11.662,12.116,19.746,7.293,10.234
9.105,3.142,16.177,3.684,9.724,11.445,6.178,5.412
5.679,-1.868,15.303,0.935,9.969,6.895,8.344,2.968
7.954,3.475,13.414,2.445,9.038,6.952,7.957,3.127
6.747,7.173,8.301,2.01,4.347,6.8,2.348,0.955
3.385,9.875,3.982,0.313,-0.21,7.116,-3.641,-4.391
2.974,12.972,2.766,-0.577,-2.126,9.096,-6.44,-9.477
2.524,7.636,1.822,-4.289,-3.902,8.474,-7.607,-11.608
-1.053,-7.214,-0.181,-11.683,-6.66,3.991,-8.182,-10.665
-3.088,-14.696,-1.95,-16.836,-8.801,0.911,-8.355,-9.528
3.024,-3.27,-1.705,-14.841,-8.071,4.01,-7.339,-8.437
13.99,11.701,1.359,-7.941,-3.598,12.215,-2.785,-3.838
10.842,5.19,1.669,-5.82,-1.497,16.692,1.397,0.045
-12.87,-19.762,-5.627,-13.78,-7.256,10.759,-1.224,-3.942
-31.966,-37.438,-13.935,-24.144,-14.781,0.41,-7.648,-11.303
-31.667,-40.666,-17.871,-30.296,-18.849,-7.083,-13.245,-16.475
-28.18,-41.083,-21.546,-34.533,-22.938,-12.498,-18.712,-21.088
-30.693,-41.117,-25.291,-36.889,-26.508,-15.479,-20.95,-22.449
-29.948,-35.634,-23.809,-33.786,-24.28,-12.657,-15.268,-16.765
-24.442,-28.755,-18.631,-27.74,-18.531,-6.436,-7.316,-10.627
-25.424,-32.286,-18.577,-27.79,-18.716,-5.845,-9.437,-14.752
-37.18,-48.148,-28.174,-38.865,-29.449,-16.869,-25.424,-31.311
-49.461,-62.306,-41.883,-53.839,-44.209,-33.071,-43.931,-47.524
-50.824,-62.755,-49.711,-60.878,-52.011,-41.491,-50.54,-48.507
-41.872,-54.038,-46.524,-58.002,-48.789,-39.43,-44.801,-40.969
-32.925,-47.163,-36.744,-52.779,-40.196,-35.14,-37.56,-41.005
-29.615,-43.727,-29.581,-49.284,-33.857,-32.635,-35.491,-44.924
-26.595,-38.106,-27.664,-44.991,-30.781,-28.603,-34.836,-40.321
-18.245,-29.367,-24.578,-37.732,-26.298,-21.005,-28.379,-27.662
-9.17,-22.946,-17.986,-30.403,-20.194,-13.623,-19.597,-17.687
-10.226,-24.699,-17.318,-31.148,-20.729,-15.322,-22.71,-23.368
-20.957,-32.736,-27.47,-41.444,-30.607,-27.382,-38.888,-43.061
-25.063,-35.356,-35.653,-47.596,-37.43,-35.107,-48.866,-54.344
-14.994,-26.648,-30.289,-40.055,-31.511,-28.5,-41.777,-45.957
-1.547,-14.407,-16.935,-26.965,-18.756,-16.068,-27.744,-30.695
7.359,-5.335,-5.645,-18.1,-7.956,-7.718,-17.229,-19.239
12.151,-0.1,-1.864,-15.664,-3.803,-5.536,-13.888,-14.172
10.504,-1.627,-8.172,-21.04,-9.667,-11.096,-21.422,-20.695
2.751,-9.533,-19.843,-32.178,-21.641,-22.632,-36.641,-37.113
-1.868,-14.303,-26.154,-39.284,-28.141,-30.242,-45.376,-46.468
1.899,-10.353,-22.628,-35.655,-23.853,-26.929,-38.499,-36.538
8.241,-3.318,-14.704,-26.266,-15.558,-17.865,-25.26,-19.76
11.662,1.224,-9.016,-19.442,-10.982,-11.874,-20.352,-16.214
12.072,2.845,-7.937,-17.914,-10.968,-11.786,-24.91,-25.122
8.863,0.734,-11.667,-19.661,-14.002,-15.204,-30.682,-30.136
2.574,-4.4,-18.288,-20.658,-18.693,-17.485,-32.994,-24.431
-0.719,-7.233,-22.074,-18.452,-21.411,-15.704,-32.716,-16.577
4.223,-4.556,-18.113,-15.107,-18.807,-12.265,-31.849,-14.761
11.837,-1.368,-12.459,-16.544,-15.979,-13.888,-34.306,-20.389
10.186,-5.095,-18.343,-27.026,-23.618,-24.824,-46.281,-35.04
1.507,-11.081,-30.256,-37.088,-35.515,-34.997,-59.055,-48.822
1.231,-6.436,-27.109,-31.398,-31.995,-29.526,-53.247,-42.783
7.97,5.143,-11.927,-15.191,-16.113,-14.427,-33.568,-22.126
5.594,7.039,-6.245,-5.85,-8.005,-6.096,-20.506,-7.313
-6.409,-3.483,-13.039,-7.964,-11.837,-8.256,-21.203,-6.272
-16.611,-16.378,-21.547,-16.158,-19.62,-16.809,-31.994,-18.024
-20.567,-24.372,-25.189,-22.217,-24.617,-24.236,-41.197,-30.096
-19.867,-26.324,-23.292,-21.045,-24.095,-24.403,-39.98,-28.727
-15.891,-23.086,-18.671,-15.629,-20.048,-19.719,-34.27,-19.214
-7.934,-13.248,-10.565,-6.632,-11.775,-11.117,-25,-6.835
0.975,-1.018,-1.424,4.443,-1.86,-0.554,-11.464,7.244
1.839,0.41,-4.428,4.314,-4.218,-1.819,-12.979,4.809
-1.978,-7.051,-19.242,-10.913,-19.83,-18.834,-37.768,-22.648
17.992,8.185,-20.778,-17.633,-24.213,-27.451,-56.744,-46.06
79.595,67.34,7.195,8.77,0.761,-2.09,-42.464,-34.946
127.422,115.386,41.164,48.373,34.844,38.229,-9.365,-0.824
81.041,67.539,39.623,44.382,36.206,35.614,2.015,14.805
-17.979,-33.243,4.072,-5.395,3.356,-14.662,-17.955,-1.631
-56.502,-60.188,-21.155,-31.411,-19.252,-42.756,-35.788,-19.807
-35.357,-18.257,-19.47,-13.71,-15.512,-26.422,-35.611,-23.6
-22.613,-2.729,-13.67,-2.65,-11.255,-16.144,-36.821,-27.81
-26.209,-21.335,-20.664,-15.137,-20.249,-29.574,-47.375,-35.172
-36.977,-40.976,-38.311,-31.446,-35.173,-46.345,-55.295,-37.093
-64.118,-72.395,-56.363,-50.364,-49.608,-65.413,-57.798,-39.211
-89.148,-107.705,-64.101,-69.232,-58.441,-84.626,-62.415,-46.65
-80.539,-104.792,-56.245,-68.007,-54.044,-83.435,-65.068,-48.378
-48.456,-63.785,-38.596,-45.59,-37.349,-60.589,-55.445,-38.475
-28.382,-29.786,-24.02,-24.854,-21.524,-39.412,-41.973,-28.603
-35.891,-32.702,-22.11,-22.523,-19.154,-36.741,-43.513,-30.095
-63.957,-65.542,-35.667,-39.526,-32.71,-53.747,-60.507,-42.212
-85.859,-91.568,-51.872,-58.91,-47.965,-73.905,-71.983,-51.842
-69.938,-75.852,-46.58,-55.554,-42.828,-71.814,-61.867,-45.963
-28.706,-35.55,-22.95,-33.354,-21.676,-50.768,-43.027,-34.596
-14.359,-23.618,-15.221,-24.348,-15.253,-42.242,-40.535,-35.739
-41.274,-49.929,-32.854,-37.013,-30.837,-54.309,-53.573,-42.485
-62.848,-67.117,-43.495,-43.854,-39.337,-60.002,-56.266,-35.714
-44.554,-44.769,-26.871,-27.966,-23.581,-43.182,-38.517,-16.621
-16.467,-14.856,-7.591,-11.309,-6.518,-25.985,-25.922,-10.661
-23.514,-21.008,-13.473,-19.164,-12.688,-33.826,-38.913,-31.499
-56.825,-53.862,-31.648,-39.483,-28.974,-54.229,-56.321,-53.923
-75.825,-72.921,-37.589,-47.61,-33.323,-61.773,-56.224,-54.747
-68.008,-65.217,-34.255,-43.425,-29.91,-57.044,-51.059,-46.104
-50.502,-48.043,-31.105,-36.154,-27.112,-50.336,-49.755,-38.541
-43.874,-42.334,-27.284,-30.484,-23.443,-45.421,-43.917,-28.528
-59.124,-58.115,-30.428,-37.021,-26.869,-51.649,-41.604,-28.006
-84.771,-82.241,-47.098,-57.447,-43.652,-71.174,-55.218,-47.091
-94.762,-89.184,-60.727,-71.058,-57.109,-84.119,-68.88,-64.574
-82.107,-74.925,-53.108,-62.227,-49.699,-74.718,-60.412,-56.169
-66.593,-60.073,-32.679,-42.259,-29.571,-53.897,-36.423,-30.558
-66.309,-59.563,-23.395,-33.416,-19.357,-44.397,-23.984,-18.301
-77.263,-66.573,-34.641,-41.743,-27.87,-53.314,-35.045,-31.086
-83.442,-66.954,-50.948,-52.572,-40.971,-66.033,-52.499,-47.868
-78.373,-60.044,-52.894,-52.492,-41.509,-67.46,-55.209,-48.848
-70.108,-56.148,-41.428,-44.527,-30.485,-59.196,-43.482,-38.467
-67.453,-58.66,-33.137,-39.835,-22.333,-53.667,-35.06,-30.723
-69.106,-62.068,-34.003,-41.73,-22.744,-55.868,-38.079,-29.358
-68.655,-63.167,-33.474,-42.311,-22.877,-56.552,-39.893,-26.226
-65.336,-63.734,-28.106,-37.546,-19.056,-50.071,-33.846,-19.262
-63.989,-64.911,-26.708,-33.828,-18.019,-44.528,-28.938,-16.462
-67.635,-66.525,-31.739,-36.424,-22.177,-47.397,-30.355,-21.907
-74.949,-69.747,-39.281,-43.966,-29.146,-56.215,-38.214,-33.951
-81.033,-73.221,-46.163,-50.1,-35.74,-62.16,-48.68,-44.587
-80.704,-72.188,-47.685,-48.504,-36.85,-59.025,-51.433,-42.632
-75.759,-67.627,-44.361,-42.895,-33.806,-52.823,-45.654,-32.032
-74.122,-66.156,-44.48,-42.502,-34.879,-53.455,-42.274,-27.796
-77.135,-68.244,-48.954,-46.264,-39.938,-57.992,-43.656,-30.576
-76.885,-67.959,-48.456,-45.724,-39.899,-56.926,-42.097,-28.629
-69.722,-62.538,-40.776,-39.689,-33.159,-50.169,-36.032,-20.306
-59.967,-53.781,-33.406,-33.655,-26.71,-44.159,-31.351,-15.215
-49.342,-43.261,-27.282,-27.983,-21.184,-38.99,-28.195,-14.54
-36.348,-31.537,-15.872,-17.083,-10.196,-28.587,-18.259,-6.966
-26.68,-23.642,-3.107,-5.025,2.157,-16.958,-3.878,5.114
-29.525,-27.588,-4.034,-7.785,0.206,-20.214,-5.052,-1.41
-38.006,-37.303,-16.337,-23.464,-13.665,-36.262,-21.902,-24.626
-33.54,-34.164,-16.319,-26.104,-14.509,-38.901,-22.817,-28.157
-18.024,-18.517,-0.505,-9.783,1.513,-22.363,-1.649,-6.708
-10.196,-9.018,8.166,2.459,10.573,-9.806,9.544,5.091
-8.265,-6.138,6.345,4.525,8.687,-7.396,2.915,0.735
2.811,3.901,12.572,11.73,14.051,-0.141,3.605,4.418
17.247,17.652,26.107,23.302,25.863,10.935,15.406,15.215
17.493,18.932,28.712,24.463,27.136,11.341,17.098,13.331
-2.277,-1.253,14.062,10.909,13.373,-2.452,2.938,-1.081
-32.446,-33.468,-7.307,-9.377,-5.256,-22.171,-11.805,-13.743
-53.496,-52.409,-21.433,-23.716,-17.287,-35.731,-16.627,-17.823
-56.523,-48.681,-27.904,-27.763,-23.446,-39.005,-19.908,-20.359
-52.05,-39.228,-34.803,-29.309,-30.702,-39.633,-29.328,-28.744
-50.191,-34.816,-39.978,-32.116,-35.902,-42.309,-35.608,-36.59
-50.228,-31.336,-39.235,-33.112,-35.264,-44.908,-34.659,-39.33
-49.541,-30.037,-37.252,-33.799,-34.282,-47.535,-34.351,-41.269
-49.902,-36.46,-36.699,-38.128,-35.443,-51.971,-34.513,-41.411
-52.543,-44.576,-35.869,-44.026,-36,-56.44,-33.144,-40.129
-53.301,-42.827,-34.683,-45.222,-35.156,-56.359,-32.899,-41.947
-47.984,-31.31,-30.91,-39.041,-30.955,-49.39,-28.154,-40.172
-40.475,-20.843,-25.146,-31.3,-24.671,-40.721,-18.654,-30.209
-39.911,-20.432,-27.507,-31.534,-26.573,-39.714,-21.013,-26.335
-47.056,-28.891,-40.182,-40.863,-39.159,-48.223,-39.11,-38.431
-50.974,-35.916,-48.021,-49.137,-48.047,-56.89,-52.726,-53.819
-42.632,-31.167,-40.072,-44.624,-41.386,-53.125,-46.087,-52.948
-24.777,-14.28,-22.95,-26.519,-23.664,-34.822,-24.15,-31.423
-10.887,-0.236,-10.256,-10.961,-9.135,-18.857,-4.319,-8.764
-14.332,-6.567,-10.317,-14.639,-8.998,-23.01,-1.881,-8.597
-32.303,-29.405,-21.231,-32.31,-21.498,-41.244,-17.418,-28.608
-49.807,-48.559,-34.264,-46.811,-35.525,-55.452,-37.369,-48.072
-58.049,-53.047,-41.115,-49.434,-41.737,-57.152,-45.765,-52.863
-56.185,-44.802,-38.165,-39.435,-37.121,-45.934,-36.579,-40.248
-45.114,-29.589,-28.091,-22.629,-25.626,-28.099,-18.725,-19.842
-30.732,-16.619,-18.871,-11.773,-16.465,-17.02,-7.27,-9.061
-23.575,-15.49,-18.445,-14.818,-17.239,-20.215,-9.262,-14.003
-24.813,-23.142,-23.789,-23.786,-23.417,-28.896,-15.171,-21.382
-23.14,-25.662,-22.292,-24.636,-21.952,-29.503,-10.411,-17.727
-14.064,-19.348,-12.463,-16.836,-12.213,-22.187,0.408,-8.335
-6.474,-12.779,-6.144,-9.475,-6.102,-14.942,3.013,-1.836
-7.394,-11.029,-8.632,-6.588,-8.028,-11.016,-0.698,3.368
-16.142,-14.956,-17.356,-10.698,-16.041,-14.506,-8.698,-1.152
-28.661,-24.633,-29.606,-22.769,-29.011,-27.065,-28.277,-26.418
-36.295,-32.701,-36.529,-31.422,-37.44,-35.698,-44.047,-49.665
-32.615,-30.484,-30.327,-25.848,-31.574,-29.034,-32.59,-40.413
-24.191,-22.328,-19.015,-14.391,-19.523,-16.149,-8.876,-13.272
-20.682,-18.406,-15.625,-10.922,-15.635,-11.094,-2.866,-4.622
-22.251,-20.499,-22.644,-18.342,-22.537,-18.023,-16.572,-21.34
-22.757,-22.509,-29.53,-28.511,-29.592,-30.33,-29.647,-38.689
-19.118,-20.044,-25.072,-29.562,-25.61,-33.925,-26.016,-34.366
-16.247,-16.427,-16.615,-21.365,-16.81,-25.394,-14.206,-18.036
-16.172,-13.84,-14.962,-11.926,-13.49,-13.379,-9.38,-9.527
-12.839,-9.162,-11.87,-1.021,-8.897,0.161,-3.191,-2.532
-6.399,-4.713,-1.73,10.404,1.433,13.3,12.362,11.945
-1.611,-4.268,4.356,13.797,6.536,16.744,19.045,19.247
-0.536,-7.044,-0.552,6.177,-0.339,7.914,3.236,5.879
-10.6,-17.626,-13.895,-9.63,-15.886,-8.383,-21.441,-20.18
-30.366,-35.859,-29.693,-27.259,-32.695,-24.957,-35.426,-38.899
-40.198,-47.202,-39.28,-37.165,-41.949,-33.23,-34.765,-39.935
-35.713,-46.863,-41.586,-39.147,-43.706,-33.949,-30.209,-34.918
-31.752,-43.575,-42.074,-39.611,-44.089,-34.034,-29.815,-36.292
-27.516,-37.894,-39.322,-37.303,-41.809,-32.311,-29.622,-37.616
-16.897,-28.342,-30.696,-29.692,-34.045,-25.316,-25.582,-31.29
-19.261,-26.989,-26.078,-24.666,-29.151,-19.92,-22.845,-25.563
-48.239,-43.6,-36.57,-31.04,-36.928,-25.595,-26.636,-29.932
-77.284,-65,-51.593,-41.801,-48.915,-36.55,-31.654,-38.21
-78.661,-70.772,-51.69,-42.197,-48.582,-37.382,-29.85,-38.141
-60.684,-60.46,-39.53,-32.137,-37.702,-26.657,-23.138,-29.415
-48.312,-51.625,-34.776,-26.437,-33.33,-19.444,-20.631,-23.729
-52.178,-54.83,-44.597,-33.237,-42.326,-24.628,-25.96,-28.24
-60.021,-60.242,-55.097,-42.379,-52.066,-32.227,-30.888,-34.386
-57.711,-56.554,-53.935,-41.862,-50.773,-30.658,-27.386,-31.594
-50.109,-49.136,-46.946,-34.717,-43.935,-23.173,-19.727,-22.797
-45.235,-44.438,-40.232,-27.118,-37.615,-15.347,-12.176,-13.475
-38.413,-38.053,-29.438,-18.044,-27.836,-5.717,-2.833,-4.485
-30.217,-31.52,-19.703,-11.828,-19.309,1.16,1.689,-1.841
-30.414,-33.497,-21.828,-15.419,-22.35,-1.797,-5.44,-8.253
-35.326,-39.58,-28.262,-21.826,-30.054,-7.126,-14.543,-13.891
-32.722,-38.381,-27.518,-22.101,-30.941,-5.678,-18.491,-16.103
-24.997,-32.062,-25.726,-21.395,-29.78,-3.295,-25.06,-24.076
-20.274,-27.789,-27.64,-22.344,-30.924,-3.015,-31.551,-31.562
-15.552,-23.263,-24.261,-17.092,-26.583,3.18,-23.222,-21.614
-8.542,-16.674,-15.823,-8.36,-17.929,12.18,-8.459,-3.808
-4.572,-11.361,-13.968,-6.203,-16.352,14.098,-9.436,-1.666
-3.6,-7.486,-17.119,-5.575,-19.565,15.339,-19.053,-9.839
-0.889,-4.662,-14.812,1.91,-16.762,24.265,-15.638,-7.765
2.358,-3.739,-8.497,9.256,-9.625,32.283,-2.733,2.208
3.307,-2.526,-5.212,9.079,-5.853,31.894,3.741,5.48
5.792,0.466,-1.687,9.014,-2.793,32.232,5.242,5.043
12.667,2.696,7.783,16.418,5.429,40.993,11.626,11.059
17.228,2.046,16.486,23.922,13.291,49.586,19.116,17.965
14.094,0.766,15.189,24.135,12.761,50.252,18.251,17.369
7.962,1.013,6.813,20.37,6.374,47.411,10.679,12.321
4.217,-0.456,-1.437,15.029,-0.51,43.847,2.562,6.182
4.317,-4.313,-5.682,8.705,-5.109,39.297,-2.682,0.798
8.907,-4.279,-2.862,6.871,-3.598,38.891,-1.451,0.732
14.282,-0.532,3.227,10.187,1.655,43.485,4.049,3.967
15.052,-0.507,4.483,12.714,3.056,46.736,8.058,6.25
13.85,-2.662,4.264,15.394,3.212,49.289,13.796,12.579
15.819,0.319,9.728,22.311,8.542,56.014,23.516,23.831
20.08,7.8,16.859,30.018,15.191,64.078,30.106,31.517
24.617,14.468,20.588,33.916,18.209,68.237,30.998,33.423
27.335,16.605,21.421,32.993,17.912,67.002,28.091,29.404
25.785,14.087,20.358,29.028,15.891,62.792,23.844,20.206
22.833,11.484,19.389,27.002,14.846,60.831,24.487,17.369
21.348,10.227,16.889,25.653,12.402,59.068,24.387,19.701
19.521,7.433,9.521,19.505,4.213,52.055,12.055,10.855
19.804,6.891,5.353,15.689,-1.006,48.04,1.077,-0.192
26.749,14.479,13.355,23.654,6.83,56.305,9.853,7.501
34.827,24.513,24.497,35.3,18.447,67.746,25.224,24.711
35.092,27.293,26.728,38.617,20.813,70.788,27.654,31.054
29.539,24.244,24.386,36.146,18.082,68.644,22.946,27.038
24.954,22.01,23.918,34.652,17.401,67.587,21.254,22.153
21.317,20.224,21.206,32.656,15.044,65.637,18.698,18.699
18.467,18.005,16.366,29.311,10.67,61.956,15.242,17.589
22.358,21.081,18.399,30.805,12.723,63.043,18.803,21.56
32.06,28.35,26.222,36.735,20.185,68.923,25.069,26.97
36.871,29.095,27.874,37.416,21.693,70.022,22.671,26.17
36.802,25.159,24.046,34.217,18.267,67.685,17.377,22.787
41.894,29.012,27.056,37.719,21.604,72.432,22.361,26.602
49.848,38.413,36.58,45.007,30.736,80.852,33.885,34.756
51.981,42.661,42.167,46.485,35.703,82.794,40.744,39.951
51.084,42.818,41.918,43.979,35.407,80.211,41.351,42.625
51.837,43.67,38.699,41.669,32.667,77.913,36.955,39.894
51.973,44.307,33.559,38.586,28.065,75.139,29.431,29.607
52.744,46.333,32.276,38.436,27.409,75.108,28.157,24.453
58.322,52.457,39.564,45.946,35.994,82.351,38.024,34.104
65.095,57.542,48.463,54.637,46.878,90.805,49.412,47.655
65.79,54.889,49.611,54.312,49.57,90.251,52.156,50.572
61.419,47.552,45.292,46.957,45.614,82.127,49.152,45.393
58.872,42.743,43.442,41.552,43.603,75.217,48.663,43.411
57.694,39.37,43.042,38.57,43.457,70.446,50.747,44.257
53.596,34.867,40.71,36.457,41.841,67.062,52.761,43.691
51.225,34.754,41.355,40.11,42.783,70.507,55.88,47.01
54.458,39.721,45.786,47.325,46.5,78.378,56.793,53.209
54.718,39.037,44.694,46.112,44.341,77.679,49.87,49.255
46.651,29.445,36.539,34.792,35.42,65.868,39.949,34.946
40.861,24.205,33.597,28.11,31.761,58.292,39.31,29.621
46.433,32.344,41.312,35.2,38.857,65.013,49.29,41.372
54.561,42.877,48,44.435,45.454,74.099,55.86,52.487
53.475,42.932,44.147,42.667,41.676,72.467,49.982,49.189
48.745,38.998,38.077,37.277,35.219,68.269,41.506,42.882
52.191,43.124,41.991,41.547,38.315,73.901,43.624,47.799
59.281,49.993,51.326,49.999,46.925,82.439,52.503,57.368
57.41,47.42,52.586,48.976,48.138,80.94,54.959,57.351
48.008,38.272,45.035,39.647,41.249,71.541,48.412,46.932
41.835,33.191,37.577,31.78,34.39,63.114,39.604,34.283
42.436,34.168,34.317,29.205,31.066,58.908,34.153,26.207
47.561,39.041,36.347,32.571,32.771,60.536,36.458,28.579
55.163,46.673,43.338,40.706,39.899,67.669,46.493,40.698
61.62,52.676,49.904,48.343,46.982,75.178,56.779,52.78
66.587,56.353,54.566,54.527,51.659,81.888,64.029,61.111
73.433,62.859,60.524,60.448,56.533,87.993,68.449,65.456
76.044,67.339,60.319,57.149,54.769,83.523,60.8,55.342
67.387,61.454,47.76,42.801,41.595,67.767,42.235,34.944
59.33,55.11,38.971,37.097,33.362,62.314,36.835,32.066
64.471,61.162,47.619,49.226,42.44,75.703,52.138,51.088
71.935,70.266,58.058,60.372,52.866,87.538,64.593,63.951
66.267,66.256,51.515,54.497,46.67,81.78,58.765,56.507
53.343,52.944,36.244,39.616,31.687,66.777,45.112,42.502
48.509,46.705,29.853,31.994,24.716,58.872,37.511,36.16
52.224,50.759,32.128,33.919,26.245,60.525,36.219,35.505
54.596,53.756,34.08,35.647,27.995,61.742,36.152,33.914
54.288,51.056,36.455,34.841,30.225,60.254,39.341,34.961
56.286,50.241,42.028,38.102,35.724,63.412,47.679,42.522
59.167,54.691,45.301,44.13,39.51,69.599,53.168,48.174
58.84,58.595,44.388,46.229,39.167,70.981,52.873,48.477
57.642,60.016,46.343,47.192,41.202,70.839,56.991,53.908
59.927,63.822,52.736,52.862,47.466,76.505,67.072,65.064
64.206,70.315,56.674,59.502,51.099,83.996,70.636,68.345
65.974,73.448,54.523,59.885,48.559,84.247,63.736,60.298
67.144,73.535,51.283,56.687,45.398,79.385,58.423,54.946
75.888,80.244,55.791,61.174,50.418,82.319,66.375,65.857
91.194,94.85,67.485,73.528,62.51,94.154,81.23,83.747
99.86,104.34,73.742,78.001,68.748,97.832,84.494,82.897
97.513,103.425,69.779,70.007,64.425,88.247,73.687,62.561
92.616,100.631,63.523,62.841,57.772,80.514,63.308,49.46
90.646,100.71,59.931,61.663,53.652,80.618,59.098,51.439
93.963,103.279,61.32,61.978,54.14,82.075,59.863,56.598
102.93,108.105,69.632,64.479,61.787,84.084,68.332,64.291
110.149,111.503,77.579,69.129,70.305,87.883,80.241,76.145
110.803,111.734,76.136,71.114,70.667,90.011,84.251,81.936
112.946,115.088,71.686,71.92,67.865,91.448,81.59,78.316
124.057,126.581,77.939,79.245,74.396,99.242,86.399,79.466
137.669,140.926,93.469,91.549,89,111.141,100.547,93.198
143.719,147.622,103.046,95.238,97.153,112.398,107.212,101.748
143.097,142.747,98.12,83.508,91.074,97.48,95.945,86.431
144.039,133.841,86.172,68.415,79.071,81.348,77.401,61.538
146.256,128.959,78.721,63.273,72.658,77.002,66.297,52.46
139.598,126.716,78.053,65.642,73.298,79.781,66.176,58.039
125.006,124.65,81.445,69.951,77.778,84.399,75.455,67.862
115.716,123.717,84.355,73.636,81.225,88.957,85.225,76.119
114.008,122.277,79.898,68.998,76.268,83.829,79.683,68.512
113.892,119.068,70.887,57.121,66.432,69.283,63.507,47.823
115.923,115.005,66.543,51.668,62.242,61.789,56.147,39.242
120.106,110.657,65.938,54.23,62.29,64.404,55.892,42.361
121.901,110.053,68.411,57.71,64.793,67.745,57.758,43.356
116.75,112.451,76.314,61.402,72.443,70.199,68.893,49.362
102.332,105.252,76.926,59.424,73.061,68.008,75.505,56.381
88.487,88.853,62.909,48.424,58.999,58.576,61.909,49.489
91.335,83.558,53.707,41.695,49.35,52.908,48.881,38.418
104.332,90.75,59.141,43.186,53.78,52.808,52.175,33.929
104.794,87.963,61.859,40.269,55.168,47.156,54.856,30.532
96.35,75.547,58.02,36.458,50.349,42.593,52.508,32.116
103.082,79.217,65.685,47.21,57.302,54.223,61.11,45.27
117.747,96.648,81.468,63.372,72.072,70.514,73.978,56.171
110.417,96.385,81.165,62.546,71.179,69.088,71.134,51.284
84.224,73.558,64.743,47.623,55.444,53.705,58.201,40.627
68.457,55.328,53.747,38.289,45.771,43.387,52.824,37.169
75.164,59.099,58.219,43.327,51.417,46.624,59.951,42.598
91.057,73.938,71.08,56.452,64.907,58.574,73.856,55.807
96.916,78.59,79.034,64.082,72.537,66.726,83.253,68.969
90.611,70.631,76.509,60.836,69.375,64.64,82.253,70.399
81.48,61.018,67.43,52.695,60.695,56.914,73.977,57.92
65.35,47.042,53.871,41.494,48.313,45.748,59.875,37.649
37.627,23.212,38.699,27.052,33.485,31.616,43.721,21.302
18.393,4.444,31.114,19.263,25.271,24.002,35.887,20.345
22.238,4.7,32.893,23.242,26.833,27.542,37.039,28.142
30.003,11.99,32.708,25.758,27.21,28.941,36.695,27.47
24.943,10.125,25.534,17.79,20.303,19.726,32.782,18.747
15.263,0.054,16.818,7.179,11.343,8.485,28.291,13.24
8.633,-10.123,8.445,0.635,3.328,1.672,19.637,10.114
3.505,-13.401,4.007,0.152,-0.17,0.854,11.343,6.016
0.863,-6.959,10.094,8.099,6.459,8.304,15.964,7.968
5.052,4.685,22.325,21.138,19.217,20.448,30.343,20.329
16.41,15.59,31.551,32.889,29.548,31.639,41.212,36.023
27.565,23.417,36.745,40.7,35.506,39.9,45.861,45.607
32.815,28.865,41.527,44.945,39.948,44.316,49.224,47.143
35.944,32.965,47.323,47.642,44.89,46.242,53.353,46.208
41.2,35.297,53.269,50.793,50.18,48.864,58.898,49.019
48.761,39.226,60.054,57.037,57.098,54.795,69.563,60.111
56.654,47.577,66.433,66.514,64.966,63.357,82.344,75.838
55.744,49.365,64.371,68.316,64.417,64.273,81.156,75.984
40.338,36.114,51.265,54.458,50.936,49.848,60.993,50.279
24.038,22.533,37.99,39.001,36.913,33.443,40.968,24.37
20.862,20.669,32.559,35.283,32.574,28.716,33.749,20.146
23.341,18.697,31.735,34.142,33.082,27.178,32.488,23.722
19.72,9.395,32.689,28.525,34.026,21.494,34.444,23.591
15.309,6.654,36.204,27.958,37.814,20.717,41.925,28.119
19.499,17.32,39.975,35.208,42.845,27.701,47.239,35.659
29.024,28.799,42.248,41.322,45.588,33.897,46.266,38.054
37.285,33.082,47.025,45.302,49.36,38.268,48.503,41.979
40.161,32.951,53.183,49.653,54.303,42.962,54.889,50.745
31.763,26.921,50.076,46.434,50.515,39.958,52.25,50.317
13.836,12.46,34.274,29.916,34.07,23.342,36.625,33.107
0.995,-1.286,19.193,12.39,18.185,5.105,21.914,13.857
5.271,-0.085,20.449,12.197,19.058,3.922,23.742,12.205
20.029,13.503,33.624,27.178,32.574,18.442,38.067,26.933
26.373,19.86,38.843,35.73,38.53,27.23,45.727,38.711
17.558,11.328,29.953,27.859,30.153,19.496,40.487,36.086
5.904,1.69,19.372,15.669,19.408,7.081,32.762,24.131
2.104,1.445,15.94,11.192,15.325,2.754,29.977,14.125
3.182,4.562,18.141,12.617,16.699,4.694,32.609,14.814
2.293,2.497,21.637,14.016,19.397,6.528,38.62,25.61
-2.659,-4.653,20.544,12.999,18.005,6.339,39.573,34.306
-8.834,-11.625,13.052,8.119,10.61,2.414,29.491,28.61
-11.522,-13.86,6.889,1.404,4.346,-4.491,18.019,12.947
-9.087,-11.605,5.366,-1.862,3.067,-8.522,12.342,2.753
-5.676,-10.848,0.613,-3.287,-0.337,-9.945,4.177,0.39
-7.873,-16.199,-8.084,-7.606,-7.585,-13.968,-6.592,-2.366
-17.548,-24.852,-11.73,-11.064,-10.769,-17.348,-8.025,-3.433
-30.709,-32.706,-12.615,-11.222,-10.895,-17.317,-2.315,0.903
-39.753,-37.194,-18.328,-11.657,-14.304,-17.45,-0.986,4.627
-37.732,-35.413,-21.197,-10.225,-15.24,-15.794,-2.626,4.545
-30.712,-32.992,-15.494,-7.548,-9.921,-13.656,-2.786,0.507
-31.039,-37.762,-12.532,-11.423,-8.064,-18.989,-5.57,-8.798
-36.78,-43.153,-18.12,-18.789,-13.226,-26.766,-11.788,-17.052
-39.562,-41.692,-22.127,-18.518,-15.688,-24.457,-13.1,-13.807
-38.373,-37.336,-16.889,-9.791,-9.362,-13.363,-4.885,-0.705
-36.423,-35.192,-9.497,-3.17,-1.784,-7.084,3.083,7.546
-37.877,-37.861,-9.532,-5.815,-1.912,-12.252,2.579,5.225
-43.494,-45.216,-15.475,-13.34,-7.772,-21.419,-1.471,-0.616
-49.634,-53.502,-23.58,-21.475,-15.972,-29.648,-9.296,-11.754
-52.512,-57.386,-30.383,-27.479,-23.322,-35.728,-19.434,-24.715
-50.057,-53.779,-27.465,-23.626,-20.754,-32.024,-14.059,-17.704
-47.609,-50.85,-20.16,-15.728,-13.092,-23.679,2.898,2.779
-53.51,-58.588,-26.589,-21.87,-19.125,-29.537,-1.546,-1.012
-63.919,-69.443,-43.617,-39.029,-36.604,-47.623,-29.516,-29.85
-67.763,-70.114,-50.995,-46.776,-44.777,-56.629,-45.401,-45.143
-61.776,-60.356,-44.226,-38.902,-38.061,-48.412,-34.487,-32.156
-49.794,-46.99,-33.718,-25.177,-27.211,-32.715,-17.079,-11.219
-36.627,-35.279,-25.672,-14.699,-19.416,-20.844,-10.299,-0.719
-29.765,-31.474,-22.44,-13.194,-16.894,-20.235,-12.825,-3.101
-36.132,-38.717,-27.7,-22.371,-22.263,-31.57,-19.142,-13.984
-49.046,-48.197,-37.865,-32.559,-31.431,-42.715,-25.225,-25.27
-54.928,-49.445,-41.533,-31.654,-33.911,-40.78,-25.988,-26.829
-54.445,-46.004,-36.551,-23.23,-28.542,-30.54,-20.65,-17.411
-55.222,-46.585,-32.777,-19.999,-24.955,-26.159,-16.148,-8.814
-54.473,-49.118,-34.79,-23.94,-27.139,-30.31,-18.408,-11.374
-48.711,-46.75,-38.114,-27.479,-30.517,-34.645,-26.686,-21.704
-42.678,-39.553,-38.608,-25.509,-30.844,-32.498,-33.709,-26.033
-38.186,-31.403,-34.154,-17.569,-25.842,-23.437,-29.532,-15.422
-31.846,-25.108,-25.41,-7.948,-16.771,-13.415,-15.875,-0.043
-24.19,-21.806,-17.005,-2.364,-9.044,-8.47,-6.09,4.648
-22.055,-22.702,-14.821,-3.236,-8.109,-9.735,-7.39,-2.03
-31.508,-30.802,-22.246,-11.583,-16.171,-18.055,-17.319,-14.319
-44.911,-41.47,-32.098,-21.591,-25.726,-28.063,-27.292,-25.127
-47.712,-43.544,-32.256,-22.144,-25.373,-27.999,-27.687,-24.747
-42.993,-40.113,-26.64,-17.005,-19.574,-21.661,-21.58,-16.399
-44.003,-42.565,-27.645,-19.276,-20.815,-23.467,-20.326,-14.062
-48.696,-46.847,-32.487,-25.342,-26.067,-30.029,-24.116,-18.769
-48.486,-43.607,-32.663,-23.592,-26.057,-29.018,-25.387,-19.749
-44.724,-35.51,-29.305,-15.634,-21.691,-21.9,-21.874,-12.905
-41.709,-28.72,-25.85,-9.309,-17.218,-15.889,-16.595,-4.72
-41.904,-26.443,-25.43,-8.851,-16.362,-14.181,-17.07,-5.35
-45.104,-28.753,-29.639,-13.858,-20.74,-17.502,-26.366,-16.012
-44.912,-29.335,-31.436,-17.076,-23.241,-20.831,-32.586,-23.386
-38.205,-23.504,-25.415,-11.956,-17.943,-16.899,-25.9,-17.369
-31.287,-15.875,-18.097,-1.772,-10.563,-6.411,-15.112,-5.577
-28.662,-12.754,-15.939,5.076,-7.758,1.424,-12.437,-1.149
-29.069,-15.326,-17.406,3.63,-8.995,-1.196,-17.18,-6.29
-32.124,-20.863,-20.634,-3.963,-12.343,-10.952,-22.768,-14.087
-36.201,-24.881,-24.108,-10.286,-15.472,-17.236,-24.844,-18.162
-35.375,-23.987,-22.467,-9.645,-13.351,-15.128,-19.576,-14.714
-29.539,-20.719,-17.963,-6.814,-9.039,-12.02,-13.933,-9.804
-26.699,-20.539,-22.663,-12.057,-14.331,-18.26,-24.997,-19.322
-29.534,-23.125,-35.201,-22.675,-27.049,-30.145,-47.015,-39.846
-36.157,-27.97,-43.226,-29.212,-34.7,-38.069,-56.789,-49.656
-44.942,-36.61,-46.1,-33.339,-37.31,-43.524,-54.397,-47.03
-48.309,-41.864,-46.384,-36.652,-37.849,-47.782,-51.252,-44.315
-43.592,-39.173,-42.449,-34.999,-34.085,-46.695,-45.329,-40.909
-41.319,-37.906,-39.417,-31.245,-30.479,-42.991,-36.935,-32.161
-47.158,-43.624,-43.48,-33.016,-33.727,-44.558,-36.192,-27.604
-54.948,-51.002,-52.493,-42.587,-42.621,-54.541,-48.334,-40.912
-56.392,-53.804,-58.347,-51.969,-48.893,-64.916,-62.316,-59.581
-49.039,-49.512,-55.481,-51.693,-46.101,-65.469,-62.583,-59.594
-41.104,-42.905,-49.953,-46.538,-40.136,-60.568,-54.248,-49.07
-41.213,-42.119,-50.052,-46.399,-39.698,-60.017,-51.998,-47.51
-48.521,-49.587,-55.643,-52.176,-44.721,-65.526,-57.374,-53.288
-61.785,-63.361,-67.157,-63.542,-55.473,-77.758,-70.204,-64.495
-78.546,-77.839,-82.641,-78.194,-70.176,-93.504,-87.552,-80.778
-85.771,-82.081,-88.877,-84.358,-76.072,-99.173,-92.771,-86.588
-73.589,-69.787,-77.144,-73.804,-64.653,-86.756,-77.481,-71.146
-52.231,-49.382,-57.587,-55.203,-45.558,-66.809,-56.529,-46.997
-41.36,-37.152,-48.645,-45.62,-36.414,-56.883,-50.525,-36.298
-46.888,-40.014,-55.91,-50.843,-42.638,-61.703,-61.672,-45.021
-58.324,-51.476,-68.235,-62.02,-53.922,-72.506,-74.436,-58.925
-64.653,-61.74,-74.33,-69.798,-60.121,-80.749,-79.815,-66.434
-61.662,-62.02,-71.207,-68.802,-58.132,-80.138,-78.849,-65.087
-52.547,-50.533,-62.903,-59.038,-50.528,-69.377,-72.072,-55.135
-44.846,-36.601,-55.669,-48.275,-43.107,-57.039,-61.521,-43.378
-40.774,-29.027,-50.678,-43.23,-38.405,-51.442,-53.278,-39.53
-37.922,-28.394,-48.645,-44.481,-37.65,-53.024,-54.622,-45.501
-35.311,-28.649,-51.473,-47.503,-41.146,-56.209,-62.235,-50.646
-34.772,-26.675,-56.297,-48.152,-45.127,-57.166,-63.592,-45.76
-40.247,-30.336,-60.319,-50.209,-48.29,-60.453,-59.703,-41.123
-47.49,-39.181,-61.64,-54.625,-50.076,-66.457,-59.387,-46.976
-48.675,-40.914,-60.51,-57.051,-50.17,-70.246,-63.618,-57.994
-51.474,-39.982,-65.348,-63.017,-56.049,-77.666,-74.799,-72.836
-59.554,-44.251,-72.983,-71.777,-64.389,-87.419,-84.998,-84.07
-58.388,-42.486,-67.345,-69.178,-59.318,-84.274,-77.008,-75.615
-51.272,-34.04,-58.385,-62.552,-50.822,-76.275,-65.381,-63.714
-56.885,-33.833,-67.884,-69.727,-60.449,-82.64,-75.263,-74.023
-67.374,-38.802,-83.075,-79.183,-75.439,-91.776,-90.583,-89.204
-62.071,-34.254,-78.813,-73.163,-71.624,-85.958,-84.858,-83.586
-44.252,-20.267,-59.35,-58.83,-53.825,-73.075,-65.704,-65.989
-33.574,-11.041,-47.925,-50.85,-43.411,-66.69,-55.536,-56.161
-39.286,-17.333,-55.124,-54.362,-49.518,-70.092,-61.509,-59.258
-50.81,-30.915,-67.926,-64.764,-61.128,-79.311,-72.898,-67.967
-53.886,-35.701,-70.224,-71.64,-63.819,-85.393,-76.57,-72.644
-51.644,-33.294,-67.331,-72.361,-61.664,-85.593,-75.37,-73.904
-56.11,-35.508,-73.515,-75.072,-68.09,-87.895,-81.655,-79.885
-65.838,-40.729,-85.442,-81.477,-80.452,-94.564,-93.59,-89.015
-68.819,-38.674,-89.068,-82.213,-84.765,-96.005,-97.628,-91.249
-61.577,-28.414,-82.264,-73.256,-78.27,-87.465,-90.983,-84.924
-53.843,-20.555,-75.039,-63.891,-70.939,-78.289,-84.321,-78.653
-54.554,-24.596,-75.06,-64.417,-70.899,-78.868,-85.769,-79.162
-61.954,-37.373,-81.376,-73.628,-77.291,-87.796,-92.882,-85.413
-68.254,-46.83,-86.465,-81.237,-82.413,-95.447,-97.045,-90.815
-65.776,-45.266,-82.147,-78.348,-78.164,-93.308,-91.325,-87.737
-55.193,-36.49,-70.822,-67.328,-66.79,-82.769,-79.479,-76.504
-48.117,-29.932,-64.505,-59.671,-60.018,-75.119,-73.524,-67.41
-50.339,-28.99,-66.799,-60.514,-62.009,-76.301,-76.821,-67.045
-54.094,-29.746,-69.818,-63.859,-65.463,-80.11,-80.685,-70.881
-53.034,-28.239,-68.845,-63.726,-65.204,-79.872,-79.311,-72.787
-49.994,-25.895,-66.935,-61.732,-63.917,-77.392,-77.099,-72.633
-48.651,-27.828,-67.438,-62.611,-65.223,-77.805,-80.557,-72.617
-48.272,-33.648,-69.873,-67.034,-68.619,-81.946,-89.778,-75.353
-49.228,-39.256,-74.091,-74.126,-73.497,-89.307,-101.026,-86.035
-54.96,-46.724,-81.244,-83.543,-80.462,-99.26,-110.477,-102.781
-62.687,-55.484,-86.196,-88.855,-84.307,-104.532,-111.385,-110.057
-61.887,-54.813,-79.462,-81.705,-76.567,-97.435,-98.124,-98.229
-50.481,-42.323,-63.233,-66.414,-60.357,-83.366,-77.693,-78.811
-41.793,-33.633,-53.156,-57.724,-50.805,-76.057,-66.823,-68.789
-46.325,-40.461,-57.646,-62.302,-55.53,-81.115,-72.948,-72.362
-55.138,-51.679,-65.887,-70.357,-63.91,-89.689,-84.336,-81.418
-51.801,-48.569,-62.805,-68.276,-61.222,-88.866,-83.671,-84.071
-37.256,-32.846,-49.913,-56.467,-48.651,-78.124,-70.196,-76.058
-27.637,-22.809,-41.448,-47.236,-39.987,-69.043,-59.18,-65.744
-29.183,-25.274,-42.695,-46.813,-40.768,-68.337,-58.174,-61.859
-33.967,-31.053,-46.3,-51.032,-44.486,-72.253,-60.045,-63.32
-37.015,-33.506,-48.726,-55.449,-47.554,-75.909,-61.175,-65.531
-39.706,-33.792,-53.688,-58.201,-52.306,-77.386,-66.184,-66.133
-40.586,-32.583,-58.718,-56.776,-56.033,-75.386,-71.676,-63.008
-36.421,-28.279,-56.606,-50.583,-53.227,-70.127,-68.556,-56.251
-29.816,-22.373,-50.334,-44.783,-47.767,-65.785,-61.826,-52.669
-27.571,-22.192,-48.931,-45.972,-47.54,-67.751,-62.753,-58.362
-29.741,-31.479,-50.994,-51.829,-49.939,-73.444,-66.136,-64.879
-32.151,-43.302,-49.993,-53.762,-48.78,-74.167,-62.209,-60.152
-38.824,-51.877,-49.782,-52.839,-48.761,-71.452,-59.071,-51.984
-49.956,-56.704,-54.693,-56.283,-54.348,-74.217,-65.603,-54.9
-54.605,-56.254,-58.61,-63.514,-59.462,-83.18,-74.331,-67.597
-50.512,-51.414,-57.227,-68.815,-59.499,-91.595,-77.317,-79.816
-45.065,-45.585,-53.534,-67.452,-56.009,-92.431,-74.786,-83.014
-43.382,-43.203,-53.778,-62.505,-54.74,-88.16,-74.462,-79.919
-47.082,-47.91,-60.815,-62.605,-60.417,-88.245,-83.072,-80.956
-50.051,-52.311,-63.822,-63.533,-63.553,-88.896,-86.456,-80.249
-43.392,-45.221,-51.657,-54.279,-52.058,-79.73,-68.254,-64.98
-29.197,-31.053,-33.335,-39.863,-33.854,-66.004,-42.56,-43.673
-16.387,-22.434,-23.232,-32.239,-23.659,-58.633,-31.566,-31.943
-9.028,-21.626,-20.059,-31.307,-20.906,-57.32,-31.858,-28.709
-6.887,-23.144,-15.614,-30.289,-17.12,-56.138,-27.25,-23.419
-11.002,-26.438,-11.602,-28.863,-13.37,-54.504,-18.343,-14.351
-24.419,-37.315,-19.167,-35.775,-21.093,-60.821,-24.121,-17.165
-45.032,-56.197,-41.521,-56.099,-44.065,-81.544,-52.564,-44.826
-60.11,-71.377,-62.013,-75.809,-65.293,-103.191,-80.6,-76.648
-59.02,-72.616,-62.085,-75.607,-65.631,-104.255,-81.211,-79.327
-50.413,-66.672,-47.88,-61.321,-51.265,-89.59,-61.002,-58.387
-50.851,-67.38,-41.23,-56.238,-44.316,-84.718,-48.714,-48.617
-58.415,-74.442,-46.655,-64.41,-49.736,-94.481,-55.136,-59.578
-58.792,-76.786,-49.129,-68.843,-52.701,-99.735,-64.647,-69.472
-51.39,-71.874,-43.69,-62.889,-47.397,-93.352,-65.298,-66.444
-44.923,-64.522,-38.913,-54.896,-41.846,-85.544,-62.585,-59.188
-39.003,-55.654,-34.361,-46.911,-36.379,-78.198,-57.356,-50.661
-31.836,-48.315,-25.433,-36.425,-26.938,-66.961,-44.207,-36.754
-30.716,-50.935,-19.692,-30.309,-20.856,-59.566,-31.22,-24.451
-40.978,-64.033,-26.212,-35.678,-26.851,-65.339,-30.595,-23.876
-56.538,-78.464,-41.38,-47.623,-41.355,-78.507,-41.728,-33.927
-68.439,-89.553,-53.746,-57.589,-53.733,-88.378,-54.429,-46.474
-73.976,-96.805,-54.969,-61.397,-55.841,-91.089,-56.273,-51.065
-72.078,-93.919,-44.519,-55.326,-45.816,-84.38,-42.389,-39.51
-62.744,-79.621,-29.664,-40.957,-30.216,-70.082,-23.177,-18.269
-54.811,-68.299,-20.86,-31.616,-20.876,-61.053,-13.587,-7.295
-56.731,-70.459,-21.229,-36.505,-22.575,-66.304,-16.583,-16.321
-61.192,-76.042,-23.084,-44.928,-27.157,-74.685,-22.304,-29.188
-57.58,-72.527,-21.855,-43.789,-27.729,-72.703,-22.928,-27.932
-51.036,-65.688,-24.163,-39.638,-30.127,-68.134,-24.333,-23.536
-50.828,-65.905,-31.533,-42.138,-37.834,-71.765,-32.549,-32.122
-53.937,-68.524,-33.341,-44.247,-41.239,-75.413,-37.446,-40.797
-52.961,-64.752,-25.327,-38.395,-34.489,-70.299,-28.659,-32.729
-48.409,-58.48,-17.346,-31.737,-26.548,-63.568,-16.741,-19.026
-46.741,-57.997,-17.712,-32.945,-26.917,-63.786,-18.462,-18.852
-48.641,-59.975,-19.564,-36.544,-29.489,-65.88,-27.214,-27.315
-46.709,-55.804,-9.922,-30.417,-20.426,-59.012,-19.979,-22.87
-39.004,-47.546,9.12,-14.351,-0.775,-43.046,5.745,0.117
-35.145,-44.388,19.149,-1.406,11.292,-29.726,24.544,21.978
-39.734,-46.57,12.832,0.695,7.693,-26.856,21.584,24.968
-40.764,-44.463,7.675,0.634,4.341,-27.072,15.082,18.107
-32.576,-37.843,14.631,5.809,11.573,-22.615,21.361,19.316
-29.261,-37.629,20.186,9.245,17.062,-19.181,29.886,28.189
-34.991,-42.349,18.296,7.718,15.174,-19.941,31.561,34.572
-35.556,-40.948,20.295,7.58,16.165,-18.844,31.999,32.865
-27.97,-35.039,26.057,8.5,20.271,-16.335,31.299,22.9
-23.975,-33.055,24.037,5.183,17.699,-18.346,24.795,11.762
-28.133,-35.606,15.199,-1.791,9.388,-24.844,17.455,6.34
-33.764,-37.993,10.049,-7.964,4.223,-30.974,15.164,3.441
-33.625,-35.723,12.356,-9.3,5.111,-31.963,14.366,-1.553
-25.645,-27.14,20.025,-3.703,10.322,-25.471,14.037,-2.449
-13.628,-15.298,29.136,6.493,17.496,-14.108,19.186,8.135
-3.992,-5.28,34.748,15.427,23.208,-4.47,28.462,22.611
0.82,0.215,37.978,20.661,27.581,0.53,37.648,29.6
1.494,0.873,41.885,24.24,31.715,3.64,43.971,30.085
-0.595,-1.052,41.687,26.172,31.276,5.393,41.562,29.002
0.291,0.531,36.52,26.648,26.891,5.033,34.248,30.32
6.452,6.843,35.163,28.453,26.905,5.311,36.079,37.584
8.137,8.542,37.772,29.14,29.965,5.868,44.552,43.767
-0.712,0.395,35.731,23.975,27.32,2.687,45.29,39.753
-9.817,-8.55,30.222,17.988,21.51,-1.046,40.2,33.573
-6.94,-6.729,29.315,20.841,21.593,3.143,39.09,36.681
8.229,7.703,36.331,33.455,29.996,16.281,42.419,45.307
26.663,26.184,50.423,48.975,44.263,31.521,50.822,54.4
37.18,36.308,64.107,59.551,57.549,41.492,64.303,64.681
35.075,33.131,66.155,59.285,60.405,41.244,71.179,68.474
28.055,25.554,58.953,51.491,54.531,34.547,65.267,60.183
26.407,25.437,55.312,47.37,50.95,32.011,57.084,50.703
27.592,30.286,53.984,47.717,48.908,33.205,50.055,46.327
23.924,30.264,46.829,45.614,42.187,31.346,41.06,44.143
20.92,29.623,44.887,47.463,42.117,34.024,43.632,51.923
27.338,37.88,60.185,59.946,58.984,47.461,64.848,69.814
36.345,48.141,75.996,68.783,74.983,56.242,79.113,72.619
39.022,50.346,73.729,63.219,72.555,50.293,68.794,53.043
39.388,49.589,64.994,57.181,64.592,44.721,57.098,42.83
40.89,51.361,65.946,62.09,67.081,50.932,65.794,58.638
