EEG 1,EEG 2,EEG 3,EEG 4,EEG 5,EEG 6,EEG 7,EEG 8
2.147,14.463,9.984,13.22,2.143,39.065,13.832,15.172
-1.371,10.338,5.115,10.36,-2.688,37.562,10.668,13.296
-9.045,2.8,-2.556,4.011,-10.65,30.856,4.381,6.6
-16.508,-4.739,-7.497,-1.337,-16.053,24.083,0.108,0.539
-16.63,-6.194,-4.869,0.281,-13.457,25.315,3.199,1.427
-9.542,-1.144,3.017,7.095,-5.091,33.03,10.841,7.83
-2.562,3.975,8.708,10.97,1.015,37.412,14.71,12.432
-0.776,4.32,8.871,8.676,1.2,34.193,12.577,11.822
-2.389,2.541,8.038,5.79,0.318,29.6,11.059,9.975
-5.188,1.954,9.38,6.416,1.938,29.129,13.512,10.53
-11.528,-1.844,7.729,5.47,0.79,28.263,13.024,9.952
-20.996,-11.537,0.591,0.097,-5.901,23.58,6.375,5.836
-27.612,-19.471,-5.196,-2.992,-11.136,21.22,1.363,3.167
-29.332,-21.181,-6.112,-2.005,-11.356,22.627,1.427,3.144
-29.187,-22.294,-6.521,-3.949,-11.555,20.381,1.093,0.406
-27.392,-24.92,-8.124,-8.516,-13.542,15.226,-0.818,-3.844
-22.378,-24.595,-8.025,-7.885,-13.402,16.166,-0.127,-2.883
-17.013,-21.801,-5.764,-2.396,-10.124,22.603,3.143,1.944
-16.272,-21.932,-3.8,0.425,-7.057,25.283,5.306,3.821
-20.004,-25.77,-2.672,-0.846,-5.785,22.432,6.202,2.828
-23.538,-29.772,-1.255,-1.872,-4.897,20.132,7.88,3.382
-23.531,-31.907,0.193,-1.147,-3.753,21.207,8.671,5.194
-19.57,-32.084,1.396,0.175,-2.832,23.813,6.605,6.186
-14.343,-31.666,2.001,0.916,-3.06,25.532,3.714,6.705
-12.623,-32.868,0.04,-0.64,-5.725,24.388,1.552,6.157
-16.326,-35.343,-4.243,-4.295,-9.695,20.795,-0.36,3.623
-22.879,-37.468,-7.66,-7.206,-12.163,17.762,-1.692,1.173
-29.273,-40.795,-10.012,-8.981,-13.794,15.977,-3.265,-0.099
-33.22,-46.156,-13.748,-11.321,-17.291,13.933,-7.826,-2.457
-30.081,-48.475,-16.492,-11.737,-20.228,13.793,-13.446,-4.881
-17.007,-43.27,-13.182,-6.843,-17.47,18.083,-13.462,-2.939
-2.35,-33.925,-6.131,0.009,-10.693,23.261,-7.318,2.311
0.244,-27.489,-2.453,2.857,-6.309,24.554,-1.262,5.645
-10.602,-27.785,-3.595,0.78,-6.09,21.883,1.789,5.955
-23.537,-33.003,-5.632,-2.143,-6.884,19.092,3.393,5.718
-30.268,-37.305,-6.063,-1.691,-6.511,20.084,4.123,6.122
-30.866,-37.072,-5.435,1.279,-5.81,23.142,3.189,6.02
-27.528,-34.517,-4.773,2.168,-6.078,22.514,0.846,4.108
-22.526,-33.083,-3.808,0.727,-6.519,18.738,-0.553,2.251
-19.629,-34.072,-2.211,0.662,-6,17.546,1.235,3.49
-21.583,-37.926,-1.664,1.091,-6.107,18.044,4.11,5.814
-25.45,-43.012,-3.131,-0.933,-8.038,15.705,4.246,5.437
-23.901,-44.72,-2.703,-2.015,-7.982,13.799,4.107,5.298
-14.843,-40.985,3.099,2.474,-2.566,17.848,9.039,9.981
-6.7,-36.14,8.84,8.774,2.884,24.029,15.073,15.302
-6.986,-34.5,7.607,10.14,1.49,25.176,14.058,14.925
-10.558,-34.853,3.415,7.368,-3.35,22.258,9.019,11.575
-9.258,-35.214,3.311,5.299,-4.861,20.288,7.635,10.157
-5.815,-36.616,4.684,3.871,-4.87,18.535,7.704,8.359
-7.961,-39.95,2.256,0.175,-8.12,13.332,4.191,2.966
-15.431,-43.575,-0.961,-3.956,-11.806,7.486,0.838,-2.348
-20.192,-44.718,1.11,-3.187,-9.881,8.056,3.2,-1.948
-17.489,-42.5,6.925,2.827,-3.731,15.156,7.756,2.969
-11.954,-39.335,10.138,8.32,-0.013,21.258,7.536,6.256
-8.946,-36.514,11.474,10.829,1.298,23.001,4.923,6.941
-5.99,-31.582,16.654,13.883,5.74,24.637,7.432,9.484
-0.932,-25.221,22.905,17.251,11.417,27.079,12.752,13.182
1.723,-22.818,22.461,16.218,11.372,25.731,12.988,12.823
0.038,-25.246,16.663,11.622,6.367,20.874,9.039,8.967
-1.216,-27.358,12.67,8.295,2.547,17.162,6.505,6.225
1.342,-25.808,12.375,7.172,1.953,15.434,5.868,5.679
5.894,-21.272,13.315,7.755,2.851,15.207,5.592,6.56
10.109,-15.133,14.784,11.553,4.524,18.647,6.88,9.436
13.452,-9.504,17.152,17.561,7.167,25.042,10.442,13.535
14.49,-7.982,17.919,20.753,8.72,28.66,13.256,15.865
11.635,-11.672,14.77,18.692,6.949,26.124,12.909,15.087
6.238,-16.777,10.078,14.687,3.447,20.71,10.831,12.659
0.861,-19.502,6.823,12.434,0.475,17.621,7.947,10.085
-3.793,-21.294,4.067,11.109,-2.794,17.023,3.134,7.3
-7.489,-24.884,0.444,8.28,-6.906,15.21,-2.764,3.811
-8.019,-27.323,-1.034,6.159,-8.382,13.376,-5.629,1.655
-4.622,-24.981,2.825,8.708,-4.419,16.174,-2.833,3.712
-1.708,-21.833,7.6,12.702,0.298,20.544,1.256,7.241
-2.587,-22.821,6.6,11.64,-0.609,19.108,0.193,6.716
-3.502,-24.735,2.396,7.959,-4.328,14.376,-4.182,3.636
-0.579,-22.592,2.679,9.59,-3.247,15.28,-4.711,3.951
3.488,-18.508,7.981,16.089,2.843,21.277,-0.333,7.378
5.342,-16.514,12.785,20.379,8.115,24.634,4.107,9.181
7.067,-14.621,15.182,21.552,10.876,25.038,6.899,9.495
11.34,-9.826,17.266,23.921,13.647,27.303,9.622,11.429
14.975,-6.389,17.86,25.932,15.149,28.833,10.051,12.976
13.4,-9.666,13.92,22.913,11.961,24.293,5.002,10.093
9.683,-15.056,9.241,19.144,8.015,19.106,-0.353,6.235
9.558,-15.658,9.928,21.616,9.828,21.282,1.542,7.917
9.532,-15.581,12.034,25.334,13.205,25.111,6.571,12.169
3.699,-20.615,8.625,22.552,10.65,21.962,5.97,12.079
-3.551,-26.05,3.562,17.639,6.162,16.541,1.834,9.401
-5.473,-26.888,3.375,17.148,6.464,16.018,0.267,8.381
-4.176,-26.915,5.47,18.08,8.425,17.404,-0.29,7.305
-5.016,-30.173,4.314,15.257,6.37,14.912,-3.098,4.192
-8.592,-34.222,-0.622,9.424,0.541,8.853,-7.476,0.529
-12.922,-36.011,-7.231,3.639,-6.557,3.216,-13.275,-3.134
-17.171,-37.078,-13.375,-1.453,-12.959,-0.513,-20.029,-7.22
-19.377,-38.092,-15.719,-4.929,-15.253,-2.716,-23.127,-9.255
-16.416,-35.997,-12.797,-4.564,-12.1,-2.603,-20.843,-7.578
-9.888,-31.495,-8.63,-1.784,-8.183,-0.945,-18.723,-5.982
-6.777,-30.42,-8.131,-0.985,-8.294,-0.944,-20.264,-7.68
-11.068,-34.609,-11.945,-3.334,-11.939,-3.486,-22.916,-10.434
-19.122,-40.238,-18.424,-7.508,-17.114,-7.394,-25.846,-13.076
-26.098,-45.327,-25.852,-13.969,-23.192,-13.583,-31.387,-18.545
-30.275,-49.627,-30.811,-21.228,-27.69,-21.116,-37.374,-25.616
-30.723,-51.183,-30.608,-24.442,-27.528,-25.24,-38.501,-28.376
-28.322,-49.752,-27.799,-23.383,-24.407,-25.477,-35.493,-26.729
-26.301,-47.471,-26.023,-22.243,-21.852,-25.378,-33.059,-25.77
-27.492,-46.77,-25.901,-22.765,-21.029,-25.799,-32.947,-27.096
-32.946,-50.189,-28.382,-25.029,-23.124,-26.847,-35.418,-29.562
-39.819,-56.578,-33.804,-28.482,-28.035,-29.196,-39.942,-32.47
-42.781,-59.932,-38.126,-30.203,-31.636,-31.014,-42.871,-34.081
-40.452,-56.638,-37.217,-28.093,-30.604,-30.024,-41.004,-32.717
-36.871,-50.744,-33.01,-24.189,-27.013,-26.99,-36.063,-29.42
-36.971,-49.51,-31.349,-22.35,-25.509,-24.799,-32.466,-26.958
-41.682,-54.233,-34.65,-24.528,-28.073,-25.941,-32.927,-27.418
-46.959,-59.253,-39.798,-29.224,-32.923,-30.182,-37.294,-30.621
-49.405,-61.183,-43.907,-33.469,-37.791,-34.763,-43.586,-34.661
-50.136,-61.901,-47.234,-36.277,-41.58,-37.954,-48.817,-38.234
-50.517,-62.146,-49.427,-38.685,-43.28,-40.716,-50.458,-41.068
-49.657,-61.114,-49.325,-41.43,-43,-44.068,-49.249,-43.074
-48.19,-60.861,-48.24,-44.438,-42.847,-47.424,-48.658,-44.762
-48.791,-63.725,-48.217,-47.301,-44.118,-50.203,-49.782,-46.617
-51.992,-67.981,-48.954,-48.845,-45.817,-51.78,-50.335,-47.784
-55.022,-70.53,-48.904,-48.307,-46.491,-51.336,-48.924,-47.276
-55.163,-71.483,-47.133,-47.453,-45.482,-50.558,-46.351,-45.557
-53.151,-72.732,-44.005,-48.176,-43.299,-51.911,-44.017,-43.75
-51.252,-73.296,-40.347,-48.602,-40.478,-53.516,-42.104,-41.655
-49.071,-70.517,-35.755,-45.821,-36.002,-51.477,-38.584,-37.794
-45.705,-65.521,-30.535,-41.214,-30.301,-46.483,-33.125,-32.987
-42.956,-62.168,-27.405,-38.454,-26.994,-42.902,-29.281,-30.411
-42.815,-61.717,-28.101,-38.399,-28.105,-42.796,-29.324,-30.556
-45.499,-63.536,-31.845,-40.382,-32.387,-45.104,-32.454,-31.747
-49.057,-66.862,-36.948,-44.414,-38.003,-48.627,-37.921,-34.386
-48.94,-68.232,-40.568,-48.425,-42.164,-51.814,-44.093,-38.892
-43.219,-64.608,-39.97,-48.508,-41.965,-51.792,-47.09,-42.78
-37.308,-59.658,-36.691,-45.267,-38.753,-48.936,-45.998,-44.722
-36.899,-58.628,-35.571,-44.32,-37.36,-48.783,-46.18,-47.486
-40.114,-60.297,-37.83,-47.303,-39.401,-52.983,-51.207,-52.124
-42.273,-60.788,-39.819,-49.512,-41.449,-55.942,-56.364,-54.869
-42.436,-59.536,-39.251,-48.021,-40.574,-54.328,-56.026,-53.335
-41.872,-57.942,-37.771,-44.98,-38.024,-50.964,-51.618,-49.775
-41.298,-57.089,-37.778,-43.686,-36.939,-49.663,-48.651,-47.518
-40.801,-56.75,-39.447,-44.392,-38.161,-50.418,-49.457,-47.229
-40.717,-56.201,-41.246,-44.215,-39.812,-49.921,-51.382,-46.769
-42.578,-57.59,-43.253,-43.616,-41.409,-48.832,-52.792,-46.113
-47.094,-63.308,-46.546,-47.224,-44.036,-52.234,-55.312,-48.572
-51.059,-69.368,-48.891,-53.63,-45.774,-58.692,-57.883,-53.463
-50.333,-69.565,-47.175,-55.182,-43.89,-60.305,-57.883,-55.376
-45.621,-64.724,-43.181,-50.302,-40.577,-55.312,-57.053,-53.078
-41.757,-60.792,-41.445,-45.407,-40.119,-50.072,-57.859,-51.016
-42.519,-61.117,-43.799,-45.588,-43.25,-50.048,-59.716,-52.311
-47.138,-64.133,-47.852,-49.04,-46.938,-54.021,-61.399,-55.27
-50.15,-65.546,-48.462,-49.301,-46.494,-55.358,-60.402,-55.41
-47.217,-63.135,-43.149,-43.761,-40.167,-50.591,-54.618,-50.864
-41.849,-59.756,-36.988,-38.452,-33.541,-45.456,-48.659,-46.023
-40.541,-58.76,-36.88,-39.263,-33.665,-46.156,-48.984,-45.804
-43.268,-59.784,-42.412,-43.788,-39.682,-50.479,-53.559,-48.981
-46.973,-62.608,-48.929,-48.207,-46.471,-54.611,-57.33,-52.599
-52.736,-68.692,-55.152,-53.973,-52.84,-60.245,-61.519,-57.286
-60.241,-75.364,-60.651,-60.946,-58.387,-67.76,-67.217,-62.815
-63.539,-76.619,-62.367,-63.839,-59.867,-71.494,-70.164,-65.483
-59.684,-72.341,-59.336,-61.257,-56.682,-69.091,-68.392,-64.085
-53.514,-68.859,-55.134,-58.304,-52.883,-66.105,-65.359,-61.967
-50.904,-69.547,-53.417,-57.971,-51.72,-66.706,-64.376,-61.769
-52.19,-71.113,-53.895,-58.329,-52.28,-68.727,-64.878,-62.453
-52.878,-69.522,-53.19,-57.296,-51.442,-68.736,-63.573,-61.538
-50.65,-65.234,-49.868,-54.695,-48.338,-65.778,-59.184,-58.552
-49.282,-61.69,-47.771,-52.609,-46.508,-62.587,-55.928,-56.268
-51.576,-60.868,-50.554,-54.363,-49.005,-63.992,-58.552,-57.67
-53.743,-61.081,-54.517,-58.281,-52.268,-68.556,-63.995,-60.858
-53.529,-60.66,-54.994,-59.103,-51.989,-69.653,-66.131,-61.962
-54.616,-61.183,-54.66,-57.828,-50.975,-67.992,-65.765,-62.266
-56.812,-62.181,-55.932,-58.205,-51.901,-68.223,-65.512,-63.786
-55.934,-60.101,-56.376,-58.713,-52.325,-68.714,-64.394,-64.352
-54.008,-56.57,-56.252,-57.775,-52.075,-67.514,-63.329,-63.492
-55.719,-57.402,-58.276,-57.543,-53.743,-67.345,-64.658,-63.645
-60.039,-62.533,-61.49,-58.666,-56.535,-69.048,-67.088,-64.863
-62.465,-65.828,-61.731,-58.635,-56.569,-69.583,-66.821,-64.563
-60.177,-64.112,-56.569,-55.921,-51.785,-67.35,-62.227,-61.399
-53.683,-59.14,-48.523,-51.404,-44.613,-63.266,-56.402,-56.98
-45.321,-52.24,-41.824,-46.329,-38.783,-58.133,-53.09,-53.163
-38.05,-44.994,-38.225,-42.79,-35.745,-54.088,-52.198,-50.661
-35.09,-41.741,-37.991,-43.478,-35.644,-54.472,-52.096,-50.887
-36.697,-43.869,-40.656,-46.953,-37.837,-57.642,-52.151,-53.803
-39.027,-46.847,-44.062,-48.435,-40.368,-58.072,-51.901,-55.57
-38.83,-46.646,-45.454,-47.233,-41.296,-55.948,-50.457,-53.356
-35.934,-43.241,-43.327,-45.897,-39.522,-55.491,-47.023,-48.675
-31.023,-37.846,-38.333,-43.636,-35.013,-54.993,-41.805,-43.802
-25.64,-32.786,-33.746,-39.942,-30.591,-51.455,-37.365,-40.367
-23.424,-32.326,-33.574,-39.735,-30.698,-50.069,-37.777,-40.952
-26.216,-37.362,-37.598,-45.236,-35.021,-55.431,-42.761,-45.298
-29.606,-41.555,-40.168,-49.129,-37.2,-60.343,-45.518,-47.645
-27.061,-38.044,-37.053,-44.677,-33.181,-56.284,-41.687,-44.417
-18.081,-27.916,-30.768,-36.544,-26.304,-47.764,-35.306,-39.507
-8.156,-17.93,-25.119,-32.26,-20.545,-43.511,-30.538,-36.374
-1.819,-12.726,-19.164,-30.078,-14.617,-41.925,-25.112,-32.388
0.605,-12.473,-12.523,-25.52,-8.006,-37.715,-18.331,-26.214
0.935,-14.381,-9.403,-21.319,-4.917,-33.383,-15.969,-22.441
1.508,-14.19,-10.287,-21.123,-5.7,-33.405,-18.824,-23.26
4.976,-8.502,-9.14,-21.312,-4.273,-34.625,-18.471,-23.62
11.575,1.906,-4.763,-17.957,0.363,-32.086,-12.957,-20.418
17.669,11.192,-3.382,-14.563,1.726,-28.267,-11.11,-18.035
20.449,14.643,-6.451,-15.086,-1.629,-27.721,-15.446,-19.653
21.611,16.012,-7.53,-16.781,-2.974,-29.034,-17.313,-21.375
24.983,23.019,-3.197,-15.046,1.318,-27.598,-12.19,-19.029
32.586,34.492,2.656,-9.811,7.263,-22.094,-5.249,-13.877
43.046,39.342,6.642,-4.859,11.352,-16.243,0.045,-8.429
50.866,32.491,8.765,-3.175,13.866,-14.371,4.536,-3.524
49.766,23.469,8.537,-3.713,14.543,-15.798,6.387,-0.585
41.941,22.725,6.348,-3.249,13.185,-16.336,3.922,-0.805
36.42,29.622,4.061,-1.967,11.023,-15.397,-0.637,-3.991
36.681,38.839,2.181,-2.584,8.871,-15.565,-4.708,-8.688
39.658,45.646,1.534,-3.757,8.161,-15.943,-6.47,-11.11
41.854,44.138,2.707,-3.197,9.62,-15.209,-5.526,-9.388
42.609,35.008,3.298,-3.28,10.765,-16.049,-4.715,-7.787
45.219,30.998,3.142,-4.622,11.162,-18.276,-5.518,-9.264
49.06,39.425,6.168,-3.694,14.406,-17.967,-3.769,-9.657
47.372,50.688,12.154,-0.138,20.538,-15.223,3.165,-5.772
42.649,56.26,16.092,3.859,24.96,-12.033,9.155,-1.741
47.086,58.82,16.772,7.832,25.998,-7.967,7.585,-1.858
60.053,60.283,17.711,11.563,26.827,-3.577,2.77,-2.798
65.791,59.247,20.606,14.477,29.956,-0.982,3.547,0.559
58.067,58.014,23.696,16.789,33.997,-0.13,10.047,6.522
47.923,58.792,25.035,18.707,36.193,0.864,15.371,10.472
45.287,58.542,24.864,20.015,36.406,2.607,16.3,11.606
47.055,55.784,25.059,21.075,37.039,4.48,15.791,11.377
43.761,52.971,25.347,21.589,38.062,5.404,15.202,9.944
37.264,50.915,24.518,20.623,37.669,4.61,12.397,7.494
42.119,52.201,25.547,19.967,38.238,3.769,9.963,6.482
54.402,59.364,30.866,22.529,42.773,5.434,14.2,9.793
49.924,63.806,35.815,27.509,48.014,9.464,23.231,16.475
29.754,56.807,34.655,30.332,48.227,11.872,26.264,20.117
20.877,46.542,29.275,27.81,43.419,8.732,19.686,16.251
26.998,43.067,25.624,22.757,39.018,2.974,13.688,9.911
26.93,42.865,25.295,20.842,38.502,1.678,16.622,8.719
18.088,41.654,27.502,23.782,41.577,6.143,24.968,13.421
16.282,41.462,31.928,27.763,46.23,10.577,30.862,19.181
19.029,40.702,34.432,27.916,48.099,10.256,30.155,20.969
12.888,33.495,31.313,24.136,44.723,6.851,25.845,18.868
3.699,21.141,26.874,20.947,40.222,4.723,24.591,18.345
4.102,14.214,26.471,21.677,39.109,5.65,27.194,21.873
12.251,19.116,29.557,26.357,41.245,9.966,29.794,25.988
19.372,29.514,33.595,32.523,44.674,16.804,31.872,27.943
19.979,34.855,36.619,35.174,47.042,20.235,34.044,28.397
15.033,32.74,37.984,32.61,47.545,15.787,35.469,29.357
11.004,28.784,39.248,29.953,48.167,9.149,36.425,31.194
10.737,26.503,41.122,31.211,49.601,7.837,37.146,31.88
11.447,26.037,43.249,36.552,51.688,13.189,38.459,33.058
13.681,29.4,46.881,45.173,56.141,22.415,42.969,39.234
19.092,33.586,51.195,51.713,61.204,28.563,48.766,46.853
23.819,29.963,52.219,50.645,61.793,26.652,50.067,47.835
24.859,20.563,49.575,45.728,58.495,21.566,46.695,43.177
23.893,16.657,46.769,43.67,56.312,20.137,43.054,40.161
22.783,20.788,46.45,45.6,57.442,22.997,41.948,41.748
21.262,24.68,48.347,48.387,60.074,26.845,43.28,44.815
17.903,21.678,48.387,46.798,59.877,26.553,43.012,43.976
14.398,15.145,43.968,39.346,55.224,20.256,38.08,38.296
15.086,13.037,39.707,33.161,51.031,14.388,33.379,33.988
18.171,16.524,40.051,34.374,51.239,15.02,34.26,35.55
16.516,19.335,41.034,38.1,51.921,17.873,36.594,38.249
10.345,17.795,38.286,37.413,49.012,16.703,35.347,36.496
8.764,16.487,35.907,35.082,46.189,14.634,34.44,33.834
16.014,21.354,38.891,37.399,48.186,17.696,38.064,36.434
23.77,29.577,43.647,42.685,52.125,23.63,41.95,42.174
21.808,31.922,43.029,43.623,51.385,24.948,40.505,43.569
13.858,27.187,38.013,39.525,46.551,21.277,36.349,39.913
12.739,25.033,36.81,37.887,45.375,20.121,37.078,38.639
18.982,28.98,41.051,41.007,49.635,23.408,43.256,42.231
20.733,30.983,43.742,42.528,52.637,24.983,47.232,44.741
15.894,28.58,43.144,41.016,52.546,24.017,46.86,44.608
14.823,29.993,45.132,42.917,54.913,26.887,48.66,47.268
20.942,38.259,50.746,49.19,60.514,33.775,54.607,53.279
26.892,46.486,54.696,53.649,64.183,38.194,59.917,57.827
28.398,49.881,55.135,54.179,64.575,38.737,62.427,59.757
27.592,50.03,54.283,53.205,64.061,38.444,62.756,60.342
26.466,49.641,53.312,52.043,63.547,38.177,62.118,60.281
26.068,50.459,52.832,51.948,63.336,38.539,63.672,61.935
26.025,51.415,52.021,52.667,62.255,39.791,66.219,64.845
23.869,49.234,48.504,50.53,57.901,39.044,63.762,63.771
21.467,46.817,45.435,46.364,53.783,36.443,58.911,59.552
24.508,51.589,49.063,46.53,56.533,37.239,60.669,60.037
32.197,61.848,57.138,51.343,64.126,42.042,68.29,66.377
37.817,68.344,61.429,54.109,68.016,44.924,72.83,71.099
39.038,69.056,59.763,52.181,65.564,43.242,70.787,70.049
39.446,69.915,57.349,50.055,62.241,41.489,67.453,67.601
40.617,72.969,57.13,50.767,61.691,42.919,67.079,68.251
40.062,74.208,56.221,51.362,61.302,44.371,66.539,69.762
37.894,71.937,54.041,49.858,59.926,43.573,64.508,69.727
38.432,70.1,54.716,49.667,60.734,44.054,65.985,71.216
43.605,72.886,58.94,53.841,64.31,49.17,71.289,76.303
49.588,78.282,62.518,59.819,67.36,56.419,74.866,81.737
52.525,80.604,63.927,63.085,68.807,60.622,76.262,84.488
54.017,79.827,65.548,63.409,70.492,60.554,78.426,85.329
57.287,81.668,68.834,64.688,73.538,60.4,81.799,87.071
61.085,87.659,72.53,69.29,77.251,64.28,86.385,91.302
60.982,91.497,72.537,73.25,77.893,69.132,88.353,94.124
56.657,88.598,67.318,71.258,73.166,68.148,83.426,91.214
53.378,83.901,63.025,66.022,68.717,62.339,78.718,86.995
53.867,83.592,64.081,64.813,69.897,60.051,82.117,87.576
55.861,86.427,66.451,69.047,73.323,64.624,87.972,91.022
57.658,88.351,66.083,73.218,73.826,69.911,88.382,92.696
58.818,88.038,63.877,72.976,71.108,70.132,84.66,91.929
59.342,87.425,62.364,70.983,68.25,68.259,81.663,90.459
60.694,88.625,62.576,70.933,67.289,68.713,80.478,88.957
62.708,89.129,62.501,69.815,65.999,68.482,78.833,86.352
62.479,85.529,59.686,63.887,61.542,63.541,75.501,82.224
59.752,80.884,55.827,57.343,56.327,57.812,72.864,79.127
58.586,80.311,55.623,57.518,55.855,58.701,74.929,81.011
61.414,82.504,60.535,63.99,61.097,65.963,81.608,87.311
65.382,82.818,65.933,68.3,66.4,70.772,86.246,90.899
66.738,81.491,67.55,66.45,67.549,68.857,84.686,87.976
66.524,82.706,68.199,65.087,68.158,67.257,82.849,85.265
68.422,87.653,71.602,69.723,71.928,71.749,86.097,88.934
72.39,93.418,74.421,75.492,74.848,77.306,89.424,94.293
76.166,97.784,72.871,76.861,73.009,78.471,87.585,95.166
80.324,101.48,70.599,76.803,70.249,78.696,84.899,94.359
84.737,104.678,71.614,78.819,70.576,82.182,86.516,96.262
85.446,104.573,72.751,79.351,71.019,85.777,88.787,97.842
82.456,100.903,71.507,76.474,69.337,86.412,87.575,96.372
82.45,99.099,72.987,76.674,70.526,88.726,88.067,97.161
87.184,101.474,80.098,83.176,77.297,95.526,95.4,103.455
89.4,102.724,85.45,87.854,82.27,99.109,102.08,107.552
85.122,99.337,82.313,84.797,78.781,94.354,97.977,102.45
80.589,95.634,76.776,80.832,73.05,89.508,88.961,94.438
82.33,96.461,78.499,83.053,74.826,91.867,88.531,93.155
87.966,100.136,85.707,87.347,81.89,96.174,95.955,97.213
91.733,101.963,90.119,87.557,85.376,96.105,100.694,99.724
91.362,99.133,88.219,84.005,82.028,92.838,98.103,97.866
87.014,91.719,80.936,78.267,73.53,88.161,89.431,91.268
81.333,83.985,72.544,71.944,64.464,82.761,80.13,83.23
79.06,81.69,69.562,70.072,61.447,80.859,78.111,81.571
80.105,83.59,71.58,73.694,64.149,84.231,82.06,86.425
77.909,81.328,70.152,74.573,63.646,85.572,81.559,87.263
70.369,73.224,63.338,68.354,57.321,79.626,74.849,80.575
64.468,68.44,59.034,62.526,52.962,73.122,70.609,75.343
64.978,71.269,60.139,62.741,53.677,72.81,71.029,76.046
68.628,75.098,61.969,65.668,55.054,75.893,71.281,77.766
71.634,75.357,63.721,68.663,56.767,78.524,72.609,79.139
72.966,74.274,66.622,71.807,60.433,80.104,77.755,82.348
71.14,72.924,65.907,72.187,61.117,79.081,80.104,83.385
66.179,70.43,58.719,67.818,55.289,74.976,74.086,77.958
62.718,69.504,52.377,63.56,49.664,71.914,67.322,71.283
64.17,72.706,53.295,64.224,50.621,73.263,68.336,70.543
66.632,75.637,56.015,66.068,53.083,75.341,72.118,73.596
64.821,72.888,52.648,63.372,49.518,72.708,69.345,73.214
60.332,67.65,46.084,58.993,42.941,67.807,62.273,68.904
58.617,67.077,44.682,59.837,41.667,67.942,60.333,66.823
60.976,71.267,48.844,65.676,46.091,73.818,64.485,69.269
63.758,74.523,52.32,70.018,49.908,78.574,67.924,72.416
64.072,74.061,52.483,69.251,50.218,77.813,67.654,73.114
62.972,71.627,51.41,65.815,49.132,74.211,65.474,71.612
63.07,69.99,51.473,63.762,49.442,71.985,64.323,70.18
65.696,71.066,53.88,64.121,52.121,71.929,67.271,71.169
69.968,74.671,56.576,64.998,54.4,72.62,71.615,72.943
72.693,77.185,54.994,64.556,51.981,72.667,69.632,71.071
70.557,74.3,49.335,62.533,46.061,70.862,62.773,66.407
64.273,67.389,45.259,60.117,42.365,67.398,60.473,64.158
59.096,62.904,45.862,59.128,43.035,64.992,63.832,64.939
59.103,63.684,49.829,60.396,46.33,65.92,67.881,65.798
62.959,66.659,54.527,63.115,50.237,69.162,71.523,66.516
66.043,68.101,55.652,64.696,50.919,70.813,72.144,66.836
64.825,66.188,50.41,62.162,45.375,67.272,65.598,63.978
60.698,62.107,43.81,57.116,38.382,60.857,57.312,58.941
57.9,59.164,43.128,54.851,37.259,57.796,56.874,56.915
56.876,58.005,47.493,56.598,41.267,59.313,63.542,59.466
55.149,56.348,50.967,59.116,44.539,62.252,69.48,63.475
52.317,52.939,50.468,59.559,43.968,64.538,69.98,65.54
49.698,48.61,46.622,57.039,40.151,64.563,65.525,64.298
48.252,44.977,42.276,53.256,35.949,61.511,60.51,61.489
47.563,42.283,39.855,50.446,33.625,56.859,58.253,59.428
45.69,39.264,38.319,47.876,31.789,52.178,55.967,56.931
41.817,36.232,35.067,44.432,27.948,48.511,49.591,52.186
38.746,35.477,31.021,42.384,23.571,47.677,41.774,48.219
40.103,38.064,30.745,44.068,23.339,50.187,39.701,49.731
45.788,42.704,36.215,48.184,28.769,54.078,45.597,55.935
52.602,47.166,43.542,52.334,35.571,58.042,53.81,61.29
57.555,49.037,47.035,54.607,38.164,60.92,56.817,61.191
59.295,47.295,44.578,52.793,34.958,59.672,51.621,55.127
58.161,44.08,39.176,47.524,29.289,54.182,42.526,47.214
55.986,42.21,36.267,43.655,26.446,49.471,38.355,43.193
55.51,42.133,39.339,45.316,29.739,49.982,43.993,45.302
57.59,42.943,46.452,51.289,37.164,54.854,54.271,50.119
59.215,43.517,51.22,55.93,42.174,58.586,59.123,51.817
57.591,42.137,49.667,55.079,40.753,56.987,55.296,48.34
54.649,38.571,44.679,50.478,35.917,52.154,48.874,42.886
53.75,35.813,41.497,47.144,32.905,49.043,46.081,39.31
54.306,35.426,41.396,46.84,32.957,48.503,46.963,38.392
53.771,34.407,41.714,46.421,33.52,47.22,47.917,37.955
52.41,30.93,40.061,43.327,32.214,43.554,45.68,35.253
52.075,27.517,37.148,39.015,29.551,39.229,40.446,30.311
52.124,26.029,35.676,35.914,28.078,36.173,36.721,26.611
51.475,26.466,37.204,35.225,29.395,35.665,38.11,27.363
52.556,29.744,40.773,37.383,32.84,38.402,42.695,32.018
56.443,34.6,43.321,40.514,35.554,42.153,45.6,36.167
58.7,36.73,42.2,41.122,34.669,43.233,44.54,35.72
56.872,35.96,38.742,39.078,31.427,41.32,41.719,31.966
55.012,36.54,36.641,37.687,29.689,38.979,40.229,29.549
55.109,38.169,36.137,37.543,29.563,37.272,39.954,29.658
53.221,36.04,34.477,35.575,27.991,34.641,38.639,29.302
48.319,30.184,31.881,31.487,25.153,30.81,35.923,27.241
44.46,25.608,30.661,28.77,23.645,28.509,33.405,25.552
43.179,24.523,30.243,28.568,23.253,28.706,31.901,25.196
42.153,24.967,28.788,28.811,22.23,28.896,31.591,25.273
40.015,25.47,26.699,28.849,20.685,28.242,32.466,25.624
37.957,26.537,24.701,29.376,18.934,28.465,32.671,26.01
37.005,27.325,21.757,28.916,15.867,28.819,30.012,25.181
35.733,25.5,17.417,25.394,11.293,26.268,25.338,22.553
31.495,20.803,12.635,19.485,6.394,20.517,20.711,18.083
24.717,15.516,8.144,13.985,1.912,14.854,16.716,12.754
20.58,12.653,5.27,11.879,-0.893,12.856,13.899,9.635
22.16,13.545,5.102,13.31,-0.79,14.353,12.62,8.882
25.06,16.136,5.318,14.054,0.116,14.814,11.018,6.212
24.714,17.935,3.453,11.786,-0.963,12.254,8.016,1.787
23.711,19.388,2.039,10.314,-2.266,10.583,6.496,1.176
25.588,21.393,3.13,11.549,-1.673,11.006,7.342,4.283
27.867,23.078,3.549,11.964,-1.169,10.034,7.254,5.673
27.15,23.73,2.205,11.172,-1.322,8.758,7.088,5.738
24.771,23.312,2.198,11.892,-0.094,10.386,10.133,7.603
24.042,22.504,3.951,13.166,1.832,12.447,13.961,8.78
25.016,21.965,4.424,12.757,1.65,12.054,13.968,6.723
24.271,19.762,1.177,10.32,-2.142,9.92,8.903,2.753
21.548,15.517,-3.493,7.7,-6.808,7.786,2.976,-0.188
21.143,14.036,-3.446,8.415,-6.547,7.921,3.746,1.489
23.27,16.916,1.107,11.439,-1.886,9.76,10.174,5.346
23.799,19.321,2.716,11.174,-0.134,9.431,12.233,4.347
23.216,19.352,0.196,7.526,-2.61,7.027,8.516,0.491
25.624,20.54,0.299,6.746,-2.862,7.485,7.568,1.573
30.892,24.588,5.456,11.652,1.848,12.725,11.729,7.061
32.995,27.544,9.871,17.034,6.229,17.521,15.014,10.315
26.673,24.766,8.228,16.631,5.259,16.201,14.102,8.847
16.315,18.54,3.744,12.395,1.869,11.451,11.954,5.94
12.087,15.256,2.841,10.092,1.363,9.105,11.644,4.852
15.959,16.131,5,9.424,2.786,8.637,12.303,5.383
21.162,18.251,6.026,7.97,2.987,7.815,12.344,6.612
24.24,21.133,6.208,7.586,3.056,8.271,11.975,8.269
28.483,26.05,8.556,10.397,5.413,11.478,12.186,9.999
35.219,31.156,12.665,14.001,8.738,15.244,12.866,11.266
38.766,30.921,13.629,12.822,8.301,14.465,11.137,9.539
34.681,22.831,8.667,5.48,2.194,7.374,4.898,2.913
27.359,12.381,2.319,-1.628,-4.734,-0.004,-2.27,-4.329
24.081,6.997,0.542,-2.911,-6.758,-1.778,-4.838,-6.242
26.076,7.252,3.026,-0.823,-4.403,-0.239,-2.884,-4.072
28.253,7.47,4.912,-0.965,-2.599,-1.068,-1.817,-4.205
26.616,4.228,3.899,-3.692,-3.408,-3.957,-3.945,-8.133
23.983,1.049,3.191,-4.405,-3.486,-3.778,-4.422,-10.356
23.649,1.01,4.971,-2.857,-1.15,-1.425,-0.655,-8.712
21.418,-0.744,3.814,-5.03,-2.085,-4.076,-0.665,-9.57
14.34,-8.007,-4.073,-11.304,-9.484,-11.296,-10.22,-15.674
10.38,-12.651,-9.747,-12.191,-13.976,-12.145,-18.495,-17.806
15.011,-7.33,-5.249,-4.331,-7.987,-3.463,-14.76,-11.021
18.213,-1.775,0.069,-0.174,-1.682,0.762,-8.358,-7.637
10.782,-7.374,-5.356,-9.053,-6.898,-9.27,-12.423,-17.867
0.711,-17.015,-16.129,-21.095,-17.415,-22.02,-22.49,-31.69
-0.324,-18.334,-19.784,-22.692,-20.156,-22.522,-26.038,-34.582
6.041,-12.82,-14.706,-15.286,-14.311,-13.438,-21.07,-27.28
9.933,-10.297,-9.848,-10.092,-9.605,-7.902,-16.482,-20.657
7.292,-14.085,-10.646,-11.421,-10.751,-10.068,-17.237,-19.911
3.233,-18.205,-12.113,-12.483,-11.753,-11.782,-16.932,-19.921
2.899,-17.522,-8.727,-8.616,-7.423,-8.419,-9.935,-15.286
4.433,-14.498,-3.501,-4.988,-1.702,-6.225,-1.828,-9.953
3.972,-13.051,-2.094,-5.698,-0.205,-8.785,-0.244,-11.279
2.551,-12.128,-3.928,-6.215,-1.63,-10.126,-2.916,-17.381
1.8,-10.958,-5.576,-3.386,-2.37,-7.462,-3.441,-20.452
-2.161,-14.368,-8.517,-2.355,-4.312,-6.907,-3.183,-20.347
-12.023,-24.742,-15.076,-6.926,-10.078,-11.561,-6.937,-22.242
-22.201,-35.075,-20.998,-12.317,-15.419,-15.889,-11.798,-24.697
-26.276,-38.079,-20.509,-12.516,-14.722,-14.5,-11.154,-22.349
-25.518,-35.706,-15.248,-8.803,-10.058,-9.207,-6.403,-16.893
-24.569,-33.738,-11.695,-7.297,-7.836,-6.437,-5.274,-15.369
-24.367,-33.691,-12.62,-10.871,-9.99,-10.014,-10.415,-19.574
-22.957,-33.544,-15.4,-16.601,-13.397,-17.087,-16.906,-24.291
-19.69,-31.453,-16.875,-20.387,-15.22,-21.781,-19.95,-25.098
-16.216,-28.076,-17.599,-22.051,-16.373,-22.686,-21.285,-24.285
-13.715,-25.626,-19.665,-23.836,-18.99,-23.066,-25.246,-26.666
-12.47,-25.478,-22.893,-25.913,-22.695,-24.533,-31.049,-31.18
-15.597,-29.775,-27.798,-28.169,-27.544,-26.644,-36.076,-33.725
-25.992,-40.036,-36.24,-32.585,-35.253,-30.285,-41.4,-35.655
-38.931,-51.513,-45.931,-39.212,-44.141,-35.902,-47.922,-40.795
-46.587,-56.776,-51.326,-43.687,-49.152,-40.213,-52.407,-46.797
-47.879,-55.265,-50.374,-42.281,-48,-39.108,-50.842,-47.858
-48.093,-53.357,-47.79,-37.967,-45.034,-34.492,-46.566,-45.39
-50.837,-54.833,-49.289,-37.064,-45.999,-33.131,-47.741,-46.115
-53.246,-56.221,-51.91,-40.001,-48.354,-36.916,-52.296,-50.018
-51.654,-54.688,-49.362,-42.137,-46.007,-40.945,-51.433,-52.153
-48.508,-54.011,-45.294,-42.758,-42.169,-42.511,-48.052,-53.432
-46.97,-56.421,-46.429,-44.457,-43.243,-43.525,-50.632,-57.112
-45.636,-57.815,-49.277,-46.372,-46.012,-44.239,-55.985,-60.346
-44.943,-57.264,-48.593,-46.874,-45.515,-43.721,-57.185,-60.251
-48.49,-59.104,-48.592,-48.551,-45.819,-44.518,-57.527,-60.722
-54.554,-62.224,-53.155,-53.018,-50.455,-48.46,-61.443,-64.574
-56.7,-60.48,-56.126,-55.861,-53.436,-51.287,-63.306,-66.964
-53.939,-54.593,-52.649,-53.852,-50.453,-49.381,-58.673,-64.315
-52.406,-52.384,-49.058,-51.483,-47.628,-46.726,-54.298,-61.424
-55.645,-56.748,-51.134,-53.02,-49.968,-47.47,-55.42,-62.205
-59.048,-61.459,-53.911,-54.947,-52.467,-48.559,-56.794,-62.607
-57.639,-60.9,-51.716,-53.209,-50.127,-46.664,-54.09,-59.125
-53.901,-57.724,-47.639,-50.779,-46.506,-44.996,-51.397,-55.947
-53.83,-58.524,-47.903,-53.084,-47.828,-48.349,-54.087,-59.015
-59.247,-65.782,-53.781,-60.551,-54.99,-56.345,-62.099,-67.6
-65.695,-74.447,-60.018,-67.202,-62.11,-62.689,-69.347,-74.199
-68.081,-77.745,-60.793,-67.193,-62.965,-61.473,-69.355,-73.026
-67.203,-75.757,-57.341,-62.374,-59.061,-55.113,-63.819,-67.153
-66.786,-72.637,-55.193,-58.909,-56.548,-50.87,-60.318,-63.799
-67.202,-69.906,-56.253,-59.691,-57.709,-51.823,-61.948,-65.341
-66.777,-68.087,-58.209,-63.595,-60.227,-56.076,-64.977,-68.645
-65.916,-68.659,-58.855,-67.419,-61.317,-59.905,-64.981,-70.331
-66.176,-71.424,-58.825,-68.741,-60.725,-61.101,-62.851,-70.394
-66.773,-73.468,-59.644,-68.011,-60.008,-60.769,-62.844,-70.803
-65.936,-72.652,-60.37,-66.407,-59.514,-60.322,-64.711,-71.866
-65.303,-71.156,-59.965,-64.734,-59.189,-60.002,-64.767,-72.434
-67.479,-72.269,-59.705,-63.761,-59.607,-59.93,-62.52,-71.606
-70.524,-75.163,-59.679,-62.607,-59.485,-59.017,-58.997,-68.37
-71.683,-77.487,-59.393,-60.121,-58.254,-56.16,-55.708,-63.721
-72.427,-78.772,-60.933,-57.323,-58.943,-52.525,-56.469,-61.238
-74.019,-77.704,-64.495,-55.255,-62.159,-49.698,-62.142,-62.226
-74.639,-73.157,-66.199,-54.133,-63.891,-48.72,-68.075,-65.121
-73.212,-67.918,-64.016,-54.17,-62.032,-49.857,-70.137,-68.421
-70.76,-65.29,-60.44,-54.507,-58.85,-51.055,-68.747,-70.914
-68.994,-65.515,-59.064,-55.065,-57.56,-51.27,-67.512,-72.494
-69.685,-67.937,-61.556,-57.755,-59.674,-53.28,-69.728,-74.676
-72.984,-71.881,-66.662,-62.083,-64.138,-58.024,-74.917,-78.15
-75.765,-74.888,-70.031,-63.924,-66.991,-60.995,-78.328,-80.429
-74.499,-74.07,-67.659,-60.764,-64.288,-58.353,-75.942,-77.812
-69.422,-69.758,-60.77,-54.441,-56.871,-52.028,-69.385,-70.448
-63.786,-65.459,-53.993,-48.582,-49.44,-46.355,-63.086,-63.17
-60.882,-64.273,-50.602,-46.292,-46.069,-44.174,-59.882,-60.808
-61.363,-65.603,-51.512,-48.745,-47.852,-46.258,-60.9,-63.506
-61.849,-65.088,-54.154,-53.02,-51.474,-50.094,-64.269,-66.644
-60.113,-61.166,-54.392,-55.185,-52.409,-52.229,-65.579,-66.949
-58.978,-58.68,-52.828,-55.989,-51.251,-53.127,-64.051,-66.647
-59.417,-59.783,-52.833,-57.546,-51.14,-54.208,-63.073,-67.641
-58.286,-60.143,-54.182,-59.128,-51.922,-54.832,-64.17,-67.789
-55.423,-58.418,-54.449,-60.528,-51.705,-55.768,-65.057,-66.18
-53.31,-57.879,-52.588,-62.232,-49.788,-57.851,-62.852,-64.38
-52.649,-59.6,-50.104,-63.231,-47.601,-59.483,-58.761,-63.461
-53.558,-62.361,-49.928,-63.247,-47.729,-60.009,-57.42,-63.986
-56.321,-65.23,-52.54,-63.063,-50.19,-60.1,-59.904,-65.26
-59.343,-66.473,-54.177,-61.574,-51.06,-58.592,-60.65,-64.216
-59.988,-64.367,-51.585,-57.538,-47.518,-54.577,-55.459,-59.492
-59.012,-61.178,-48.341,-54.368,-43.691,-51.508,-50.36,-55.545
-59.699,-60.384,-49.917,-56.026,-45.117,-52.863,-52.446,-56.441
-61.742,-60.548,-54.54,-60.081,-49.856,-56.696,-58.153,-60.097
-64.042,-60.852,-59.446,-63.358,-54.881,-60.716,-63.665,-65
-69.565,-65.723,-66.846,-67.47,-61.879,-65.752,-71.494,-71.881
-78.207,-75,-74.641,-72.257,-68.752,-70.374,-78.742,-77.232
-84.03,-81.491,-76.361,-73.633,-69.941,-70.774,-78.959,-77.384
-84.886,-82.706,-72.753,-71.125,-66.658,-67.615,-74.153,-74.79
-84.366,-82.928,-69.969,-69.373,-64.528,-66.186,-70.42,-73.267
-83.599,-83.321,-69.596,-70.231,-64.579,-67.87,-69.164,-72.577
-80.575,-80.199,-69.209,-69.859,-64.074,-67.947,-68.858,-70.697
-76.064,-73.449,-68.594,-66.19,-62.7,-64.582,-69.12,-68.624
-73.111,-68.318,-69.399,-62.411,-62.649,-61.422,-70.126,-68.887
-72.232,-67.057,-70.999,-60.967,-64.005,-60.242,-70.549,-70.254
-71.388,-66.134,-71.355,-61.408,-64.714,-60.361,-69.637,-70.065
-69.918,-63.876,-70.579,-63.528,-64.512,-62.205,-69.512,-69.722
-69.202,-63.153,-69.763,-66.446,-64.378,-64.896,-70.901,-71.223
-70.164,-65.017,-69.071,-67.883,-64.332,-66.046,-71.399,-72.476
-71.779,-66.157,-68.905,-67.067,-64.413,-65.061,-70.553,-70.954
-71.272,-63.388,-69.006,-65.082,-64.439,-63.019,-69.397,-67.56
-67.5,-57.756,-68.083,-63.429,-63.81,-61.54,-67.346,-64.694
-62.236,-52.632,-65.382,-62.528,-61.946,-60.866,-63.929,-62.475
-57.463,-49.629,-60.683,-60.899,-57.728,-58.997,-59.407,-58.745
-55.105,-48.804,-55.316,-57.952,-51.967,-55.339,-54.958,-53.674
-54.984,-48.55,-50.924,-54.684,-47.171,-51.253,-52.119,-50.017
-53.562,-45.558,-46.949,-51.355,-43.488,-47.542,-50.828,-48.763
-50.204,-40.574,-43.883,-49.187,-40.978,-46.073,-51.34,-49.778
-48.238,-38.752,-43.401,-49.916,-40.952,-48.224,-53.222,-52.16
-47.942,-40.408,-43.876,-51.183,-41.632,-50.242,-52.703,-52.52
-46.796,-40.6,-43.276,-49.341,-40.624,-48.093,-49.098,-49.738
-45.441,-38.255,-43.061,-45.497,-39.639,-44.034,-47.334,-47.429
-46.004,-35.811,-44.29,-43.209,-40.546,-42.269,-49.576,-48.035
-46.345,-32.306,-44.538,-42.659,-41.209,-42.409,-52.128,-49.673
-43.042,-26.206,-41.501,-41.413,-39.019,-41.926,-51.303,-49.755
-39.399,-22.352,-38.151,-40.444,-36.505,-42.27,-48.971,-49.884
-41.387,-26.275,-39.585,-43.201,-38.414,-46.155,-49.707,-53.438
-46.905,-33.978,-44.283,-48.16,-43.238,-50.827,-52.423,-57.868
-50.302,-38.048,-46.721,-50.695,-45.772,-52.068,-52.479,-58.061
-51.627,-38.462,-46.071,-50.068,-45.291,-50.517,-50.115,-55.067
-51.853,-38.082,-43.837,-47.306,-43.105,-47.717,-47.54,-51.93
-50.153,-37.625,-39.847,-42.87,-39.094,-43.716,-43.621,-47.937
-49.481,-38.915,-36.221,-39.935,-35.552,-41.158,-38.718,-43.59
-53.413,-43.308,-37.724,-42.232,-37.092,-43.407,-38.55,-43.039
-60.221,-49.073,-44.927,-48.343,-44.139,-48.899,-46.314,-47.799
-65.835,-53.332,-51.479,-52.369,-50.431,-52.247,-54.436,-52.875
-68.087,-53.497,-51.485,-50.241,-50.17,-50.082,-53.522,-52.285
-68.36,-50.622,-47.405,-44.46,-45.849,-44.722,-46.718,-47.149
-69.615,-49.679,-45.605,-40.855,-43.722,-41.75,-43.911,-44.296
-70.153,-51.067,-46.265,-41.07,-43.997,-43.264,-46.319,-46.754
-65.108,-49.612,-44.945,-41.943,-42.671,-45.436,-47.92,-50.168
-56.546,-45.169,-42.001,-42.005,-40.052,-45.224,-47.296,-50.43
-51.741,-42.599,-41.149,-42.673,-39.047,-44.489,-47.455,-49.107
-51.179,-41.839,-41.008,-42.833,-38.209,-43.825,-47.277,-47.791
-50.666,-40.222,-38.659,-40.381,-35.525,-41.301,-44.119,-45.323
-51.873,-40.313,-37.365,-38.21,-34.488,-39.027,-41.537,-43.276
-57.953,-45.023,-40.898,-40.576,-38.302,-41.33,-44.355,-45.188
-63.689,-49.675,-45.43,-44.912,-42.89,-46.283,-49.62,-49.387
-61.783,-47.637,-44.827,-44.736,-42.367,-47.178,-50.083,-49.977
-55.382,-41.438,-40.442,-40.884,-38.452,-43.899,-45.037,-45.989
-53.54,-39.428,-38.756,-40.423,-37.484,-43.246,-41.077,-42.682
-57.202,-43.158,-41.561,-44.382,-40.47,-46.941,-41.807,-42.871
-60.115,-47.186,-45.109,-47.783,-43.408,-50.832,-43.984,-44.308
-60.641,-49.279,-47.314,-49.722,-45.077,-53.46,-45.305,-46.01
-62.243,-52.221,-49.639,-53.325,-47.723,-56.241,-47.749,-49.619
-64.146,-55.951,-52.213,-57.989,-51.142,-58.985,-51.468,-54.142
-62.16,-56.346,-52.521,-59.685,-51.985,-60.189,-52.934,-55.986
-56.258,-52.234,-49.086,-57.133,-48.605,-58.818,-49.825,-53.554
-49.098,-46.057,-43.075,-51.789,-42.644,-54.189,-43.745,-47.952
-42.202,-39.604,-36.895,-45.095,-36.535,-47.249,-37.8,-41.554
-37.357,-34.429,-32.777,-39.249,-32.021,-41.458,-34.071,-37.026
-36.241,-32.849,-31.759,-36.599,-30.371,-39.149,-33.761,-35.432
-38.576,-36.154,-33.06,-37.759,-31.579,-40.089,-36.042,-36.094
-42.865,-42.53,-35.124,-41.906,-33.947,-44.258,-38.204,-38.589
-46.924,-46.639,-37.315,-46.51,-36.095,-50.048,-39.843,-42.242
-49.024,-45.223,-40.303,-49.069,-38.657,-53.543,-43.169,-45.631
-49.573,-41.532,-43.679,-49.757,-41.916,-53.518,-47.255,-47.684
-49.338,-39.059,-44.504,-48.508,-43.4,-50.656,-47.311,-46.834
-48.181,-37.115,-42.01,-44.814,-41.775,-45.608,-43.073,-42.908
-46.753,-35.122,-39.782,-41.952,-39.869,-42.256,-40.774,-39.897
-46.05,-33.744,-39.394,-42.632,-39.643,-43.532,-42.67,-40.4
-45.034,-31.843,-37.927,-43.408,-38.706,-45.161,-43.276,-40.906
-42.016,-28.004,-34.53,-40.842,-35.624,-42.344,-39.761,-38.321
-38.785,-24.381,-33.223,-37.918,-34.004,-37.89,-37.237,-35.5
-38.665,-23.922,-35.896,-39.069,-36.492,-37.653,-39.404,-35.938
-39.803,-24.515,-38.036,-42.283,-39.071,-40.967,-41.552,-37.573
-37.082,-22.001,-35.643,-41.565,-37.234,-41.38,-38.703,-36.08
-31.838,-17.777,-31.964,-37.089,-33.875,-37.65,-34.754,-32.681
-30.942,-16.77,-32.339,-35.179,-34.52,-35.72,-36.081,-32.884
-34.548,-19.016,-34.807,-36.475,-37.298,-36.813,-40.115,-36.332
-36.273,-20.326,-33.093,-34.821,-35.787,-34.945,-39.352,-36.409
-36.014,-20.068,-28.45,-29.903,-30.981,-29.757,-34.717,-32.593
-38.963,-21.063,-28.229,-28.906,-30.199,-29.096,-33.995,-32.018
-44.101,-23.802,-32.968,-33.99,-34.624,-35.332,-38.051,-36.36
-46.072,-26.088,-36.676,-38.954,-38.814,-40.75,-41.456,-40.087
-44.355,-25.875,-37.586,-39.036,-40.413,-39.49,-43.347,-41.085
-41.979,-22.781,-37.691,-35.777,-40.628,-34.48,-44.976,-40.822
-40.24,-19.088,-37.017,-32.803,-39.708,-31.091,-44.889,-39.396
-39.027,-17.451,-35.411,-31.203,-37.975,-30.022,-43.685,-37.008
-38.541,-17.508,-33.683,-29.399,-36.167,-28.452,-42.537,-33.848
-39.934,-18.847,-32.385,-27.96,-34.764,-26.781,-40.035,-30.316
-43.539,-22.61,-32.537,-29.618,-35.049,-28.179,-37.485,-29.012
-45.794,-26.421,-33.573,-32.652,-36.621,-31.052,-37.408,-30.221
-43.521,-26.252,-32.907,-32.77,-36.414,-31.018,-37.45,-29.675
-39.801,-23.544,-30.56,-30.376,-33.553,-28.494,-34.459,-25.1
-38.557,-21.582,-28.938,-28.164,-30.363,-26.38,-30.191,-19.226
-38.63,-19.563,-29.129,-26.547,-28.835,-24.837,-29.47,-16.416
-37.802,-16.947,-30.732,-25.859,-29.093,-23.551,-33.811,-18.529
-36.031,-15.878,-32.249,-26.861,-29.562,-23.726,-38.375,-22.245
-33.009,-15.361,-31.285,-27.376,-28.02,-24.338,-37.765,-22.167
-27.863,-12.003,-26.975,-24.873,-23.92,-22.801,-32.571,-17.841
-23.285,-8.464,-22.884,-22.48,-20.675,-21.09,-28.685,-14.827
-23.797,-10.325,-23.399,-24.463,-22.045,-22.81,-30.051,-16.507
-27.243,-14.85,-26.419,-28.104,-25.499,-25.82,-33.181,-19.184
-26.861,-14.806,-26.639,-28.254,-25.749,-25.836,-32.924,-18.984
-21.655,-9.914,-23.83,-24.943,-22.589,-23.052,-29.506,-16.756
-15.872,-4.825,-20.751,-21.032,-18.921,-20.098,-25.518,-13.853
-12.592,-1.493,-18.141,-17.752,-15.985,-17.785,-21.859,-10.206
-12.94,0.277,-16.476,-15.172,-14.432,-15.645,-18.998,-6.788
-15.982,0.005,-17.063,-13.724,-15.213,-14.056,-17.997,-5.303
-19.069,-2.142,-19.512,-14.347,-17.844,-14.484,-19.159,-6.07
-21.125,-3.981,-21.555,-17.162,-20.247,-17.348,-20.929,-7.712
-22.204,-2.952,-20.931,-19.423,-19.961,-19.366,-20.443,-7.728
-20.891,0.878,-17.062,-18.023,-16.066,-17.022,-16.255,-4.734
-17.157,4.53,-12.744,-15.276,-11.505,-13.603,-11.449,-1.598
-15.091,5.137,-12.631,-16.594,-11.333,-15.444,-12.151,-3.018
-17.659,2.236,-17.286,-21.54,-16.139,-21.158,-19.249,-8.296
-20.833,-0.585,-20.605,-23.469,-19.531,-23.126,-24.027,-10.622
-18.997,2.108,-17.696,-19.314,-16.432,-18.869,-19.768,-6.455
-14.218,9.609,-12.269,-13.904,-10.673,-13.614,-12.425,-0.644
-13.192,14.254,-10.485,-12.785,-8.809,-12.548,-10.681,1.23
-17.265,11.749,-12.279,-15.671,-10.89,-15.628,-13.996,-0.795
-20.416,7.555,-13.027,-17.749,-11.868,-18.437,-17.085,-3.691
-17.694,8.849,-10.341,-15.44,-9.143,-16.64,-18.084,-4.711
-12.673,13.312,-6.608,-11.107,-5.553,-11.827,-17.925,-3.332
-10.586,14.613,-4.164,-8.975,-3.701,-9.008,-15.877,-1.267
-8.751,14.458,-1.102,-7.821,-1.112,-8.147,-10.188,1.042
-2.659,18.401,4.808,-4.31,4.973,-5.786,-2.4,4.185
5.059,25.564,11.444,0.172,12.186,-2.239,2.858,6.318
8.496,30.135,14.396,1.583,15.676,-1.044,2.599,4.906
6.868,30.017,12.761,-0.397,14.462,-2.952,-1.043,1.439
6.072,29.966,11.839,-0.87,13.818,-3.211,-1.651,1.64
11.058,34.08,17.087,3.85,18.94,2.053,4.663,8.58
17.579,38.015,25.175,9.373,26.46,7.869,13.079,16.788
17.875,35.558,28.061,9.501,29.005,7.517,16.452,19.281
13.967,30.625,26.443,8.148,27.908,5.76,16.719,18.796
14.096,31.447,27.319,11.992,29.768,10.052,19.711,21.716
17.331,35.473,29.453,15.851,32.491,14.24,22.301,24.443
16.379,34.493,26.699,12.165,29.756,9.702,18.748,20.176
12.731,30.09,21.541,5.616,24.308,1.951,13.07,12.735
14.278,30.15,21.206,4.183,23.384,0.159,12.523,9.954
21.928,36.03,25.981,7.449,27.315,3.462,17.08,12.572
29.01,42.124,29.735,11.043,30.294,6.72,21.374,16.785
29.87,42.678,27.563,12.153,27.501,7.532,20.087,18.485
24.305,35.75,20.588,9.39,19.767,5.2,12.702,15.393
16.777,24.789,14.799,4.517,13.004,1.702,5.691,10.673
11.716,16.326,13.715,1.364,11.067,0.252,4.496,9.041
9.957,14.424,14.947,0.662,11.706,-0.217,6.476,9.342
11.641,18.941,16.791,2.544,13.028,-0.161,8.005,9.165
16.37,26.22,20.135,8.76,15.969,4.413,9.858,10.968
18.558,29.028,21.462,14.611,17.232,10.374,10.887,14.591
12.408,22.301,15.282,11.74,11.377,8.364,7.563,14.13
1.943,11.224,4.838,3.189,1.512,0.32,1.971,9.073
-3.421,6.117,-0.558,-0.093,-3.509,-2.855,0.149,6.052
-1.776,9.061,1.198,3.558,-2.022,0.859,2.477,6.912
1.045,13.673,4.2,7.136,0.332,4.607,4.46,7.554
0.756,15.1,4.467,7.171,0.259,4.613,4.474,6.822
-2.652,12.27,1.878,4.534,-2.054,1.735,3.243,6.256
-6.873,6.766,-2.014,1.515,-5.198,-1.196,2.22,7.168
-8.506,3.508,-3.152,2.524,-5.46,0.384,4.904,11.473
-6.131,5.108,0.621,8.624,-1.153,7.109,11.119,17.804
-1.543,8.42,5.434,13.927,3.574,12.816,15.109,21.237
3.506,11.202,8.094,14.695,5.531,13.719,15.551,21.851
8.772,14.722,10.829,14.885,7.178,13.598,17.558,24.612
13.039,18.408,14.734,17.669,10.352,15.659,22.496,29.484
13.76,19.044,16.431,19.616,12.322,16.989,25.498,30.992
10.443,15.736,13.893,17.038,10.587,14.276,22.906,26.676
5.759,11.36,9.881,12.35,6.827,9.927,17.067,20.331
2.725,8.88,8.306,10.367,4.71,8.5,13.514,17.439
2.137,8.582,9.482,10.91,5.243,9.254,13.856,18.546
3.934,10.145,11.722,11.215,6.99,9.082,15.175,20.309
9.566,14.987,16.068,13.689,10.518,10.859,17.138,23.127
18.164,22.022,23.195,21.092,16.478,18.207,21.644,29.541
23.757,25.077,28.622,27.352,20.854,25.268,25.69,35.588
22.605,21.021,28.119,25.191,19.502,23.809,23.953,33.987
18.255,14.929,24.091,17.902,14.657,16.169,17.598,25.68
15.29,11.983,21.314,12.946,11.068,10.43,12.881,18.677
13.748,10.984,20.161,10.411,9.088,8.109,11.977,15.955
12.468,9.625,18.673,7.123,6.926,6.102,12.205,14.727
12.259,8.982,17.178,4.037,5.339,3.653,12.434,14.486
12.548,9.452,16.201,2.595,4.876,1.158,13.028,15.193
10.85,9.155,15.086,2.687,4.526,-0.041,13.524,14.499
7.696,8.15,14.713,5.159,5.072,2.372,14.742,12.834
5.968,8.042,15.821,9.019,7.222,6.672,17.688,12.827
6.216,8.726,17.272,11.461,9.512,9.124,21.486,15.004
6.993,9.177,18.793,13.149,11.566,10.626,25.445,19.128
6.608,7.994,20.423,15.513,13.652,12.912,28.614,23.757
4.189,4.243,21.28,16.646,14.775,14.108,29.598,25.843
1.3,0.157,21.542,15.798,15.024,13.491,29.601,25.245
0.228,-0.596,22.604,15.966,16.235,13.829,31.537,25.199
1.19,2.506,25.795,19.884,19.807,17.637,36.628,28.292
2.105,5.359,29.995,25.423,24.096,23.071,41.915,33.388
0.199,3.22,30.916,26.818,24.846,24.382,41.847,35.733
-4.618,-2.947,26.689,22.404,20.739,19.595,35.374,32.591
-8.254,-6.901,21.486,17.679,15.877,14.899,27.901,27.926
-6.54,-4.574,20.473,18.483,14.936,16.921,24.71,27.504
-1.269,1.108,23.121,23.616,17.513,23.572,25.49,30.271
0.832,3.658,24.247,26.227,18.911,26.446,25.809,29.887
-2.823,0.659,21.298,22.697,16.433,21.972,22.644,24.605
-7.503,-4.585,16.382,16.751,11.743,15.6,16.732,19.125
-8.692,-8.448,11.572,12.597,7.08,11.985,10.418,16.183
-6.23,-9.525,7.563,9.899,3.541,9.203,5.783,13.355
-0.991,-7.237,6.083,8.415,2.632,6.829,4.354,10.169
5.502,-3.096,8.026,9.31,4.75,7.821,5.885,9.786
10.014,-0.379,10.655,11.048,7.357,10.955,7.554,11.823
11.213,0.753,11.368,11.9,8.353,12.804,7.224,12.812
10.393,1.905,10.525,12.277,7.807,12.867,5.532,12.085
8.146,1.285,8.79,11.254,5.894,11.053,3.431,10.518
5.5,-1.942,7.449,8.916,4.243,8.387,2.214,8.647
5.376,-3.221,9.443,9.269,6.358,8.845,4.787,8.852
9.417,0.667,15.455,13.833,12.693,13.584,11.723,13.51
16.134,7.406,22.855,19.692,19.88,19.628,19.383,21.029
22.658,14.108,29.444,25.684,25.585,25.913,25.061,27.683
26.274,18.647,33.404,30.322,28.416,30.642,27.59,29.576
25.278,17.944,31.91,28.027,25.779,27.654,23.77,22.956
20.836,12.301,25.476,18.79,18.629,17.232,14.088,10.881
16.677,6.873,19.817,11.944,13.225,9.694,6.568,3.624
13.588,3.42,17.59,11.136,11.895,8.867,5.172,4.102
7.54,-2.534,14.122,8.88,9.133,6.727,3.977,4.588
-1.622,-11.455,7.142,1.698,2.176,-0.402,-0.849,0.946
-6.722,-16.229,1.877,-3.93,-3.779,-5.825,-5.331,-3.018
-4.37,-13.54,1.52,-3.749,-5.066,-5.055,-6.275,-3.688
-0.173,-8.708,2.616,-1.441,-4.551,-2.015,-5.327,-1.207
1.181,-6.577,2.573,-0.462,-4.697,-0.929,-4.336,2.901
0.842,-6.682,2.928,0.154,-4.203,-0.835,-2.903,6.616
-0.795,-8.651,3.729,0.143,-3.258,-0.969,-1.433,6.692
-4.916,-13.496,2.415,-2.716,-4.445,-3.036,-2.162,2.182
-8.41,-18.236,-0.164,-5.539,-6.726,-4.403,-4.46,-1.803
-6.444,-17.912,0.272,-2.53,-5.952,0.1,-4.162,0.16
-0.297,-13.681,3.956,4.22,-2.563,7.078,-0.383,5.694
4.214,-11.139,6.461,7.287,-1.074,8.615,3.109,8.636
5.623,-10.897,6.805,6.827,-1.372,6.504,4.991,8.931
7.71,-8.667,8.892,9.229,1.236,8.588,8.109,11.144
11.889,-3.633,13.795,15.48,7.186,15.315,13.141,15.96
15.317,0.686,17.479,20.685,11.495,20.966,16.473,20.043
14.992,0.995,16.22,20.855,10.376,21.602,14.865,20.579
9.784,-4.305,9.805,14.543,3.917,15.572,8.643,15.985
1.842,-13.06,1.222,3.63,-4.885,4.236,0.996,7.363
-3.865,-19.24,-4.986,-5.558,-11.317,-5.469,-3.979,0.05
-5.027,-19.79,-6.535,-7.977,-12.613,-7.376,-4.338,-2.086
-5.025,-18.447,-5.962,-6.236,-11.32,-4.454,-3.05,-2.007
-6.495,-18.728,-6.637,-5.456,-11.435,-3.054,-4.621,-3.654
-6.256,-18.48,-7.576,-5.658,-12.473,-3.4,-8.791,-5.956
-1.639,-15.31,-6,-4.721,-11.623,-2.877,-11.246,-7.005
4.44,-10.774,-2.352,-2.67,-8.834,-1.143,-9.541,-7.256
7.89,-7.584,-0.154,-1.251,-7.164,0.311,-6.55,-7.731
7.643,-7.55,-1.847,-2.964,-9.208,-1.274,-6.835,-8.784
5.066,-10.304,-5.403,-7.153,-13.275,-5.516,-9.796,-9.474
2.228,-12.855,-6.974,-8.968,-15.132,-7.185,-11.153,-9.019
1.603,-12.659,-5.001,-5.732,-12.776,-3.678,-9.133,-7.596
5.287,-9.742,0.405,0.553,-6.896,2.551,-4.491,-4.323
12.368,-5.396,7.842,6.846,0.474,8.621,1.49,1.379
19.135,-0.613,14.194,11.544,6.697,12.775,7.116,7.093
22.319,3.196,16.648,14.125,9.656,14.033,10.484,9.645
21.48,4.204,15.112,14.391,9.002,12.956,10.853,9.154
19.414,2.771,12.867,13.269,7.194,11.508,10.626,8.96
18.442,0.792,12.225,12.008,6.525,10.636,11.737,9.949
17.036,-1.304,10.687,9.933,5.338,8.977,11.206,8.124
13.019,-4.372,5.949,5.824,1.471,5.284,6.612,2.082
7.527,-8.525,0.447,0.948,-3.38,0.843,0.788,-2.847
3.389,-12.106,-2.589,-2.297,-6.342,-2.384,-3.314,-3.575
1.926,-13.249,-3.192,-3.614,-7.102,-4.169,-5.683,-4.083
2.555,-12.326,-3.254,-3.884,-7.024,-4.513,-6.374,-6.509
4.348,-10.915,-3.136,-3.21,-6.492,-3.243,-5.065,-7.425
7.46,-8.59,-0.734,-0.964,-3.953,-0.699,-1.922,-4.339
10.995,-4.85,4.15,2.937,0.902,3.253,2.723,1.326
11.6,-2.944,6.899,5.998,3.973,7,6.478,5.662
9.021,-4.649,5.049,6.117,2.471,7.882,6.378,6.278
7.426,-6.274,2.831,5.599,0.169,7.312,4.265,5.683
7.83,-6.496,3.209,6.137,0.299,7.372,3.78,6.378
7.371,-8.206,4.029,5.855,1.057,6.967,4.629,7.118
6.174,-10.123,4.392,4.965,1.628,6.47,5.648,7.582
6.507,-8.574,5.19,5.213,2.736,7.313,6.859,8.531
7.124,-5.806,4.524,4.554,2.156,7.313,6.38,7.296
5.929,-5.848,1.135,1.192,-1.304,4.763,2.851,2.296
5.071,-6.645,-1.302,-1.317,-3.632,2.783,-0.575,-1.459
6.96,-4.364,-0.012,0.653,-2.024,4.421,-0.603,0.52
9.865,0.11,2.833,5.958,1.141,9.051,2.379,5.919
11.874,3.625,5.278,10.627,3.554,13.165,6.774,9.988
14.036,5.643,7.736,12.018,5.489,13.476,10.589,10.764
17.187,8.003,9.903,11.973,7.263,12.422,11.881,10.44
19.218,10.048,10.323,12.597,7.988,13.596,11.069,11.213
18.441,9.551,9.2,12.618,7.577,14.89,10.389,11.716
17.012,8.725,8.804,11.866,7.837,14.45,11.265,11.294
15.684,9.351,8.84,10.129,8.266,12.42,12.213,10.422
11.593,7.742,7.163,5.678,6.449,7.895,11.568,8.316
6.221,3.243,6.479,1.866,5.13,3.87,12.48,7.083
4.958,0.625,10.493,3.848,8.637,5.462,17.649,9.765
7.138,1.195,14.738,8.643,13.004,10.676,21.023,13.262
6.43,1.165,11.483,9.131,10.512,12.494,14.956,11.858
2.019,-0.271,3.55,5.973,3.495,10.177,4.561,6.454
1.015,1.478,2.543,6.93,2.697,10.607,2.973,4.549
5.936,7.197,10.444,13.278,10.05,15.828,11.29,9.261
9.594,10.868,16.789,17.644,16.231,19.525,18.003,14.599
8.043,10.509,16.554,17.636,16.829,19.226,18.285,16.273
7.958,12.069,16.224,19.246,17.678,20.39,18.861,18.342
14.831,18.778,20.785,24.851,23.113,25.595,24.275,23.188
23.243,25.927,26.092,29.049,28.982,29.711,29.969,26.094
26.059,29.193,26.811,28.798,30.137,29.404,30.319,24.985
24.334,29.004,23.635,27.202,27.412,27.705,25.912,23.408
21.98,25.894,19.614,25.886,23.984,26.373,21.484,22.463
19.42,20.368,15.837,22.984,20.834,23.31,19.502,19.387
16.661,15.497,13.129,18.357,18.36,18.312,18.075,13.552
16.797,14.632,13.89,15.628,18.917,15.367,17.394,9.78
21.501,17.966,18.291,17.474,23.241,17.188,20.335,12.271
25.86,22.157,21.236,20.912,26.546,20.715,24.086,17.032
25.441,24.49,19.38,22.006,25.163,22.192,23.84,18.753
23.115,24.964,15.507,20.099,21.488,20.458,20.844,18.107
21.54,23.118,11.882,15.075,17.707,14.963,17.539,15.621
18.488,18.259,7.906,8.117,13.31,8.051,13.962,9.998
14.063,12.693,4.763,3.006,9.58,3.784,11.37,3.835
15.075,12.708,7.617,4.994,11.992,5.406,14.089,4.479
24.289,20.789,18.299,15.569,22.591,14.161,23.433,14.873
31.257,27.382,27.787,26.133,32.037,23.908,31.745,25.455
28.82,24.715,28.801,28.774,32.912,27.365,33.069,27.187
23.906,18.339,25.684,25.89,29.748,25.005,30.159,22.817
19.908,12.64,21.467,19.841,25.266,18.473,23.939,15.403
14.195,7.573,16.146,13.373,19.25,11.612,15.97,7.88
12.282,9.091,15.733,15.785,18.338,14.154,15.682,10.192
18.454,19.084,21.733,27.183,24.315,25.589,24.43,22.462
25.193,28.135,26.176,35.207,28.57,33.426,31.27,30.85
25.729,29.95,25.867,35.948,27.759,34.445,32.43,31.337
19.934,25.271,22.048,33.321,23.779,32.492,29.561,28.953
9.643,15.805,14.536,27.208,16.641,26.097,21.359,23.297
0.732,7.518,9.419,21.822,12.05,19.506,15.483,18.417
-1.5,6.871,12.594,24.542,15.846,22.132,20.713,22.067
-1.604,10.125,15.861,29.985,20.048,28.929,26.486,27.369
-5.572,9.564,10.542,28.021,15.7,28.025,20.664,23.104
-9.665,6.013,3.698,22.05,9.128,22.236,12.517,14.936
-9.116,4.411,4.159,20.853,9.078,20.952,14.013,13.941
-7.695,3.762,7.163,23.011,11.826,23.181,18.925,17.809
-10.746,-0.136,4.227,21.853,9.481,22.514,16.177,17.736
-17.397,-7.383,-3.44,16.404,2.32,17.785,7.428,12.29
-22.495,-13.651,-7.964,11.599,-2.479,13.227,2.367,7.079
-21.439,-14.105,-5.147,12.229,-0.095,13.155,5.095,6.488
-13.289,-7.44,2.63,18.341,7.444,17.934,12.06,10.278
-1.669,2.598,10.918,25.95,15.327,24.659,19.184,15.905
6.995,10.163,15.605,30.259,19.692,29.332,23.271,19.63
8.794,12.11,14.163,28.939,18.532,28.892,21.427,18.355
5.779,9.3,8.614,23.892,13.429,23.605,15.055,13.216
1.545,3.809,3.201,17.619,7.947,15.681,8.896,7.822
-1.821,-1.311,0.074,11.644,4.392,8.203,6.043,4.726
-1.008,-1.036,0.8,10.391,4.723,6.554,7.705,5.854
6.254,6.418,6.82,17.675,10.341,13.711,13.646,11.792
16.58,15.959,16.16,29.118,19.239,24.629,21.078,19.817
23.336,21.034,23.144,35.506,25.94,30.644,25.389,24.668
22.174,19.101,22.651,32.559,25.448,27.876,23.571,22.608
15.296,12.432,15.997,24.469,19.076,20.167,18.413,16.387
9.837,6.011,10.255,18.659,13.984,14.531,15.795,12.635
9.677,2.982,9.875,18.255,14.593,14.026,17.474,13.514
12.567,2.515,13.069,20.911,18.665,16.661,21.021,16.121
14.929,2.083,15.919,23.368,21.889,19.525,24.058,17.964
15.499,0.561,16.673,24.6,22.704,21.167,25.87,18.905
16.679,0.401,17.51,26.046,23.581,22.495,27.857,20.637
22.461,5.341,22.214,30.09,28.164,26.26,32.581,25.214
31.632,13.785,29.924,36.385,35.323,32.569,38.952,31.445
37.951,19.307,35.269,40.564,39.677,36.883,41.802,35.041
39.836,19.569,37.211,39.708,40.259,36.135,40.725,34.869
40.757,17.848,38.872,36.285,40.396,33.063,40.083,33.876
40.664,16.067,38.615,33.28,39.036,30.801,38.292,32.461
37.514,13.428,33.369,30.167,33.29,28.259,31.088,28.407
33.529,10.393,27.262,26.808,26.626,24.565,23.21,23.766
32.252,9.082,25.632,25.542,24.188,22.557,22.208,23.69
33.865,10.834,26.806,27.061,25.029,24.167,26.508,28.498
37.339,15.803,28.142,29.504,26.459,27.601,30.924,33.784
42.355,22.816,31.087,31.806,29.033,30.785,34.491,36.941
46.419,27.362,34.858,33.234,32.088,32.251,36.226,37.554
45.646,24.626,35.32,32.048,32.157,30.103,33.664,34.594
40.428,16.161,32.615,27.995,28.941,24.744,28.753,28.599
35.215,8.456,30.694,23.126,25.919,19.355,26.233,22.85
32.719,5.967,29.777,19.615,24.344,16.265,25.431,19.733
32.77,8.455,27.908,18.933,23.376,16.117,23.132,19.509
34.376,12.408,26.603,21.216,23.685,18.661,21.368,21.138
34.212,12.599,25.997,23.25,23.791,21.033,21.367,21.006
28.458,5.827,21.683,20.394,19.363,18.648,18.528,15.811
19.886,-4.169,13.825,13.288,11.708,11.391,12.209,8.866
16.119,-9.48,9.695,9.001,8.097,6.234,8.918,7.187
20.14,-6.537,13.191,12.302,11.68,9.21,12.018,11.873
27.042,0.225,19.615,18.671,17.909,16.26,17.482,16.887
29.089,3.194,21.773,20.347,20.293,18.671,19.58,16.887
24.074,0.635,18.169,17.162,17.342,15.62,17.242,12.555
19.06,-1.288,15.04,15.909,14.632,13.964,15.942,9.269
20.946,1.775,17.308,19.066,16.82,16.544,19.541,10.421
25.573,5.558,19.722,20.498,19.103,17.545,21.859,12.073
25.211,5.08,15.774,16.284,15.252,13.197,16.764,9.695
20.935,2.345,9.15,11.562,8.637,8.909,9.552,6.294
18.508,1.466,6.623,11.543,5.895,9.852,7.247,6.769
19.756,3.709,8.515,15.201,7.753,14.144,8.953,10.682
22.705,7.643,11.523,19.058,11.109,17.696,11.778,14.149
23.631,9.013,12.636,19.907,12.587,18.047,14.524,14.179
19.422,4.621,9.765,16.473,9.776,15.057,14.663,11.127
12.841,-1.646,4.488,11.569,4.347,11.359,11.154,7.905
10.153,-2.663,0.959,9.021,0.718,9.712,7.187,6.329
11.171,1.646,-0.457,8.387,-0.613,9.393,4.395,5.617
10.865,4.871,-2.146,6.676,-2.185,7.763,1.476,4.766
8.571,4.086,-3.849,3.919,-3.894,4.942,-0.756,3.786
6.862,2.251,-4.694,2.651,-4.536,3.555,-1.004,2.766
8.137,3.825,-3.977,4.988,-3.091,5.975,0.726,4.532
15.213,11.232,1.588,12.061,3.208,13.273,5.551,13.451
26.39,21.062,11.72,20.703,13.315,21.824,11.839,23.965
34.033,26.855,18.76,24.056,19.853,24.391,14.271,23.689
34.931,27.936,18.53,20.79,19.745,19.84,12.575,13.898
34.032,28.768,16.09,16.854,18.223,14.962,11.643,7.375
35.593,31.214,16.289,15.87,19.014,14.034,12.55,7.242
39.169,33.821,18.22,15.845,20.52,14.598,13.098,8.035
43.435,36.167,20.596,15.727,22.066,14.571,13.952,9.36
47.085,38.354,23.356,16.142,24.289,14.169,15.318,11.496
48.477,38.665,24.406,15.056,25.009,11.745,13.603,9.556
48.341,36.982,22.798,12.337,23.201,7.91,8.753,4.045
49.296,36.632,22.089,13.131,22.706,8.416,7.018,3.737
51.987,38.798,25.031,18.428,26.055,14.042,11.781,11.278
54.099,39.711,28.886,21.459,29.871,17.148,18.217,18.435
53.49,37.267,29.89,19.187,30.364,14.451,20.274,18.854
52.408,36.442,29.335,17.406,29.455,12.418,18.724,15.868
55.094,41.75,31.028,20.716,31.429,15.933,18.613,15.858
60.504,48.961,35.327,26.364,36.406,21.733,22.023,20.222
63.506,52.034,40.026,30.259,41.344,25.551,27.26,25.637
61.627,50.51,42.9,30.901,43.573,26.295,31.424,27.939
56.257,45.48,41.53,27.324,41.378,22.954,31.559,24.701
51.564,38.95,37.052,21.076,36.711,16.625,28.162,18.715
52.213,36.496,35.5,17.764,35.297,13.208,26.43,16.967
57.33,40.349,39.404,20.203,39.096,16.339,29.48,21.396
60.92,45.228,43.808,24.283,43.368,21.847,33.961,26.19
61.044,47.543,44.122,25.755,43.764,24.282,34.791,26.482
60.793,49.216,41.395,25.306,41.025,23.564,30.859,23.332
61.354,50.836,39.151,25.487,38.613,23.301,26.413,21.208
62.228,51.058,40.221,28.232,39.733,26.949,27.908,24.334
62.609,49.673,43.604,32.633,43.5,32.966,35.26,31.495
60.109,46.905,43.38,33.587,43.983,34.167,38.382,34.725
54.797,43.654,37.006,28.836,38.685,28.03,31.021,29.349
49.797,40.153,30.133,22.974,32.797,21.066,21.762,21.267
45.152,34.261,26.124,18.662,29.308,17.086,19.098,16.682
38.025,24.868,20.2,12.543,23.953,12.039,17.879,13.046
28.838,15.202,11.185,4.477,15.58,5.335,13.853,8.64
22.225,10.669,6.483,0.51,10.608,3.436,13.306,8.363
21.147,12.997,8.712,2.344,11.74,7.317,17.702,12.621
23.354,18.536,11.128,4.386,13.537,9.563,18.505,14.276
24.602,22.635,10.078,3.687,12.618,7.082,13.363,11.001
22.859,23.2,9.252,2.956,11.894,4.736,10.716,8.835
19.409,21.687,10.264,3.631,12.73,5.829,13.835,10.807
17.151,21.203,9.368,3.573,11.599,7.632,14.462,11.717
18.18,23.005,5.509,1.742,7.567,6.957,8.096,8.029
21.194,25.918,2.801,0.186,4.807,5.164,1.605,3.996
21.753,27.972,3.134,0.708,5.075,5.497,0.823,4.197
18.633,28.567,4.727,2.587,6.38,7.979,3.9,7.457
15.694,28.992,6.803,4.144,7.923,9.944,7.085,9.574
14.785,29.881,9.141,4.794,9.437,10.204,7.828,8.255
14.184,30.267,10.38,4.443,9.648,9.028,5.352,4.72
13.582,29.408,10.132,2.844,8.778,6.52,2.454,1.898
14.066,27.972,10.217,1.495,9.122,4.294,3.868,2.436
15.746,27.739,11.83,2.83,11.454,4.725,9.553,5.921
17.409,28.999,12.859,5.829,13.022,7.158,12.358,8.008
16.951,29.384,11.71,7.003,12.128,8.878,8.886,6.524
13.868,27.448,10.931,6.037,11.432,9.271,5.805,4.802
10.384,24.354,12.02,5.538,12.52,9.569,7.445,5.49
8.62,21.832,12.423,6.002,13.012,9.785,9.107,6.834
8.124,20.303,10.131,4.566,10.83,7.993,6.615,5.675
7.192,18.478,5.988,-0.28,6.579,3.494,2.05,1.377
6.268,16.038,2.491,-4.772,2.943,-0.33,-0.246,-2.648
6.464,14.713,0.866,-5.124,1.548,-0.402,-0.235,-4.026
6.007,14.549,-0.351,-3.435,1.025,0.997,-1.173,-4.565
3.944,13.596,-0.753,-2.532,1.561,1.109,-1.095,-3.738
3.102,11.75,1.842,-1.48,4.879,1.461,3.27,0.558
4.577,10.592,4.774,-0.124,7.996,2.945,6.237,3.968
5.488,10.952,3.927,0.242,7.046,3.987,2.435,1.893
4.719,12.485,1.397,0.163,4.354,4.632,-2.328,-1.981
5.452,14.965,1.539,0.951,4.129,6.235,-1.302,-2.27
9.053,18.427,4.082,2.801,6.358,8.709,3.543,1.026
11.194,20.617,5.88,3.952,8.317,9.611,6.978,3.97
9.795,19.525,6.862,3.212,9.565,7.639,7.885,4.029
9.33,18.246,9.424,2.98,11.947,6.07,8.657,3.15
10.545,18.952,11.591,3.885,13.681,6.48,9.396,2.815
8.278,17.552,8.916,2.133,10.49,5.122,7.229,0.768
3.188,12.146,3.58,-2.044,4.094,1.688,2.207,-3.125
0.287,6.589,0.825,-4.138,-0.076,0.141,-2.527,-5.992
-2.07,2.481,-0.628,-4.945,-2.012,-0.603,-5.969,-7.758
-7.173,-1.255,-3.03,-7.461,-3.488,-3.566,-7.238,-9.038
-10.373,-2.431,-1.981,-8.125,-1.509,-4.935,-3.066,-7.007
-6.576,1.15,4.6,-3.158,4.67,-0.128,5.008,-0.905
-0.676,4.992,9.333,1.877,8.114,5.404,8.587,3.371
-0.29,3.012,6.566,-0.133,4.16,3.4,3.992,1.022
-4.016,-3.086,0.693,-6.03,-2.447,-2.759,-2.67,-3.932
-5.777,-7.194,-3.331,-8.847,-6.327,-4.826,-6.453,-5.894
-4.312,-7.424,-5.428,-8.104,-7.241,-3.057,-8.185,-5.07
-2.297,-6.122,-4.627,-6.612,-5.372,-1.659,-7.629,-3.2
-2.145,-6.05,-1.292,-6.265,-2.192,-1.89,-5.176,-1.596
-4.93,-8.845,-0.609,-8.33,-2.413,-3.618,-5.213,-2.283
-10.059,-13.797,-4.921,-12.283,-7.48,-6.464,-9.709,-5.619
-15.735,-18.221,-11.056,-16.483,-14.057,-10.145,-16.336,-10.385
-19.835,-20.7,-16.893,-20.692,-20.108,-14.951,-23.401,-16.213
-20.899,-22.267,-21.994,-24.83,-25.23,-19.956,-29.629,-22.559
-19.896,-24.023,-24.725,-27.519,-27.837,-22.976,-32.48,-26.952
-18.636,-24.677,-24.356,-27.901,-26.933,-23.386,-31.52,-27.685
-16.817,-21.887,-22.282,-26.251,-23.495,-22.068,-28.952,-25.958
-14.583,-17.195,-19.944,-23.24,-19.222,-19.461,-25.623,-23.141
-13.833,-14.576,-18.004,-19.951,-15.711,-16.027,-21.645,-19.68
-14.61,-13.813,-16.766,-17.53,-13.748,-13.209,-18.968,-16.993
-15.83,-13.426,-16.736,-17.303,-13.465,-13.167,-19.478,-17.377
-18.601,-16.363,-18.74,-20.771,-15.309,-17.708,-22.851,-21.979
-23.674,-23.961,-22.278,-26.691,-18.562,-24.932,-26.368,-28.194
-27.699,-30.64,-24.74,-30.114,-20.424,-28.683,-27.127,-30.673
-26.859,-31.397,-23.887,-27.772,-19.076,-25.435,-25.661,-28.039
-22.899,-28.66,-20.132,-22.017,-15.563,-18.574,-23.647,-24.076
-20.929,-27.647,-16.24,-17.826,-12.387,-13.666,-20.669,-20.989
-22.163,-29.084,-14.923,-17.717,-11.551,-13.099,-17.373,-18.371
-23.456,-29.932,-16.124,-19.541,-12.862,-14.96,-15.682,-16.381
-23.359,-28.864,-17.57,-19.051,-14.305,-14.796,-15.196,-14.606
-23.86,-27.815,-17.907,-15.601,-14.589,-11.428,-14.409,-12.22
-25.46,-28.914,-17.259,-13.673,-13.841,-10.057,-12.787,-10.301
-25.302,-31.302,-15.544,-15.744,-12.192,-13.198,-10.278,-9.754
-22.987,-32.203,-13.392,-18.038,-10.238,-15.145,-8.218,-9.648
-22.271,-31.126,-12.889,-17.506,-9.648,-12.912,-8.894,-9.725
-23.929,-30.07,-14.366,-16.118,-10.812,-11.22,-11.771,-10.315
-24.965,-30.071,-15.869,-16.234,-12.368,-12.943,-14.053,-10.922
-25.477,-30.93,-16.962,-18.161,-13.819,-15.726,-15.203,-11.678
-28.411,-33.22,-19.137,-21.838,-15.952,-18.195,-16.693,-13.562
-33.318,-36.639,-22.336,-26.269,-18.629,-21.373,-18.479,-16.346
-34.904,-36.96,-23.268,-27.392,-19.124,-23.056,-18.036,-17.329
-29.87,-31.186,-19.782,-22.431,-15.477,-19.27,-14.043,-14.258
-22.659,-24.221,-15.335,-15.812,-11.009,-12.804,-9.741,-9.327
-18.362,-21.571,-13.193,-12.489,-8.961,-9.363,-7.095,-5.089
-15.224,-20.884,-10.803,-10.477,-6.519,-7.772,-2.334,-0.137
-10.644,-18.075,-5.834,-7.389,-1.075,-4.6,6.034,5.43
-7.337,-14.528,-1.661,-6.24,3.761,-2.588,12.006,7.065
-9.24,-14.323,-2.954,-9.775,3.213,-6.037,10.146,2.77
-15.204,-18.538,-8.838,-14.767,-1.646,-11.958,3.41,-2.626
-19.872,-24.104,-14.125,-16.449,-6.104,-13.967,-1.936,-4.354
-20.633,-27.178,-16.317,-14.979,-8.264,-11.981,-3.822,-3.292
-19.977,-26.674,-16.997,-13.178,-9.141,-10.179,-3.22,-1.685
-20.313,-24.48,-17.381,-11.754,-9.263,-9.537,-1.591,0.175
-21.091,-22.764,-16.377,-10.115,-8.105,-8.688,0.057,1.943
-22.072,-22.493,-13.766,-9.186,-6.109,-8.429,1.296,2.096
-23.798,-23.446,-11.822,-10.002,-5.11,-9.881,0.909,0.215
-24.035,-23.648,-10.823,-10.488,-4.856,-10.533,-0.812,-0.938
-20.412,-20.889,-7.778,-7.86,-2.403,-7.423,-0.014,1.453
-15.012,-15.492,-2.73,-3.468,2.417,-2.391,4.522,5.645
-11.206,-10.373,0.006,-1.249,5.538,0.121,7.612,7.257
-10.023,-9.165,-1.256,-2.841,4.657,-1.383,5.517,5.147
-10.64,-12.208,-3.43,-6.362,2.313,-4.838,1.423,1.878
-11.051,-14.44,-3.506,-7.977,2.152,-6.802,-0.075,-0.199
-9.889,-11.755,-1.347,-5.459,4.771,-5.197,1.321,-0.606
-7.921,-6.772,1.396,-1.853,7.646,-2.701,2.474,-0.47
-7.251,-4.51,2.449,-2.008,8.012,-3.685,1.005,-1.601
-9.687,-5.636,0.27,-5.369,5.248,-6.982,-2.142,-4.379
-13.61,-6.36,-3.343,-7.315,1.561,-7.953,-4.157,-6.751
-14.826,-4.344,-4.66,-6.476,-0.142,-6.494,-3.78,-6.823
-13.141,-1.735,-3.636,-5.512,0.164,-6.294,-2.992,-5.976
-11.77,-0.251,-2.902,-5.52,0.81,-7.257,-3.752,-6.419
-10.222,2.258,-1.733,-4.266,2.419,-5.421,-3.876,-6.553
-6.67,6.66,1.442,-0.804,5.591,-0.78,-1.222,-3.977
-4.682,9.283,3.498,1.989,7.163,1.651,1.173,-0.989
-7.124,8.736,1.947,2.155,5.237,0.079,0.953,-0.823
-8.36,10.193,0.562,2.695,3.698,-0.552,0.961,-1.964
-3.576,16.33,2.778,6.589,5.932,3.709,3.128,-1.566
1.132,20.147,5.689,9.716,8.716,8.001,4.639,-1.136
-0.678,16.008,6.087,6.614,8.122,5.63,3.336,-3.64
-4.665,10.053,6.102,1.163,6.608,0.005,2.138,-7.076
-5.711,8.787,6.931,-0.211,6.608,-1.981,2.797,-7.622
-6.428,8.607,5.018,0.149,4.576,-1.929,1.074,-6.739
-8.686,5.563,-0.166,-2.169,-0.9,-3.825,-4.76,-7.975
-9.774,2.664,-4.157,-5.729,-5.342,-6.586,-9.641,-10.831
-9.483,1.938,-5.512,-8.649,-6.83,-9.177,-10.641,-12.809
-10.748,0.519,-6.964,-11.446,-8.035,-12.18,-10.457,-13.127
-13.932,-2.831,-9.598,-13.19,-10.056,-13.796,-11.198,-12.38
-16.686,-5.404,-11.609,-12.41,-11.183,-12.441,-11.786,-11.275
-16.404,-3.964,-10.273,-8.816,-8.991,-8.806,-10.004,-9.226
-11.699,2.581,-4.364,-2.21,-2.33,-2.79,-4.573,-4.891
-5.394,10.44,2.692,4.972,5.412,4.306,2.342,0.227
-1.969,13.85,6.141,8.273,9.229,7.986,6.786,2.835
-0.471,13.893,7.224,8.642,10.317,7.839,9.12,3.904
1.974,15.828,9.358,10.79,12.674,8.726,12.307,6.731
1.906,17.067,9.375,13.029,13.409,10.69,13.758,8.571
-4.719,10.965,2.916,9.8,7.51,8.513,8.515,4.151
-12.868,1.506,-5.407,3.446,-0.738,2.895,0.253,-2.93
-14.529,-0.54,-7.539,2.502,-2.544,1.684,-1.814,-3.542
-10.101,5.446,-3.74,8.291,2.081,7.508,3.342,2.712
-6.365,10.222,-0.545,12.546,5.563,12.458,8.023,6.683
-7.12,8.894,-1.565,10.044,3.848,10.255,7.099,3.574
-10.753,4.269,-6.114,4.123,-1.303,4.116,1.751,-2.406
-13.694,0.446,-11.478,-1.041,-6.541,-1.542,-4.4,-7.303
-13.532,-0.587,-13.945,-4.005,-8.74,-5.395,-7.888,-10.488
-10.284,1.266,-11.428,-3.468,-6.043,-5.567,-6.825,-10.306
-5.3,5.477,-4.76,1.085,0.97,-1.177,-1.778,-6.003
-0.567,10.478,2.653,6.842,8.556,4.532,3.435,-1.848
0.934,12.695,5.436,9.095,11.091,7.12,3.309,-2.722
-1.874,9.653,1.276,6.705,6.816,5.998,-2.39,-6.678
-5.954,3.87,-4.912,3.814,1.067,4.518,-6.644,-7.267
-7.923,0.84,-6.624,4.355,0.153,5.291,-4.491,-2.795
-7.578,2.7,-3.589,7.645,4.061,7.88,1.243,2.314
-6.925,5.492,-0.75,10.222,7.498,10.364,4.823,4.176
-7.833,3.894,-1.749,9.431,6.424,10.429,2.731,2.225
-9.59,-1.426,-4.684,6.188,2.936,7.794,-3.008,-1.486
-9.283,-4.137,-4.85,4.625,2.407,5.99,-5.895,-3.388
-7.07,-2.181,-2.759,5.447,4.414,6.056,-5.209,-3.195
-7.282,-1.418,-4.321,3.348,2.604,2.989,-7.715,-5.282
-11.683,-6.302,-11.62,-4.161,-4.8,-5.205,-15.513,-11.818
-17.951,-14.817,-20.746,-12.447,-12.918,-13.41,-23.538,-19.121
-24.306,-22.593,-27.042,-16.522,-17.239,-17.166,-27.082,-21.785
-29.754,-26.279,-28.13,-15.578,-16.876,-16.599,-25.075,-18.474
-33.764,-26.228,-26.166,-12.543,-14.695,-14.186,-20.985,-14.422
-36.641,-25.901,-25.84,-11.73,-14.858,-13.044,-20.14,-15.701
-36.501,-25.929,-27.258,-13.804,-17.359,-14.197,-22.541,-20.262
-30.882,-24.002,-26.62,-15.026,-18.319,-15.13,-23.516,-21.378
-23.087,-21.257,-24.355,-14.171,-17.06,-14.464,-23.095,-19.569
-19.196,-20.71,-23.619,-13.132,-16.069,-13.244,-24.22,-19.14
-19.269,-20.511,-22.47,-10.571,-14.133,-10.278,-23.756,-17.565
-19.894,-18.232,-18.474,-5.998,-9.524,-5.694,-19.61,-13.535
-21.359,-17.109,-14.755,-4.091,-5.489,-4.241,-16.632,-12.659
-24.14,-19.338,-12.876,-5.811,-3.845,-6.489,-16.055,-15.093
-24.995,-21.369,-10.348,-6.669,-2.03,-7.422,-14.848,-15.286
-22.406,-20.984,-8.162,-6.43,-0.221,-6.552,-14.766,-14.059
-19.644,-20.967,-10.321,-9.328,-2.166,-8.633,-18.7,-16.133
-19.981,-23.986,-16.468,-16.17,-8.324,-15.536,-24.042,-21.136
-22.465,-28.279,-21.789,-22.229,-14.246,-22.744,-26.9,-24.939
-22.894,-29.067,-22.165,-21.562,-15.082,-23.081,-25.87,-24.1
-19.559,-24.753,-17.665,-13.822,-10.524,-15.331,-20.964,-17.908
-16.672,-19.815,-13.126,-6.183,-6.114,-7.144,-15.198,-10.139
-17.729,-18.059,-12.522,-4.491,-6.294,-4.939,-12.245,-5.218
-20.762,-18.921,-15.13,-7.889,-9.85,-8.01,-13.063,-5.286
-23.254,-21.355,-19.262,-13.872,-14.751,-13.94,-17.918,-11.909
-23.111,-22.243,-21.826,-18.524,-18.233,-18.633,-22.54,-19.824
-18.649,-17.648,-19.111,-16.864,-16.668,-16.79,-19.725,-18.519
-14.177,-11.966,-14.979,-11.299,-13.411,-10.642,-13.82,-10.07
-15.946,-13.487,-17.199,-9.74,-16.017,-8.01,-16.734,-7.96
-22.011,-21.124,-23.826,-13.325,-22.957,-10.668,-26.298,-14.995
-25.405,-26.681,-25.997,-15.766,-25.582,-13.537,-29.586,-20.098
-24.135,-26.494,-22.209,-13.594,-22.213,-12.833,-25.639,-17.445
-21.823,-23.89,-18.088,-9.73,-18.538,-9.516,-22.796,-13.005
-20.426,-22.227,-15.25,-7.029,-16.42,-5.856,-20.237,-10.434
-17.608,-20.301,-10.26,-4.219,-12.414,-2.253,-11.923,-5.342
-12.418,-16.169,-3.324,-0.145,-6.345,1.2,-1.989,2.591
-8.086,-11.836,0.224,3.325,-2.863,3.359,-0.123,6.045
-7.447,-11.018,-1.404,4.806,-3.545,4.28,-4.15,4.071
-8.815,-12.869,-3.807,4.967,-4.903,5.155,-4.282,3.365
-8.509,-12.828,-4.428,3.521,-5.291,4.651,-2.334,2.421
-7.501,-12.035,-5.902,-0.889,-7.046,0.086,-6.011,-4.626
-9.428,-15.39,-10.113,-7.031,-11.356,-6.94,-13.171,-12.951
-10.989,-18.549,-13.867,-10.334,-14.922,-10.515,-18.055,-15.006
-6.277,-13.592,-13.027,-7.805,-13.56,-7.707,-19.245,-12.291
0.161,-5.674,-10.232,-3.543,-9.776,-3.737,-18.079,-10.956
0.175,-4.817,-11.885,-4.058,-10.453,-4.966,-18.289,-14.572
-3.316,-8.292,-16.955,-8.109,-15.3,-8.783,-21.479,-20.555
-3.313,-7.909,-18.246,-9.158,-17.338,-8.421,-22.423,-22.213
-0.012,-3.591,-12.825,-4.612,-13.16,-2.722,-15.242,-15.222
3.332,0.124,-5.469,2.27,-6.628,4.128,-4.276,-2.97
4.484,0.582,-4.242,5.393,-5.193,6.674,-2.639,3.324
2.953,-1.361,-10.387,2.665,-10.498,3.397,-13.298,-2.822
2.161,-1.73,-15.282,-0.248,-14.917,-0.215,-22.685,-12.487
4.945,1.401,-13.145,2.617,-12.868,2.286,-21.112,-13.049
9.879,5.879,-6.74,11.007,-6.382,11.642,-12.281,-2.668
14.559,9.412,0.282,19.471,0.953,21.919,-2.27,11.142
15.505,9.358,4.444,20.266,4.904,23.355,3.88,17.243
9.93,3.325,1.503,10.185,1.307,12.168,0.546,7.813
2.396,-4.914,-6.99,-3.415,-7.276,-2.636,-11.268,-11.006
1.902,-6.447,-11.415,-7.862,-10.913,-7.527,-18.99,-20.521
10.983,2.33,-4.521,2.074,-3.24,2.237,-12.114,-11.121
22.706,14.363,8.1,18.16,9.485,18.163,1.889,5.078
29.113,20.269,15.569,28.271,16.786,27.832,9.295,13.208
28.511,17.562,15.202,28.159,16.353,26.816,8.815,13.408
22.948,9.1,10.875,20.462,11.603,18.456,6.226,11.352
14.936,-0.474,5.918,10.276,5.615,8.547,3.688,7.991
9.236,-5.4,3.372,4.081,2.001,3.428,2.294,4.708
10.996,-2.432,6.712,6.568,4.752,7.259,5.491,6.689
18.574,4.905,14.871,15.94,12.765,17.394,13.606,15.077
23.714,9.185,20.956,23.683,18.708,24.411,20.353,21.636
22.058,7.41,20.844,23.026,17.996,21.969,20.617,18.99
17.728,3.334,17.631,16.953,13.992,14.785,16.833,11.719
15.867,1.586,15.431,12.94,11.463,11.221,14.145,9.106
16.181,2.478,14.037,12.146,10.147,11.564,13.26,11.629
14.386,1.963,9.852,8.697,5.937,8.738,9.652,10.936
8.267,-2.96,1.594,-0.322,-2.703,-0.279,0.851,2.084
1.973,-8.999,-5.619,-8.574,-10.533,-8.443,-7.281,-7.792
1.336,-10.178,-6.125,-8.417,-11.285,-8.01,-7.428,-8.618
4.946,-6.44,-1.96,-1.763,-6.558,-1.558,-1.388,-2.117
5.114,-4.179,-0.452,2.828,-4.321,2.467,2.342,2.2
-0.67,-6.923,-4.298,1.773,-8.015,1.277,-0.301,1.232
-6.302,-11.277,-8.58,-1.353,-12.411,-1.81,-5.398,-1.432
-9.017,-15.117,-10.166,-4.563,-13.803,-5.407,-8.982,-4.43
-12.708,-20.282,-11.865,-8.977,-14.989,-9.864,-10.89,-7.53
-16.587,-24.841,-13.741,-12.483,-16.395,-12.439,-10.303,-7.441
-16.115,-24.499,-12.433,-12.456,-15.064,-11.854,-7.191,-4.208
-12.217,-19.839,-8.566,-10.171,-11.671,-10.532,-4.934,-2.722
-9.476,-15.157,-6.18,-8.125,-9.801,-9.99,-6.186,-5.602
-10.572,-13.926,-7.554,-8.475,-11.38,-11.358,-10.351,-12.085
-13.873,-15.549,-10.054,-10.167,-13.918,-13.474,-13.512,-17.481
-15.965,-17.089,-10.01,-9.091,-13.754,-11.845,-12.077,-15.636
-17.376,-19.262,-9.531,-6.381,-12.774,-7.691,-8.639,-8.86
-21.486,-25.273,-13.006,-7.87,-15.676,-8.137,-8.511,-6.245
-28.347,-33.887,-19.606,-13.751,-22.092,-14.11,-12.201,-10.186
-34.216,-39.82,-25.045,-18.606,-27.546,-19.097,-16.092,-14.225
-36.614,-40.574,-27.88,-20.75,-30.28,-20.246,-18.122,-14.233
-36.341,-38.003,-29.961,-23.463,-32.45,-21.35,-19.583,-13.261
-35.209,-34.568,-32.241,-28.233,-35.412,-25.103,-21.966,-15.183
-33.627,-31.227,-33.387,-32.536,-37.413,-29.432,-24.428,-19.415
-29.809,-27.015,-31.436,-32.944,-35.843,-30.315,-24.446,-21.7
-23.547,-21.576,-26.76,-28.934,-31.255,-26.813,-21.269,-19.457
-19.323,-18.057,-22.893,-23.95,-27.592,-23.141,-17.535,-15.17
-19.303,-18.174,-20.848,-20.06,-25.75,-21.026,-14.645,-11.309
-19.177,-19.102,-17.808,-16.302,-22.795,-17.586,-11.411,-7.807
-17.263,-20.04,-14.498,-13.823,-19.395,-14.187,-8.626,-6.061
-18.138,-23.372,-15.002,-14.22,-19.281,-14.096,-8.709,-7.128
-23.859,-28.374,-19.384,-15.913,-22.455,-15.417,-11.769,-8.6
-28.895,-30.381,-22.493,-16.535,-24.414,-15.306,-13.601,-7.622
-27.719,-26.952,-21.277,-16.104,-22.579,-14.795,-10.736,-4.827
-23.614,-22.088,-20.029,-17.277,-20.949,-16.34,-7.657,-4.051
-21.56,-20.181,-21.887,-20.303,-22.39,-18.707,-8.92,-6.341
-18.81,-19.275,-21.915,-20.986,-22.259,-17.919,-9.657,-7.279
-11.473,-14.898,-16.078,-16.79,-16.804,-13.124,-4.761,-3.203
-0.945,-5.441,-7.29,-9.396,-8.736,-6.906,2.389,3.801
8.622,5.774,-0.046,-2.421,-2.19,-2.568,6.597,8.507
12.507,11.083,3.464,0.526,0.598,-2.454,7.714,8.422
8.702,6.506,2.812,-0.91,-0.897,-5.08,7.604,5.811
0.617,-2.514,-0.92,-3.564,-5.112,-6.779,6.465,4.378
-6.601,-8.659,-4.585,-4.686,-8.768,-6.557,5.161,5.884
-10.136,-10.725,-5.081,-3.808,-9.356,-5.438,6.135,9.363
-9.749,-10.956,-3.001,-2.077,-7.377,-3.933,9.836,12.36
-7.673,-10.842,-1.959,-1.309,-5.902,-2.833,13.606,13.058
-7.12,-11.658,-4.168,-2.956,-7.777,-3.901,14.375,11.117
-9.32,-14.541,-8.661,-7.302,-13.033,-8.188,10.726,7.196
-12.917,-17.951,-13.089,-12.285,-18.925,-13.429,3.943,2.949
-13.693,-16.631,-14.089,-13.2,-20.925,-14.08,-0.614,1.689
-7.524,-7.614,-8.599,-7.829,-15.684,-7.85,2.849,6.043
1.748,2.86,0.947,-1.524,-6.265,-0.949,12.167,13.238
4.289,5.625,6.311,-1.571,-1.094,-1.143,17.073,16.439
-1.478,1.385,3.392,-6.842,-3.774,-6.803,11.704,13.108
-4.985,-0.343,-0.258,-8.319,-6.8,-8.413,4.198,9.226
0.091,4.1,3.529,-1.915,-2.453,-2.249,5.211,11.185
6.152,8.483,10.266,6.256,4.911,5.307,11.408,16.659
6.351,9.095,12.442,10.736,7.722,9.128,13.564,19.345
4.521,9.073,11.617,12.695,7.061,10.316,12.009,17.967
4.445,10.835,11.414,13.87,7.076,10.538,12.035,15.71
4.093,13.413,10.899,13.427,7.561,9.649,13.935,14.988
3.128,15.932,9.302,10.957,6.817,7.45,14.595,14.858
4.785,19.35,8.562,8.145,5.694,4.861,13.05,12.321
8.789,22.995,9.536,6.159,5.763,2.757,11.327,7.341
10.024,23.476,10.024,4.258,6.217,0.93,11.037,4.342
6.237,20.213,7.984,2.175,5.2,-0.695,10.867,5.21
2.235,16.856,5.197,1.233,3.541,-0.89,9.946,7.38
3.659,16.695,5.787,2.792,4.564,1.751,11.138,10.443
9.581,19.839,10.78,6.068,9.333,5.887,16.404,15.15
15.028,23.704,16.675,9.084,14.937,8.788,22.644,19.189
18.13,25.782,19.89,11.202,18.195,9.998,25.548,20.459
20.412,26.061,20.246,11.99,18.668,9.752,25.012,19.859
23.459,26.823,20.185,12.019,18.595,9.235,24.769,20.031
27.959,30.308,22.078,14.513,20.572,12.052,26.776,22.664
32.751,36.105,26.422,20.421,24.916,18.613,29.506,26.218
34.937,41.004,30.947,25.717,29.057,23.843,31.187,27.597
33.191,41.655,31.344,26.646,29.222,24.132,30.453,25.975
29.868,38.139,26.589,24.206,24.93,21.865,27.496,23.933
28.765,34.569,22.685,22.307,21.539,20.991,26.04,24.052
31.108,34.266,25.409,22.265,23.675,20.699,28.921,25.133
34.362,35.986,31.309,21.532,27.966,17.842,32.708,24.033
35.468,36.914,32.823,18.854,28.403,13.764,31.754,20.209
33.785,36.007,29.223,16.174,25.313,11.846,26.558,16.561
29.912,32.736,24.983,13.984,22.229,10.707,22.208,15.23
24.547,26.838,22.048,10.498,19.389,6.987,20.615,14.474
19.381,20.691,20.37,6.83,16.488,2.61,20.859,13.002
15.417,17.413,19.549,6.214,14.612,2.042,21.49,12.778
11.277,16.251,16.913,6.987,12.143,3.624,18.728,13.118
8.165,16.157,12.31,6.082,7.906,3.605,12.132,11.182
11.342,20.782,11.692,7.505,6.602,5.562,9.443,10.067
20.462,30.652,17.026,13.951,10.833,11.792,14.342,13.698
27.455,37.933,22.31,19.264,15.593,16.201,19.893,18.495
27.572,37.58,24.191,20.621,17.382,17.315,21.803,20.994
23.615,33.879,23.747,21.968,17.265,19.611,22.342,22.252
20.008,31.631,20.609,22.799,15.175,21.089,21.031,21.353
18.676,30.395,15.869,20.053,11.288,17.912,16.089,17.002
19.044,28.875,13.299,16.009,7.957,13.317,9.949,11.738
19.352,27.512,13.021,14.272,5.749,11.698,5.877,8.325
18.275,25.801,11.954,14.32,3.587,12.5,5.159,7.907
15.069,21.866,9.375,13.437,1.608,12.555,7.323,10.575
9.617,15.986,6.443,10.681,0.003,10.248,9.606,13.826
4.204,11.329,3.904,7.791,-1.47,7.007,9.484,14.105
2.436,9.943,3.372,6.976,-1.353,5.788,8.806,12.442
4.263,10.34,6.038,8.028,1.604,7.387,11.018,13.754
5.347,9.574,7.848,7.068,3.319,7.675,12.556,16.5
3.806,7.297,4.226,1.496,-0.689,3.169,6.968,13.279
3.462,7.124,-0.137,-4.262,-5.223,-1.86,-0.419,5.867
7.988,12.717,3.146,-4.008,-1.509,-1.049,2.169,4.709
15.787,22.461,13.109,1.593,9,4.916,13.832,12.174
21.383,29.203,19.733,5.851,15.776,9.436,20.534,18.273
21.471,28.453,16.839,4.822,13.118,8.602,13.922,14.199
20.031,26.116,11.628,3.401,8.503,6.78,4.151,5.237
22.208,29.6,13.887,7.521,10.968,9.333,4.26,2.482
24.825,33.945,18.841,13.165,15.624,12.833,8.141,4.415
22.533,30.853,16.621,13.98,13.725,12.53,4.393,3.114
18.205,24.89,10.759,13.369,9.282,12.687,-1.191,1.325
18.536,25.802,9.97,16.688,10.104,17.44,0.494,4.279
23.869,32.562,12.393,19.859,13.258,20.685,3.289,6.296
27.441,36.052,10.987,16.543,11.745,15.971,-0.651,1.229
24.793,32.883,6.486,9.854,7.178,8.078,-5.629,-5.036
19.725,28.445,5.25,7.167,6.086,4.95,-4.211,-4.667
17.019,26.673,8.049,8.241,8.76,5.522,0.209,-0.589
14.979,24.939,9.151,7.42,9.626,4.258,0.974,-0.413
10.956,21.749,5.822,3.551,6.238,0.827,-2.225,-5.379
7.305,20.318,1.842,0.91,2.178,-0.714,-4.94,-9.755
6.326,21.373,0.848,2.402,1.084,1.716,-3.97,-8.142
6.592,21.734,2.326,6.348,2.562,5.876,0.301,-1.353
5.991,20.085,3.563,9.308,3.856,8.327,4.688,4.872
4.104,17.599,2.552,9.988,3.041,8.773,5.972,6.809
2.452,15.221,0.734,9.508,1.114,9.045,4.988,6.51
1.317,12.914,-0.132,8.044,-0.748,8.432,3.72,6.043
-0.757,11.067,-0.928,5.944,-2.666,6.427,1.888,4.98
-2.592,10.58,-0.645,5.448,-2.818,5.472,1.189,4.88
-2.782,10.39,1.861,6.117,-0.333,5.541,3.164,6.642
-2.705,9.337,4.223,6.167,2.458,5.481,6.065,8.859
-1.948,9.123,6.517,7.874,5.756,7.895,10.73,13.169
0.175,9.782,9.97,11.937,10.01,12.811,17.516,19.837
-0.246,7.487,10.076,12.401,10.254,13.663,19.822,21.675
-5.336,1.85,3.923,6.282,4.096,7.656,13.78,14.794
-10.577,-2.331,-3.252,-1.12,-3.069,0.413,5.122,6.02
-12.383,-3.273,-6.782,-5.972,-6.972,-4.384,-0.268,1.091
-13.16,-4.308,-8.114,-9.715,-8.692,-8.37,-2.913,-2.418
-15.72,-7.715,-9.47,-12.882,-9.813,-11.712,-5.625,-6.843
-17.8,-11.114,-9.95,-13.788,-9.681,-12.371,-7.86,-9.494
-15.468,-9.788,-7.57,-11.837,-6.775,-10.554,-6.139,-7.928
-7.977,-1.868,-2.03,-7.991,-0.875,-8.167,0.181,-3.723
1.699,7.621,3.933,-4.345,5.165,-6.048,6.05,-0.203
7.12,9.704,5.282,-4.763,6.017,-6.276,5.417,-0.333
5.038,3.468,0.767,-9.661,0.581,-10.17,-0.756,-4.038
1.682,-0.985,-3.883,-12.514,-4.674,-12.749,-5.048,-6.85
3.224,1.598,-4.067,-9.895,-4.868,-10.019,-4.205,-6.14
7.017,5.654,-2.116,-6.46,-2.698,-6.058,-2.006,-4.277
8.509,7.652,-1.48,-5.183,-1.684,-4.848,-1.142,-2.949
7.538,9.333,-1.644,-4.355,-1.333,-5.149,-0.654,-1.869
5.814,10.181,-1.065,-3.655,-0.554,-5.189,0.136,-1.516
4.116,8.02,-0.733,-4.894,-0.612,-5.434,0.335,-2.016
2.889,4.245,-2.032,-8.508,-2.698,-7.282,-0.81,-3.116
3.443,3.316,-2.729,-11.196,-4.09,-9.31,-1.302,-4.236
6.68,7.706,0.498,-8.719,-0.872,-7.616,2.123,-3.033
10.907,14.364,5.854,-2.082,5.411,-2.046,8.109,1.008
11.691,16.513,7.566,2.985,8.589,2.862,10.918,4.217
5.893,11.083,3,2.641,5.252,3.164,7.939,3.852
-2.765,3.349,-4.32,-1.749,-1.486,-0.929,2.74,1.293
-7.453,-0.726,-9.089,-6.557,-6.129,-6.02,-0.872,-1.5
-7.664,-2.681,-10.604,-10.7,-7.695,-10.117,-3.957,-5.436
-7.742,-5.621,-12.253,-15.099,-9.544,-14.043,-8.703,-11.647
-9.651,-7.758,-15.353,-18.672,-13.034,-17.446,-13.743,-17.434
-12.705,-7.617,-17.747,-19.559,-15.822,-18.291,-16.043,-19.002
-14.205,-6.197,-16.772,-17.815,-15.139,-15.67,-13.914,-15.79
-10.758,-2.534,-11.756,-14.197,-10.651,-10.392,-8.379,-10.076
-4.88,3.028,-6.322,-11.069,-6.024,-6.304,-3.695,-6.012
-2.954,5.564,-5.304,-11.813,-5.432,-7.799,-3.383,-7.038
-4.3,3.639,-7.459,-14.357,-7.151,-11.859,-5.103,-10.6
-3.219,2.517,-7.71,-13.184,-6.379,-11.679,-4.295,-10.814
-0.59,4.362,-6.209,-9.581,-3.985,-8.956,-2.157,-7.991
-2.79,4.332,-7.409,-9.452,-4.795,-10.144,-3.46,-7.623
-10.159,0.059,-11.542,-12.55,-8.631,-13.859,-7.991,-10.666
-15.321,-3.707,-14.111,-13.893,-10.653,-14.35,-11.101,-13.061
-13.974,-3.06,-12.955,-12.727,-9.121,-12.285,-11.142,-13.121
-9.002,1.252,-9.735,-11.135,-6.059,-11.158,-10.068,-12.352
-3.005,8.251,-5.573,-8.337,-2.258,-9.452,-8.462,-10.971
4.382,16.882,-1.044,-4.288,2.015,-5.722,-6.234,-8.922
12.138,24.441,1.611,-2.333,4.386,-3.44,-5.809,-8.648
17.253,28.703,1.094,-3.558,3.604,-4.876,-8.838,-11.562
18.558,29.909,-0.122,-4.549,2.5,-6.859,-12.152,-14.555
19.089,31.487,1.481,-2.166,4.682,-5.168,-11.315,-13.672
22.048,36.389,5.862,2.506,9.803,-0.246,-6.602,-9.388
25.686,42.317,10.287,6.44,14.632,4.463,-1.642,-4.888
26.692,45.118,13.393,8.29,17.195,7.185,1.183,-1.822
25.593,44.291,14.791,7.803,17.361,7,1.105,-1.072
24.799,42.01,13.985,6.412,16.286,4.843,-0.325,-2.334
24.209,39.397,12.146,6.953,15.747,4.675,0.37,-2.451
22.244,36.153,11.305,9.15,15.985,7.298,4.07,0.487
19.785,33.415,11.692,10.787,16.096,9.684,8.33,4.499
19.122,33.576,11.853,12.153,15.726,11.262,10.055,6.802
19.99,36.19,11.002,13.788,14.86,13.104,7.846,6.933
21.311,38.878,11.847,15.771,15.829,15.85,7.313,9.663
23.894,42.032,17.955,20.272,22.268,21.005,16.695,20.191
25.828,44.994,24.699,25.186,29.549,25.473,28.355,29.68
21.98,42.474,22.554,22.638,27.239,21.748,24.739,23.049
13.68,34.127,13.361,13.746,17.187,12.302,9.944,7.189
9.446,27.935,8.933,9.758,12.298,8.538,4.992,2.964
12.162,27.696,12.402,13.267,15.545,12.189,12.12,10.992
15.446,29.019,16.211,15.751,18.436,14.979,16.759,16.266
15.703,29.215,17.626,13.831,18.428,14.102,17.345,16.778
16.97,29.99,20.941,12.301,20.455,13.522,22.707,20.364
19.605,30.605,24.353,12.387,22.932,13.58,28.957,24.337
17.609,27.772,21.054,10.638,19.211,11.534,25.684,21.13
11.49,22.358,14.14,8.567,12.402,10.144,17.65,15.428
7.356,17.338,12.115,8.907,10.551,11.577,15.888,14.661
4.345,11.707,12.411,6.253,10.393,8.42,16.006,12.515
-0.397,5.386,8.772,-2.115,5.605,-1.88,9.085,2.702
-3.97,1.539,4.495,-7.906,0.335,-8.408,-0.133,-6.719
-4.617,-0.165,3.914,-6.061,-0.487,-5.369,-3.264,-7.843
-4.632,-2.134,4.654,-1.452,0.455,0.444,-0.6,-3.796
-6.365,-4.815,3.46,0.486,-0.549,2.649,2.249,-0.864
-9.524,-8.248,1.105,-0.752,-2.859,1.415,1.563,-1.421
-11.317,-11.922,-0.296,-2.897,-4.259,-0.992,-1.125,-3.733
-11.372,-14.997,-1.578,-3.97,-5.163,-2.686,-2.341,-4.222
-12.334,-18.127,-3.658,-2.852,-6.256,-1.332,-1.169,-0.622
-15.243,-22.942,-5.539,-1.475,-7.466,1.215,-0.448,3.485
-19.233,-28.973,-8.69,-4.324,-11.226,-1.415,-4.621,0.734
-22.156,-31.885,-13.509,-9.64,-17.182,-7.82,-11.75,-7.409
-21.913,-29.782,-14.975,-10.392,-19.06,-9.184,-13.004,-10.074
-19.709,-27.666,-10.802,-6.522,-14.727,-4.864,-6.041,-3.957
-17.65,-28.066,-5.098,-2.908,-9.027,-0.846,1.729,3.38
-16.585,-27.706,-2.746,-0.766,-6.595,1.505,3.66,5.94
-18.482,-26.998,-6.26,-1.178,-9.391,1.714,-1.178,2.912
-23.641,-28.904,-13.367,-6.064,-15.667,-2.767,-8.844,-3.65
-28.174,-31.355,-17.687,-12.123,-19.991,-9.333,-12.996,-8.848
-29.041,-31.007,-15.452,-13.083,-18.602,-10.975,-10.169,-8.594
-26.688,-29.052,-8.916,-8.348,-13.074,-6.492,-3.278,-4.593
-22.939,-28.615,-3.299,-4.128,-8.079,-2.861,1.229,-2.359
-20.546,-30.252,-2.691,-5.159,-7.523,-5.304,-0.442,-4.645
-21.825,-32.145,-7.421,-9.222,-11.858,-10.519,-6.898,-9.003
-24.407,-32.561,-12.478,-10.597,-16.24,-11.75,-12.574,-10.65
-22.492,-30.721,-10.349,-6.576,-13.597,-7.216,-10.998,-7.066
-15.366,-27.101,0.028,0.225,-3.462,-1.385,-1.511,-0.506
-8.481,-23.423,10.893,6.392,6.792,2.59,9.328,5.266
-5.035,-21.356,16.024,11.099,11.742,6.194,15.745,8.883
-4.479,-21.758,16.666,13.353,12.4,9.167,17.879,10.479
-7.086,-24.599,15.118,11.356,10.597,8.085,17.765,9.887
-11.817,-27.986,11.21,5.854,6.386,2.536,15.332,6.721
-13.553,-28.566,7.336,0.767,2.099,-3.224,11.357,2.061
-9.399,-24.947,7.671,-0.055,1.642,-4.559,9.47,-0.657
-2.973,-19.637,11.435,3.454,4.93,-0.727,11.576,0.954
2.015,-16.146,14.619,7.484,8.45,4.56,14.335,4.527
4.673,-16.162,14.953,8.203,9.1,6.746,12.524,5.335
3.029,-19.473,11.823,5.286,5.863,4.647,6.231,2.534
-2.82,-23.522,6.799,1.895,0.98,1.204,1.209,0.131
-8.525,-25.876,2.517,-0.399,-2.78,-1.562,-0.476,-0.255
-12.411,-27.925,-0.542,-3.829,-5.416,-5.222,-1.923,-1.267
-16.472,-31.795,-2.77,-8.418,-7.381,-9.298,-3.323,-2.879
-20.435,-36.426,-3.854,-11.066,-8.395,-10.966,-3.305,-3.106
-20.94,-39.046,-3.362,-11.009,-8.427,-10.586,-3.204,-2.933
-17.39,-38.524,-1.696,-9.531,-7.577,-9.847,-3.058,-3.524
-15.725,-37.376,-1.279,-7.787,-7.071,-8.752,-1.257,-3.963
-19.573,-38.047,-2.734,-6.775,-7.483,-7.281,1.655,-3.027
-22.043,-37.653,-2.028,-5.623,-6.153,-4.954,4.633,0.131
-17.745,-33.344,1.916,-2.906,-2.298,-1.167,7.464,4.376
-13.023,-29.073,3.847,-0.68,-0.505,1.474,8.673,6.219
-13.254,-28.627,2.078,-0.847,-2.693,0.706,7.866,4.972
-14.551,-29.877,1.366,-0.668,-4.122,-0.182,8.255,4.616
-14.857,-31.413,2.744,1.21,-2.51,1.136,11.081,6.636
-17.975,-34.842,1.97,1.005,-1.819,0.414,12.221,6.755
-23.582,-38.535,-1.553,-2.428,-4.215,-4.417,9.122,2.873
-25.79,-38.115,-4.726,-4.789,-7.315,-8.206,4.77,-0.947
-21.977,-33.137,-5.964,-3.95,-8.791,-7.631,2.509,-1.696
-15.748,-27.328,-4.715,-1.695,-7.69,-5.009,2.643,-0.945
-12.285,-23.596,-1.815,1.075,-4.538,-2.248,3.643,-0.26
-12.393,-22.006,0.948,4.425,-0.915,0.525,4.465,0.969
-13.078,-22.165,2.956,6.496,1.767,1.762,4.995,2.575
-14.221,-24.416,2.336,4.648,1.238,-0.613,3.952,1.899
-17.314,-27.263,-2.39,-0.286,-3.187,-5.376,0.909,-2.177
-19.44,-28.134,-7.548,-4.231,-7.671,-8.602,-0.986,-6.184
-17.415,-27.156,-9.38,-5.205,-9.222,-8.754,-0.634,-7.172
-14.105,-26.3,-10.159,-5.284,-10.218,-8.39,-2.685,-7.596
-13.567,-26.256,-12.638,-6.072,-12.922,-9.211,-8.937,-10.311
-14.754,-26.293,-14.675,-5.997,-15.141,-9.218,-13.911,-13.374
-15.84,-26.904,-15.26,-5.494,-15.84,-8.827,-15.211,-15.163
-17.469,-28.833,-16.373,-7.276,-16.664,-11.019,-15.906,-16.743
-17.827,-29.115,-15.678,-8.28,-15.366,-12.308,-14.788,-16.185
-14.849,-25.656,-10.124,-4.35,-9.439,-8.285,-9.74,-11.661
-11.655,-22.39,-4.858,-0.521,-4.21,-4.264,-6.594,-8.294
-10.443,-21.476,-5.89,-2.248,-5.289,-5.503,-10.511,-11.045
-8.781,-18.939,-9.77,-5.28,-8.853,-7.784,-15.86,-15.785
-6.074,-13.851,-10.759,-4.498,-9.31,-6.576,-15.701,-16.011
-4.679,-11.054,-9.978,-1.414,-8.373,-3.44,-12.652,-12.509
-5.09,-11.903,-9.894,1.356,-8.846,-0.825,-11.504,-9.538
-5.991,-12.414,-9.445,3.276,-8.829,0.821,-11.037,-8.18
-8.362,-12.152,-9.439,2.773,-7.946,0.336,-10.283,-8.76
-15.326,-15.993,-14.141,-3.165,-10.899,-5.282,-14.054,-13.919
-24.912,-23.488,-23.127,-13.303,-18.817,-15.28,-24.162,-23.473
-29.896,-26.966,-29.269,-20.304,-24.959,-22.043,-32.89,-30.5
-30.4,-26.238,-30.535,-21.616,-26.533,-22.302,-35.207,-30.911
-33.727,-29.589,-32.5,-23.191,-28.867,-22.374,-35.334,-29.769
-38.981,-36.059,-35.394,-25.933,-32.373,-24.426,-35.056,-30.245
-38.837,-36.31,-34.049,-23.908,-31.419,-22.924,-32.017,-28.511
-33.279,-29.918,-28.261,-17.467,-25.389,-17.459,-27.002,-22.904
-27.111,-24.18,-21.391,-12.775,-18.321,-13.636,-21.956,-17.085
-22.422,-21.003,-15.682,-10.696,-12.955,-11.895,-17.989,-13.885
-20.679,-17.635,-12.721,-7.801,-10.12,-8.337,-16.074,-12.605
-21.178,-13.563,-12.143,-4.477,-8.788,-4.312,-15.05,-11.901
-18.263,-9.627,-10.433,-2.915,-6.236,-3.5,-12.088,-10.553
-10.918,-7.214,-6.225,-2.653,-2.358,-4.503,-7.601,-8.193
-7.42,-8.683,-4.411,-3.274,-1.519,-4.909,-6.529,-7.463
-11.406,-12.92,-7.733,-4.568,-4.79,-4.993,-9.717,-9.169
-15.899,-15.451,-11.014,-4.823,-7.221,-4.538,-11.499,-9.567
-16.635,-15.396,-11.237,-4.468,-7.36,-3.864,-10.777,-8.413
-15.943,-14.48,-11.394,-5.229,-8.153,-4.483,-11.642,-9.14
-13.042,-10.922,-11.445,-4.378,-8.406,-3.853,-13.554,-10.056
-5.688,-3.76,-8.153,0.57,-4.914,0.714,-12.34,-7.307
1.146,1.061,-3.057,4.806,-0.031,4.207,-8.221,-3.262
0.192,-1.67,-1.615,3.553,1.08,2.037,-6.485,-3.119
-6.721,-7.958,-5.083,-0.483,-1.675,-2.054,-9.217,-6.387
-11.104,-11.278,-8.998,-3.543,-4.009,-4.538,-11.969,-8.281
-9.329,-10.498,-9.518,-5.088,-3.569,-6.069,-10.783,-6.84
-5.443,-7.954,-7.47,-4.29,-1.365,-5.707,-6.401,-3.288
-4.567,-6.531,-5.836,-1.558,0.603,-3.071,-1.882,0.423
-6.434,-6.846,-4.861,0.741,1.836,-0.641,0.976,2.502
-7.024,-6.236,-2.799,2.235,3.28,0.6,2.191,2.751
-4.566,-3.403,-0.402,3.124,4.517,1.143,1.364,2.038
-0.726,-0.372,0.326,2.198,4.054,1.151,-0.846,1.116
0.917,0.247,-0.643,-0.625,1.69,0.853,-1.862,0.444
-2.679,-3.378,-3.07,-4.449,-2.249,-0.685,-2.19,-0.907
-10.91,-12.018,-8.19,-9.873,-8.331,-5.587,-6.129,-5.06
-19.671,-22.914,-15.366,-16.894,-15.624,-13.275,-14.262,-12.063
-24.806,-29.62,-20.626,-22.247,-20.392,-19.335,-20.709,-18.104
-26.33,-29.858,-23.418,-24.231,-22.098,-22.118,-22.731,-20.722
-26.972,-28.415,-27.279,-25.3,-24.523,-24.466,-25.439,-22.739
-25.565,-26.771,-29.177,-24.642,-25.648,-24.814,-28.633,-24.181
-19.086,-21.067,-22.686,-18.507,-19.403,-18.55,-24.163,-20.039
-10.724,-12.842,-13.225,-10.479,-10.309,-9.675,-14.921,-13.335
-6.937,-8.849,-11.921,-8.278,-8.929,-6.839,-13.511,-13.17
-8.087,-10.618,-17.384,-11.63,-14.212,-10.286,-19.402,-17.997
-8.015,-12.362,-19.044,-13.305,-16.024,-12.752,-21.223,-18.986
-3.274,-9.527,-14.121,-9.769,-11.577,-10.045,-17.311,-14.901
1.92,-4.696,-9.35,-4.409,-6.939,-4.898,-14.198,-10.326
2.965,-2.92,-8.89,-1.685,-5.974,-1.966,-13.242,-7.418
0.222,-6.257,-11.467,-3.519,-8.223,-3.747,-13.323,-7.138
-3.115,-12.365,-14.625,-8.186,-11.894,-8.339,-14.601,-9.087
-3.666,-15.93,-15.371,-11.047,-13.646,-10.668,-14.08,-9.288
-2.551,-15.622,-13.702,-11.595,-12.809,-10.897,-11.127,-7.513
-3.742,-15.731,-12.693,-13.657,-12.415,-13.677,-10.932,-8.889
-4.348,-16.501,-10.993,-15.457,-11.764,-16.366,-13.107,-12.145
1.137,-13.613,-5.854,-12.135,-8.222,-12.707,-11.718,-10.701
6.661,-10.132,-2.622,-7.362,-6.054,-6.713,-8.692,-6.264
2.409,-13.119,-7.065,-7.862,-10.278,-6.317,-10.299,-5.558
-5.919,-18.601,-13.267,-11.148,-15.796,-9.462,-14.497,-7.875
-5.06,-16.835,-12.713,-10.766,-15.165,-9.822,-15.715,-8.312
3.786,-9.093,-7.366,-7.267,-10.348,-7.503,-14.822,-6.813
8.326,-5.263,-4.299,-6.164,-7.767,-6.78,-15.278,-6.674
5.541,-7.95,-4.969,-8.49,-8.312,-8.634,-16.295,-8.506
3.391,-10.05,-5.552,-9.449,-8.183,-9.366,-14.945,-9.448
4.916,-7.389,-4.18,-6.93,-6.083,-6.901,-11.272,-7.48
5.829,-3.849,-2.864,-4.437,-4.457,-4.139,-8.227,-4.139
5.509,-3.204,-3.29,-4.54,-4.982,-4.108,-8.017,-2.674
6.768,-4.863,-5.23,-6.558,-7.172,-6.804,-10.845,-4.848
8.619,-7.62,-7.384,-9.381,-9.528,-10.537,-15.205,-8.898
7.842,-10.485,-7.919,-11.211,-10.096,-12.581,-17.529,-10.572
4.012,-11.678,-6.96,-10.675,-8.694,-11.76,-15.639,-8.625
-0.24,-10.687,-7.337,-10.31,-8.249,-11.205,-13.663,-7.91
-2.405,-8.554,-10.305,-12.612,-10.95,-13.108,-16.692,-11.799
-2.483,-6.256,-12.624,-14.475,-14.06,-14.074,-20.249,-14.694
-2.599,-5.585,-12.02,-13.456,-14.477,-12.47,-17.582,-11.774
-4.691,-8.41,-12.404,-13.613,-14.906,-12.701,-14.64,-9.606
-6.916,-12.419,-15.591,-16.485,-16.964,-15.526,-18.477,-13.369
-4.213,-11.959,-14.775,-15.07,-14.651,-14.016,-20.159,-14.421
3.809,-5.898,-6.247,-5.406,-5.01,-4.997,-10.526,-5.507
10.616,0.172,2.768,5.471,4.579,4.939,2.271,5.426
11.765,1.719,5.297,9.802,7.215,8.96,7.083,8.601
9.582,-0.327,2.595,7.511,4.047,6.684,4.606,5.481
8.417,-2.967,-1.305,2.533,-0.848,1.399,0.324,2.264
8.724,-4.795,-4.559,-1.602,-4.911,-2.806,-3.762,0.829
6.667,-6.506,-7.019,-3.923,-7.357,-4.545,-7.677,-0.968
2.628,-7.725,-7.951,-5.471,-7.975,-5.973,-10.467,-3.602
2.446,-7.223,-6.433,-6.786,-6.855,-8.031,-11.294,-4.643
5.719,-7.193,-4.569,-8.042,-6.086,-9.494,-11.814,-4.037
7.149,-9.102,-4.651,-8.598,-7.022,-9.013,-13.36,-4.151
6.834,-9.796,-5.359,-7.665,-7.817,-6.744,-14.281,-5.124
5.324,-9.555,-7.131,-8.154,-9.139,-6.575,-14.787,-6.598
0.209,-12.77,-11.767,-12.374,-13.233,-10.695,-17.135,-9.483
-5.042,-17.524,-15.058,-16.073,-16.328,-14.351,-19.847,-12.76
-4.33,-18.094,-12.875,-15.752,-14.326,-14.012,-20.849,-14.398
0.08,-15.055,-8.656,-13.844,-10.035,-12.052,-20.933,-14.106
2.177,-13.075,-6.78,-12.933,-7.51,-11.049,-20.424,-12.688
1.466,-13.767,-7.13,-13.264,-7.511,-11.898,-19.294,-11.814
1.654,-14.575,-7.338,-13.697,-8.643,-13.64,-18.365,-12.986
4.282,-13.078,-6.821,-13.242,-9.587,-14.36,-18.568,-15.928
5.773,-11.327,-8.644,-14.09,-11.644,-15.655,-20.458,-19.403
3.958,-11.369,-13.324,-16.965,-15.247,-18.391,-22.298,-21.261
3.464,-9.95,-15.078,-16.815,-16.328,-17.474,-21.783,-19.446
7.533,-5.214,-11.155,-12.029,-12.913,-11.602,-20.156,-15.611
13.52,-0.208,-5.801,-7.99,-8.421,-7.251,-19.011,-13.113
19.559,4.594,-1.497,-6.038,-4.729,-5.968,-16.689,-11.511
25.471,11.066,3.27,-1.945,-0.553,-2.436,-12.171,-8.589
29.611,16.98,7.722,3.864,3.416,3.162,-7.63,-5.247
30.602,18.665,8.479,6.243,4.615,4.779,-5.353,-3.917
29.356,16.401,5.626,3.898,3.105,1.309,-4.9,-4.495
29.988,15.095,4.526,1.696,2.802,-1.17,-3.586,-3.85
37.403,20.718,9.565,5.022,7.591,2.477,0.81,0.951
48.555,31.385,17.929,12.228,15.893,9.209,7.633,8.313
53.001,37.058,23.046,15.72,21.55,11.676,13.606,12.767
47.914,33.635,22.602,12.241,21.198,8.05,15.047,11.162
40.948,27.191,19.051,6.37,16.865,2.88,10.89,5.752
37.268,23.244,15.39,3.505,12.322,0.621,5.052,1.115
36.214,22.054,14.486,4.209,11.01,1.701,3.758,0.166
37.364,22.771,18.227,6.028,14.569,3.625,8.852,2.867
40.193,24.881,23.984,7.902,20.306,5.173,15.381,6.885
41.515,26.418,26.31,9.712,23.282,6.726,17.132,9.1
39.407,25.397,23.805,9.641,22.017,6.732,13.665,7.707
36.546,22.729,20.611,6.985,19.73,4.139,9.932,3.835
35.163,20.459,19.906,4.446,19.245,1.744,9.176,0.766
33.097,18.662,19.061,3.284,18.576,0.929,8.944,-0.015
29.597,16.781,15.21,1.78,15.007,-0.515,6.055,-0.386
27.442,15.061,11.562,0.24,11.232,-2.373,3.023,-1.045
26.616,13.867,11.799,1.346,11.524,-1.469,4.692,0.504
24.748,13.54,13.805,5.112,14.831,2.169,10.117,4.669
22.064,13.439,14.298,7.908,17.163,4.53,14.047,7.88
19.641,11.709,13.546,7.458,17.369,3.631,14.604,8.132
16.943,7.924,12.767,4.899,16.678,0.899,13.553,6.543
14.305,4.699,12.403,2.368,16.314,-2.166,12.387,4.554
13.203,4.577,12.32,2.095,16.563,-3.426,11.517,3.867
13.215,6.083,10.963,4.183,15.776,-1.603,9.918,4.633
13.657,6.516,7.983,5.388,12.974,0.268,6.669,4.352
15.525,6.56,5.88,4.553,10.343,-0.031,3.986,2.949
17.36,7.725,5.058,4.231,9.005,-0.006,3.869,3.537
15.434,9.436,2.617,5.125,6.624,1.912,2.776,5.861
12.139,12.25,-0.263,6.499,3.847,4.841,-2.073,6.958
14.322,17.572,1.97,9.383,5.54,8.671,-5.511,7.31
20.064,21.762,8.038,12.109,10.541,11.184,-4.316,7.562
20.92,20.072,10.239,10.799,11.672,9.061,-3.91,5.356
17.722,16.749,8.699,8.476,9.353,6.472,-5.838,2.789
19.424,19.768,11.859,11.786,11.939,10.51,-2.937,6.289
26.193,26.601,19.822,17.86,19.615,16.981,5.455,13.613
27.212,27.379,20.842,17.361,21.295,15.409,8.023,13.643
19.184,21.558,11.632,10.086,13.412,6.765,-0.263,4.123
11.573,17.322,3.66,4.026,5.907,0.596,-9.646,-4.744
9.636,16.854,2.496,1.633,4.33,-1.036,-12.245,-7.289
10.159,17.336,3.055,0.586,4.769,-1.524,-10.636,-7.081
11.711,19.468,3.878,1.658,5.494,-0.109,-8.397,-6.512
14.366,22.949,6.31,4.735,7.294,3.173,-6.689,-5.695
15.44,23.091,7.272,5.251,7.692,3.197,-7.394,-6.584
13.217,18.687,4.573,1.45,4.816,-1.723,-10.355,-9.668
9.08,13.79,0.662,-3.035,0.757,-7.05,-12.759,-12.543
4.708,9.921,-2.785,-6.299,-2.886,-10.213,-14.358,-14.327
1.926,6.354,-5.362,-8.652,-5.715,-11.39,-16.072,-15.327
1.006,4.051,-6.127,-9.162,-6.88,-10.117,-16.704,-15.266
-1.729,1.532,-7.315,-9.978,-8.339,-9.866,-16.933,-16.085
-6.403,-2.581,-9.963,-13.394,-10.976,-13.705,-17.153,-18.07
-6.294,-2.739,-8.212,-13.561,-9.197,-14.561,-12.598,-15.232
-0.23,4.447,-0.783,-6.63,-1.521,-7.45,-3.262,-6.2
4.068,12.197,4.203,-0.153,4.109,-0.695,1.487,0.024
3.064,13.789,3.347,-0.503,3.421,-1.462,-2.301,-2.078
0.817,10.897,0.713,-3.982,0.438,-5.333,-7.903,-7.414
-0.173,8.384,-1.642,-5.467,-1.312,-6.144,-9.695,-9.972
-0.993,7.698,-4.377,-6.522,-2.585,-6.154,-9.899,-10.897
-1.701,7.923,-7.591,-10.818,-5.249,-10.745,-13.483,-14.732
-1.539,9.526,-10.062,-15.643,-8.129,-17.009,-18.945,-20.55
-1.302,12.9,-9.914,-15.19,-7.739,-17.235,-19.443,-22.451
-2.19,16.064,-7.621,-10.442,-4.311,-11.915,-14.984,-19.231
-2.933,17.661,-5.316,-7.561,-1.485,-8.825,-12.32,-16.072
-0.449,19.11,-2.475,-7.784,0.555,-10.027,-11.647,-15.366
4.468,21.814,1.881,-6.542,4.113,-9.34,-7.346,-13.416
6.481,25.036,5.061,-2.112,7.815,-4.2,-1.105,-8.522
4.166,27.206,4.296,1.805,8.173,-0.011,-0.913,-4.879
2.253,27.107,0.801,2.263,4.921,-0.214,-7.789,-5.608
2.544,23.987,-2.674,0.367,0.942,-1.887,-13.574,-8.068
1.086,19.22,-4.851,-1.537,-1.246,-2.386,-12.615,-8.355
-3.201,16.346,-5.497,-2.802,-1.541,-2.954,-8.505,-6.674
-5.492,16.799,-4.182,-3.822,-0.8,-4.669,-6.297,-5.513
-3.899,17.897,-1.087,-3.697,1.039,-5.198,-5.06,-5.063
-2.779,17.128,1.419,-1.483,3.338,-2.659,-2.821,-4.232
-4.309,15.095,0.643,0.131,3.685,-0.585,-1.81,-4.168
-6.826,12.6,-3.118,-2.618,0.753,-3.352,-4.689,-6.891
-10.364,9.562,-7.596,-8.143,-3.781,-8.362,-10.027,-11.355
-15.104,6.657,-11.539,-12.09,-7.495,-11.037,-14.06,-14.538
-18.46,5.256,-13.65,-13.03,-8.838,-11.76,-14.52,-14.867
-17.471,6.744,-11.434,-10.429,-6.348,-10.512,-11.028,-11.656
-12.271,9.858,-5.96,-5.442,-1.108,-6.516,-5.7,-6.025
-7.36,10.474,-3.445,-3.384,1.689,-3.953,-3.432,-2.707
-7.535,7.463,-7.093,-6.273,-1.008,-5.728,-6.126,-4.285
-11.502,4.285,-12.431,-9.375,-5.698,-8.179,-9.308,-6.882
-14.125,3.161,-14.562,-10.297,-8.191,-9.034,-9.446,-7.302
-14.643,2.195,-14.505,-12.166,-9.145,-10.921,-9.236,-8.228
-15.422,-0.121,-14.766,-15.764,-10.342,-14.077,-11.74,-11.454
-16.466,-1.96,-15.059,-17.869,-11.343,-15.174,-15.779,-13.976
-17.497,-1.537,-14.524,-17.107,-11.397,-13.383,-17.972,-13.633
-18.381,0.892,-13.341,-14.169,-10.244,-10.008,-16.212,-11.601
-17.086,3.95,-12.299,-10.57,-8.65,-6.981,-13.258,-10.56
-13.321,5.894,-11.171,-9.245,-7.86,-7.25,-12.908,-12.61
-10.079,6.341,-9.039,-10.518,-7.446,-9.805,-13.215,-16.174
-9.307,6.118,-7.631,-11.961,-7.304,-10.97,-12.117,-18.339
-9.925,5.421,-8.905,-13.365,-8.77,-11.525,-13.113,-19.569
-10.002,5.003,-10.225,-14.481,-10.688,-12.502,-16.683,-20.361
-8.887,6.186,-8.368,-12.879,-10.001,-11.083,-16.718,-18.565
-7.945,6.706,-5.592,-9.623,-7.713,-7.794,-11.991,-14.552
-9.233,2.275,-6.452,-9.272,-8.279,-7.358,-9.639,-12.264
-12.245,-5.583,-10.732,-12.194,-12.617,-10.038,-13.694,-13.607
-14.189,-10.235,-14.586,-14.053,-17.197,-11.17,-19.535,-16.109
-13.989,-9.087,-16.543,-12.451,-19.207,-8.703,-20.417,-15.568
-12.363,-6.055,-16.84,-9.446,-18.265,-5.537,-15.21,-10.891
-9.34,-4.635,-14.529,-7.599,-15.042,-4.446,-9.324,-5.919
-5.898,-3.659,-9.717,-6.155,-10.757,-3.845,-6.917,-3.76
-6.046,-2.748,-5.639,-5.095,-7.589,-3.091,-6.593,-3.799
-11.971,-5.019,-5.513,-7.727,-7.7,-5.95,-6.666,-5.456
-18.417,-9.489,-7.35,-12.136,-9.22,-10.571,-5.683,-6.665
-19.46,-10.673,-6.55,-11.762,-7.85,-9.677,-1.132,-3.637
-18.043,-8.064,-3.851,-7.515,-4.408,-4.402,4.626,1.6
-20.085,-6.26,-3.713,-5.703,-3.586,-1.793,5.366,3.086
-25.662,-8.451,-7.462,-8.751,-7.23,-4.264,0.063,-0.35
-31.565,-14.309,-12.923,-15.478,-13.678,-10.634,-6.599,-5.932
-34.857,-19.983,-17.336,-22.69,-19.865,-17.95,-11.206,-11.196
-34.399,-21.567,-19.645,-25.867,-23.252,-21.325,-14.027,-14.31
-32.682,-19.446,-20.372,-23.301,-23.333,-18.605,-15.22,-14.26
-31.742,-15.996,-18.802,-17.786,-20.624,-12.841,-12.877,-11.436
-29.59,-12.142,-13.965,-12.642,-15.887,-7.435,-6.707,-7.017
-26.287,-9.142,-9.131,-9.519,-11.855,-3.718,-0.703,-2.872
-26.384,-9.692,-9.57,-10.603,-12.444,-4.515,0.016,-2.32
-30.625,-13.947,-14.639,-16.067,-17.327,-10.591,-4.926,-6.76
-34.687,-17.955,-18.782,-20.889,-21.679,-15.665,-10.724,-12.493
-36.778,-18.09,-19.953,-21.449,-23.115,-15.248,-14.332,-16.097
-38.015,-14.504,-19.966,-19.694,-22.966,-12.446,-16.355,-17.923
-38.444,-10.472,-19.681,-18.033,-22.15,-10.534,-16.18,-17.986
-38.039,-9.112,-19.336,-16.76,-21.327,-9.503,-13.737,-16.334
-38.412,-10.525,-19.719,-16.082,-21.636,-9.511,-12.523,-15.934
-40.34,-12.355,-20.499,-16.165,-22.296,-10.862,-13.364,-18.051
-41.947,-12.697,-20.799,-16.427,-21.976,-12.103,-13.47,-20.025
-41.183,-11.88,-21.185,-16.676,-22.009,-11.96,-13.564,-20.89
-37.961,-10.527,-21.603,-16.53,-22.973,-10.575,-14.862,-21.19
-34.048,-8.636,-20.606,-15.505,-22.668,-9.056,-14.596,-20.067
-32.666,-8.045,-19.421,-15.481,-21.488,-9.817,-12.273,-18.331
-35.643,-10.621,-20.914,-17.895,-22.586,-13.04,-11.054,-17.84
-39.831,-14.584,-24.098,-20.531,-25.825,-15.293,-11.714,-18.334
-39.801,-16.5,-24.977,-20.913,-27.287,-14.853,-11.664,-18.456
-35.07,-14.875,-22.133,-18.906,-24.61,-12.824,-8.598,-16.537
-31.367,-12.061,-19.632,-16.943,-21.303,-11.283,-4.942,-13.259
-32.163,-11.754,-22.221,-17.664,-22.666,-12.253,-5.781,-12.32
-33.772,-12.734,-27.206,-18.864,-26.601,-13.867,-9.157,-13.237
-32.853,-11.071,-27.826,-16.426,-26.467,-12.137,-8.155,-11.334
-30.821,-7.434,-23.75,-11.108,-22.054,-7.541,-2.863,-6.475
-28.641,-4.527,-19.675,-6.132,-17.987,-3.351,1.66,-2.42
-26.319,-2.933,-17.406,-3.495,-15.672,-1.695,3.887,-0.789
-25.612,-3.428,-15.266,-3.949,-13.569,-3.07,5.423,-0.461
-26.319,-5.777,-11.52,-4.612,-10.474,-3.837,8.455,1.266
-25.495,-6.949,-7.784,-2.081,-7.558,-0.378,11.879,4.739
-23.467,-5.88,-7.532,1.336,-7.372,3.871,10.881,6.067
-23.299,-4.542,-8.902,2.907,-8.176,5.557,7.158,4.96
-24.229,-3.321,-6.941,4.359,-5.656,7.213,8.618,6.19
-22.972,-1.922,-2.782,5.952,-1.221,9.637,14.814,10.014
-19.518,-1.848,-0.129,5.662,1.002,10.357,18.044,12.412
-15.584,-1.94,2.531,5.581,2.273,10.742,17.214,13.385
-11.594,0.805,6.447,8.263,4.683,13.259,16.281,14.521
-9.157,3.533,7.46,9.423,5.068,14.175,14.46,13.209
-10.639,2.229,3.674,5.421,1.364,10.106,9.556,8.088
-14.295,0.092,-0.916,1.061,-3.147,6.103,3.897,3.28
-15.324,1.087,-2.794,1.409,-5.205,7.555,0.869,2.189
-12.456,3.605,-1.894,4.109,-4.577,11.027,1.246,3.523
-7.835,5.913,0.821,5.6,-2.124,11.685,3.945,5.243
-2.385,9.396,4.793,7.646,1.577,12.419,8.132,7.938
1.581,13.278,7.668,10.431,4.453,15.005,12.141,10.905
1.145,14.334,6.634,8.797,3.851,13.695,12.336,10.279
0.611,14.221,4.764,4.106,2.252,9.034,9.232,6.875
4.261,16.134,6.149,4.038,3.472,9.224,8.005,5.906
5.884,15.422,6.287,6.23,3.666,11.892,8.414,5.719
0.131,7.148,0.378,2.36,-1.65,7.767,6.196,0.84
-7.125,-2.471,-6.057,-3.902,-7.291,0.538,3.45,-5.334
-8.372,-4.09,-6.116,-2.571,-6.456,1.304,5.063,-5.08
-4.544,1.377,-1.773,4.679,-1.394,8.858,9.66,0.466
-1.177,6.031,1.789,8.67,1.897,13.301,12.635,4.118
0.67,7.403,3.91,9.204,2.928,13.905,13.196,4.524
4.165,9.759,7.101,13.18,5.408,17.793,14.682,6.53
8.826,13.953,12.125,20,10.057,24.274,19.035,11.488
10.976,15.453,16.707,23.099,13.766,26.529,23.437,15.59
11.616,14.083,19.421,23.049,15.863,25.631,25.877,18.129
13.947,13.436,20.495,23.667,17.507,25.83,27.16,20.742
14.853,10.63,18.136,21.337,15.667,23.671,24.613,20.135
9.072,0.704,11.033,12.542,7.711,16.12,15.899,13.399
-0.543,-11.374,2.916,2.914,-1.724,8.303,6.632,5.407
-5.56,-15.431,-0.708,0,-5.786,5.928,3.822,2.787
-3.271,-9.974,1.965,4.46,-2.676,9.132,7.829,6.166
2.502,-1.706,8.059,11.566,4.296,14.743,14.26,10.972
9.402,5.309,13.164,16.818,10.54,19.342,18.592,12.564
16.698,10.777,15.105,18.683,13.589,21.171,19.054,10.577
21.616,13.421,14.611,17.942,13.903,20.775,17.036,8.328
23.819,13.537,14.278,16.462,13.855,19.777,15.686,8.428
28.079,15.005,17.094,16.517,16.304,19.708,18.372,11.102
35.933,19.68,23.23,19.089,21.909,21.317,25.503,15.356
42.975,25.001,29.529,22.589,27.806,23.858,32.598,19.623
46.06,27.356,32.691,24.001,30.28,25.06,34.654,22.131
45.094,25.148,30.936,21.822,28.058,23.369,31.849,22.011
42.751,21.629,26.515,18.452,24.22,20.643,29.077,20.707
43.212,21.269,25.528,17.752,23.828,20.245,30.23,21.222
46.165,22.761,30.024,20.264,27.942,22.713,34.67,24.748
48.817,23.783,35.866,24.164,33.549,26.367,39.503,29.636
52.157,26.958,39.959,28.918,38.399,30.982,43.006,34.567
57.343,33.382,43.347,34.423,42.425,36.941,46.15,40.337
61.483,38.764,47.178,39.223,46.016,42.416,50.472,46.88
61.379,39.245,48.613,40.986,47.412,44.33,53.234,50.227
57.7,35.037,44.68,37.8,44.171,40.83,49.959,46.343
53.842,29.192,39.199,31.663,38.829,34.217,43.326,38.953
51.119,24.939,37.306,28.528,36.211,30.722,40.397,36.602
48.075,23.008,36.782,30.619,35.692,32.813,41.049,39.96
44.994,22.006,34.085,33.412,34.235,35.578,40.291,41.383
43.361,20.696,31.361,33.053,32.493,34.84,38.39,37.524
42.972,19.374,31.348,31.422,32.207,33.056,38.34,32.997
43.56,19.212,32.951,31.374,32.947,33.355,39.129,31.424
45.038,20.059,34.763,32.18,34.114,34.367,39.295,31.31
47.363,22.217,38.154,33.725,37.189,35.693,41.758,32.479
52.759,28.917,45.107,39.017,44.29,40.388,49.422,37.901
61.798,39.263,54.397,47.239,54.133,47.411,59.25,46.136
67.635,44.018,60.495,51.45,60.535,50.428,64.635,50.115
64.234,38.38,59.109,48.809,58.896,47.917,63.362,47.221
57.163,30.494,53.881,46.1,53.327,46.581,60.446,44.305
54.722,28.908,51.672,49.445,51.352,50.872,61.724,48.662
54.95,31.131,52.646,55.387,53.274,56.412,66.879,58.562
51.876,30.781,51.943,57.704,53.371,58.071,70.182,66.437
46.184,27.353,48.141,55.84,49.343,56.425,67.569,68.409
41.365,23.56,43.285,52.169,43.742,53.259,61.351,67.038
37.434,20.264,38.818,48.836,38.856,50.133,56.782,66.147
34.425,18.23,36.211,48.479,35.929,50.419,55.988,66.405
35.041,19.175,36.755,51.044,35.808,54.253,56.765,66.339
39.685,22.226,39.485,52.56,37.433,56.485,56.301,65.142
43.716,23.419,41.627,50.107,37.94,53.728,53.472,62.136
43.625,21.569,41.281,44.424,35.674,47.626,48.491,56.091
42.075,20.445,39.803,38.627,32.758,41.648,44.035,48.488
42.16,22.083,38.683,35.414,31.345,38.236,42.506,43.23
42.927,24.515,36.939,34.884,30.083,37.97,41.548,41.275
43.593,26.548,34.951,35.475,28.36,39.321,39.14,40.355
44.037,27.364,33.872,35.195,27.305,39.372,37.551,38.801
43.19,25.886,33.404,33.921,27.248,38.257,38.392,37.284
42.283,24.668,35.232,35.191,29.845,40.324,41.952,38.607
43.681,26.985,40.92,40.645,36.285,46.141,48.72,44.193
45.646,30.429,46.487,45.738,42.479,50.121,55.936,50.854
44.713,30.59,47.203,46.527,43.558,49.699,58.831,54.472
42.047,28.593,44.904,45.683,41.348,48.731,57.767,55.168
40.861,28.356,43.904,46.845,40.801,49.68,57.724,55.588
40.129,30.01,43.684,48.991,41.763,50.608,59.815,56.645
37.691,31.744,42.138,50.879,41.336,51.617,60.71,58.116
35.185,32.866,40.883,53.383,40.362,54.761,59.958,60.168
34.618,32.351,41.202,54.932,40.409,57.392,59.521,61.545
34.469,29.392,40.502,53.314,39.727,56.085,58.896,60.441
32.401,25.092,37.607,50.88,37.366,53.78,57.18,57.818
27.712,20.617,34.079,49.37,34.257,52.627,54.348,54.681
20.647,15.875,29.519,45.946,29.874,48.998,49.55,50.11
14.047,12.063,24.396,41.266,25.17,43.727,44.268,46.189
11.481,11.627,22.478,40.177,23.729,42.728,42.686,46.455
11.358,13.724,24.236,41.804,25.613,44.953,45.538,49.221
10.5,14.093,25.321,40.463,26.568,43.876,48.735,49.791
10.008,11.023,23.662,35.67,24.7,39.186,49.047,47.185
11.203,8.378,21.979,33.018,22.873,36.846,47.826,44.961
12.673,10.36,22.242,34.988,23.004,38.732,47.204,45.296
13.757,15.505,22.452,37.636,22.916,40.788,45.868,45.737
16.261,20.287,22.019,38.856,22.083,42.033,43.447,45.237
20.967,24.066,23.588,40.82,23.06,44.75,42.723,45.975
23.885,25.678,25.298,41.765,23.848,46.088,42.058,45.868
22.293,24.689,23.229,39.104,21.093,43.488,38.261,42.19
21.194,25.65,21.488,38.153,19.644,42.876,36.544,40.344
24.119,29.572,24.853,42.467,24.131,47.312,41.142,44.181
27.097,30.497,29.539,46.333,29.88,50.563,45.891,48.045
27.624,27.733,31.685,46.347,32.204,49.561,45.766,47.639
27.169,26.785,32.449,45.66,32.437,47.994,43.863,45.518
26.116,28,32.452,45.95,32.475,48.217,43.505,44.57
24.693,27.685,31.39,46.163,32.514,49.286,44.142,44.985
23.844,26.068,30.713,45.727,32.862,49.357,44.741,45.631
22.924,24.913,31.288,44.383,33.516,47.239,45.388,45.458
20.978,23.202,31.969,42.31,33.87,43.96,46.101,44.903
19.189,20.832,32.359,41.375,34.381,42.429,46.872,45.451
18.981,20.511,33.483,43.616,36.114,44.467,48.246,47.575
19.366,23.184,34.953,48.047,38.25,48.554,50.015,50.002
19.259,26.774,35.124,51.126,38.933,51.23,50.353,51.04
19.822,28.905,34.493,50.098,38.222,49.767,48.276,49.977
21.308,28.026,34.904,44.882,37.333,43.858,45.338,46.982
22.601,25.852,36.392,39.287,36.754,37.876,43.549,43.601
24.927,27.179,37.924,38.725,36.803,38.474,42.981,42.822
29.59,32.562,39.255,43.281,37.55,45.474,42.462,45.281
34.275,36.929,40.657,47.613,38.442,51.005,41.977,47.682
37.064,38.204,42.425,49.279,39.591,51.444,42.311,47.809
39.235,39.732,44.251,50.305,41.254,51.136,42.851,47.159
40.391,42.449,43.785,50.448,41.295,51.702,41.681,46.759
37.822,42.734,39.21,47.293,37.497,49.654,37.912,45.505
32.813,39.828,33.825,42.812,32.565,45.638,33.815,43.857
30.295,37.037,32.161,41.068,30.7,43.642,32.415,43.442
32.672,36.062,33.467,41.184,31.069,43.033,32.93,43.202
38.243,36.919,34.732,40.517,30.953,41.568,33.005,41.421
42.72,38.965,35.468,39.748,30.594,40.438,33.01,39.213
42.63,39.14,35.395,38.498,29.942,39.155,33.124,37.355
39.726,35.563,32.84,33.747,26.943,34.124,30.872,33.819
38.602,32.141,29.044,27.202,22.765,26.941,26.292,28.828
41.261,33.908,29.568,25.762,22.833,25.077,24.558,27.429
47.278,39.58,36.588,31.092,28.864,30.341,28.549,31.691
54.496,43.382,43.64,35.853,34.703,34.568,33.061,35.563
59.118,43.405,44.526,34.83,34.934,32.727,32.762,34.427
59.457,42.943,42.167,32.361,32.593,30.464,30.968,32.596
58.341,44.312,42.696,33.49,33.551,32.35,33.474,34.767
60.249,47.416,47.513,37.216,38.927,36.015,39.992,39.605
65.766,51.208,53.684,40.303,45.207,38.528,46.113,43.808
70.114,53.253,57.338,40.725,48.261,38.466,48.754,45.218
69.191,52.36,57.006,39.518,47.577,36.661,48.447,44.325
64.696,50.532,54.661,39.677,46.125,36.071,47.191,43.524
61.688,50.189,53.288,41.696,46.177,37.416,45.912,43.708
62.836,51.692,54.621,43.597,48.03,39.249,45.947,45.125
66.755,54.168,57.992,44.531,51.008,41.261,48.385,48.287
70.827,57.175,60.595,45.074,53.445,43.179,51.175,51.183
72.021,59.096,60.081,44.614,53.396,42.819,51.425,50.542
67.372,56.618,55.879,41.611,49.926,38.62,48.256,45.817
58.635,50.341,49.431,38.099,44.655,34.072,42.899,40.048
51.95,45.706,44.273,38.476,41.186,34.325,38.114,36.979
49.76,44.726,42.469,41.482,40.59,37.433,35.57,36.686
49.946,44.636,42.986,41.874,41.052,37.618,35.385,36.681
51.423,44.454,44.158,39.32,41.464,34.952,36.874,36.389
52.514,44.26,44.082,37.016,40.999,32.95,37.218,36.208
50.788,42.974,42.971,36.397,40.112,32.484,35.401,36.112
48.293,41.473,44.105,37.581,41.508,32.624,34.894,36.911
47.872,41.183,46.816,39.811,44.442,32.755,36.557,38.459
48.315,41.553,46.888,42.261,44.965,33.805,37.37,39.37
47.286,41.644,44.06,44.203,42.522,36.03,36.467,39.111
42.775,39.607,39.382,42.59,37.953,35.629,34.066,36.81
34.872,33.883,32.687,35.315,31.09,29.659,29.81,32.198
27.302,26.468,26.257,25.752,23.946,21.143,24.889,27.776
23.276,20.662,22.898,19.124,19.622,15.291,21.341,25.919
23.024,17.777,22.847,17.505,19.125,14.425,20.157,26.26
24.642,17.14,24.168,19.248,20.488,16.593,19.696,26.349
25.513,17.716,24.521,22.012,20.895,19.185,17.815,24.853
24.823,19.205,23.881,24.515,20.127,21.76,15.737,23.471
23.974,20.584,23.763,24.573,19.467,22.639,15.156,23.068
24.302,19.728,24.548,20.872,19.13,19.859,14.835,22.069
24.889,16.141,25.106,16.146,18.439,15.65,12.637,19.819
23.963,12.296,24.075,13.758,16.965,13.365,8.186,17.123
21.705,10.474,21.408,13.645,15.26,13.112,3.375,14.514
19.315,9.875,18.776,14.159,14.47,13.386,1.06,12.461
18.211,10.142,18.717,15.786,15.889,14.26,3.175,12.351
19.703,13.102,21.606,19.621,19.515,16.581,8.258,14.709
21.392,16.02,22.8,21.721,21.326,17.478,10.48,15.743
18.041,11.561,17.027,15.308,16.117,11.47,4.516,10.138
9.677,0.141,7.07,2.35,6.158,0.019,-6.302,0.106
2.375,-8.396,1.759,-5.953,0.407,-7.545,-11.814,-5.48
0.022,-8.838,4.649,-3.78,3.036,-6.012,-7.624,-3.059
2.671,-4.773,12.508,4.191,11.017,1.122,1.836,3.431
8.996,0.231,21.569,11.784,20.359,8.358,11.579,10.228
14.792,4.979,27.429,16.172,26.6,12.517,18.325,15.17
14.982,7.345,24.829,15.298,24.606,11.75,17.404,14.918
9.869,5.561,14.204,8.205,14.572,5.334,6.914,7.9
4.394,0.974,3.877,-0.782,4.53,-3.382,-4.642,-0.306
0.708,-3.343,0.7,-5.289,1.598,-8.661,-6.808,-2.264
-2.211,-5.91,2.339,-5.271,3.774,-9.631,-2.909,0.497
-3.23,-6.914,3.493,-4.588,5.76,-9.324,-1.76,1.873
-0.834,-5.692,4.626,-3.005,7.667,-7.666,-1.074,2.749
2.578,-1.958,7.835,1.138,10.949,-3.374,3.73,6.485
3.691,1.683,9.874,5.302,12.266,1.021,6.993,9.553
1.395,2.237,6.758,5.964,8.512,2.11,3.081,7.38
-5.188,-1.219,-0.429,1.931,1.531,-1.405,-4.218,1.869
-14.034,-7.109,-7.542,-5.974,-4.894,-8.967,-8.912,-2.77
-19.427,-11.962,-11.211,-14.161,-8.289,-17.029,-9.803,-5.178
-20.564,-14.169,-11.243,-18.697,-8.637,-21.548,-9.245,-6.428
-20.874,-14.422,-9.461,-18.904,-7.274,-21.952,-8.973,-7.505
-19.751,-12.487,-7.163,-16.152,-5.099,-19.521,-8.947,-8.434
-15.998,-8.967,-5.416,-12.352,-3.095,-15.802,-9.18,-9.33
-13.604,-7.321,-5.546,-10.475,-2.951,-14.099,-10.637,-10.749
-15.875,-9.509,-8.255,-12.535,-5.91,-16.963,-14.827,-13.537
-19.998,-13.673,-12.805,-17.279,-11.313,-22.241,-21.404,-18.121
-22.969,-18.093,-17.561,-22.878,-17.067,-27.052,-27.084,-23.378
-24.943,-21.812,-20.929,-28.294,-20.944,-31.152,-29.487,-27.065
-24.51,-22.503,-21.728,-30.73,-21.484,-32.912,-29.568,-27.82
-20.651,-20.012,-20.717,-28.693,-19.808,-30.963,-29.435,-26.765
-17.569,-18.709,-20.585,-26.136,-19.238,-29.163,-30.005,-25.93
-19.575,-21.661,-23.054,-27.189,-21.747,-31.436,-31.329,-25.78
-24.931,-26.596,-27.672,-30.89,-26.749,-35.932,-34.235,-26.645
-28.154,-29.623,-32.235,-34.032,-32.048,-38.663,-38.701,-29.348
-26.227,-28.841,-33.934,-34.74,-34.637,-38.549,-41.694,-32.308
-21.872,-24.647,-32.324,-32.994,-33.184,-36.994,-40.432,-32.439
-18.744,-19.184,-28.973,-29.824,-28.944,-34.43,-35.301,-28.989
-17.261,-15.229,-25.02,-26.939,-24.286,-30.847,-29.534,-24.421
-18.21,-15.203,-22.713,-26.983,-22.378,-29.273,-27.879,-22.364
-20.607,-18.536,-23.992,-30.41,-24.297,-31.973,-30.925,-23.495
-19.301,-20.714,-26.404,-32.944,-26.653,-34.944,-33.307,-24.442
-14.509,-19.496,-26.507,-30.761,-26.394,-33.278,-31.896,-22.525
-12.44,-17.914,-24.73,-25.45,-24.293,-28.206,-28.91,-18.673
-14.15,-18.442,-23.126,-21.241,-22.041,-24.321,-26.461,-15.515
-17.523,-21.482,-22.587,-21.187,-20.721,-24.445,-25.082,-15.359
-24.356,-28.081,-24.36,-25.975,-22.056,-28.679,-26.437,-19.263
-33.851,-36.007,-29.528,-32.75,-26.764,-34.441,-32.014,-25.811
-38.873,-38.748,-35.413,-37.011,-31.84,-38.313,-38.984,-31.103
-35.998,-34.32,-36.913,-37.15,-32.843,-39.032,-41.692,-31.877
-29.759,-27.512,-32.593,-34.102,-28.749,-36.282,-38.098,-28.259
-25.679,-23.279,-27.66,-29.562,-23.875,-30.765,-32.992,-23.746
-25.908,-24.082,-28.797,-27.277,-24.038,-27.368,-33.54,-23.106
-28.637,-29.119,-34.331,-29.599,-28.254,-30.027,-39.241,-27.087
-30.564,-34.224,-36.395,-33.362,-29.857,-35.27,-42.112,-31.152
-31.384,-36.231,-33.906,-34.944,-27.781,-37.861,-40.159,-32.716
-31.589,-34.819,-31.155,-34.494,-25.784,-37.348,-38.214,-33.475
-29.737,-30.803,-28.297,-33.216,-23.803,-35.998,-37.081,-34.138
-26.919,-27.254,-25.325,-32.218,-21.25,-35.36,-35.412,-34.139
-27.263,-28.467,-26.129,-32.976,-21.268,-35.836,-35.693,-34.751
-30.361,-33.275,-30.669,-34.908,-24.116,-36.785,-38.831,-36.603
-29.316,-34.313,-31.607,-34.13,-23.673,-35.624,-39.548,-36.224
-20.786,-28.127,-24.418,-28.441,-16.138,-30.452,-33.873,-31.157
-12.377,-20.66,-16.197,-22.442,-8.07,-25.292,-27.296,-26.534
-13.099,-18.447,-16.827,-22.121,-8.467,-26.038,-27.881,-28.403
-18.932,-19.588,-22.889,-25.205,-14.081,-30.403,-32.952,-33.005
-18.868,-18.949,-23.247,-24.96,-14.503,-31.196,-33.771,-33.098
-13.995,-17.77,-18.874,-22.26,-10.519,-28.702,-31.032,-30.617
-13.618,-19.633,-18.497,-22.611,-10.357,-28.27,-31.237,-31.077
-16.609,-21.576,-20.309,-24.437,-12.521,-29.039,-33.148,-32.384
-16.338,-19.469,-17.621,-23.09,-10.557,-27.487,-31.758,-30.39
-15.028,-16.316,-13.717,-21.067,-7.264,-26.404,-29.53,-28.081
-17.894,-17.103,-15.899,-23.547,-9.685,-30.111,-32.686,-30.854
-23.415,-21.06,-23.267,-28.753,-16.968,-35.749,-39.969,-37.055
-28.309,-24.538,-30.717,-31.344,-23.614,-37.351,-45.245,-40.737
-32.739,-26.607,-36.677,-31.215,-27.9,-35.194,-47.563,-40.804
-35.693,-27.28,-39.452,-31.064,-29.14,-33.538,-48.214,-39.512
-35.08,-26.08,-36.394,-30.972,-25.782,-33.51,-45.498,-37.101
-34.183,-24.915,-31.164,-30.653,-21.151,-34.006,-40.713,-34.238
-38.508,-27.041,-31.3,-31.747,-21.634,-35.33,-40.029,-34.218
-47.373,-33.02,-37.426,-35.569,-27.421,-38.586,-44.813,-38.233
-55.023,-39.283,-43.518,-40.672,-32.804,-43.124,-49.329,-42.695
-57.087,-40.479,-45.784,-43.627,-34.51,-46.176,-50.857,-44.643
-53.164,-35.074,-44.135,-41.797,-32.775,-44.996,-50.473,-44.006
-47.282,-28.64,-40.611,-36.854,-29.236,-40.855,-47.475,-41.222
-46.271,-28.504,-39.995,-34.638,-28.207,-39.158,-44.054,-39.003
-52.579,-34.806,-44.564,-37.519,-32.272,-41.997,-44.915,-40.541
-60.098,-40.807,-50.068,-41.279,-37.538,-45.605,-48.337,-43.811
-61.694,-41.905,-51.732,-42.482,-39.376,-46.952,-49.04,-44.821
-57.481,-39.464,-50.004,-42.332,-38.463,-46.956,-47.163,-44.315
-53.269,-37.145,-49.048,-43.143,-38.53,-48.018,-47.027,-45.836
-53.117,-37.201,-51.434,-45.43,-41.258,-50.842,-50.305,-49.41
-54.205,-38.369,-54.48,-46.989,-44.028,-52.396,-53.606,-51.154
-52.458,-37.985,-54.452,-45.664,-43.795,-49.99,-53.595,-49.57
-50.231,-36.379,-52.802,-43.838,-42.065,-47.271,-52.447,-48.277
-50.626,-34.974,-52.026,-44.767,-41.366,-48.945,-52.974,-49.592
-51.427,-33.33,-50.639,-46.685,-40.634,-52.537,-52.981,-50.705
-50.775,-31.463,-48.248,-46.765,-38.939,-53.186,-50.403,-49.272
-50.041,-30.77,-47.218,-46.093,-37.921,-51.452,-47.036,-46.82
-48.544,-30.913,-47.242,-45.963,-37.992,-49.944,-44.385,-44.931
-43.57,-28.584,-45.76,-44.331,-37.141,-47.418,-41.89,-42.691
-37.229,-22.518,-42.633,-40.133,-34.501,-42.66,-39.261,-39.425
-35.127,-17.145,-39.779,-36.003,-31.576,-38.467,-36.841,-36.508
-37.761,-16.647,-37.868,-34.004,-29.539,-36.976,-34.765,-34.99
-39.601,-18.216,-35.799,-33.327,-27.779,-36.866,-33.318,-34.277
-34.942,-14.567,-31.615,-30.831,-24.332,-34.687,-31.612,-32.385
-23.575,-3.371,-24.002,-23.245,-17.855,-27.187,-27.338,-27.165
-12.23,8.096,-15.59,-13.264,-10.966,-17.054,-21.507,-20.364
-7.329,12.045,-11.738,-8.458,-8.342,-12.202,-18.956,-17.229
-7.622,10.367,-13.213,-10.405,-10.035,-14.649,-21.2,-19.274
-7.496,9.759,-15.251,-13.107,-11.832,-17.896,-24.714,-22.723
-4.724,11.891,-15.285,-13.36,-12.024,-17.959,-26.996,-25.093
-2.34,14.004,-14.923,-13.32,-11.852,-17.396,-27.973,-26.811
-2.927,14.952,-14.784,-13.525,-11.536,-17.682,-27.359,-27.518
-4.037,15.54,-14.754,-12.788,-11.573,-17.554,-26.36,-27.264
-4.282,14.375,-17.121,-12.657,-14.162,-17.47,-27.894,-28.164
-7.912,9.174,-23.355,-15.228,-19.699,-19.298,-32.167,-31.58
-15.374,2.427,-30.327,-19.961,-25.287,-24.023,-36.846,-37.09
-18.907,0.126,-32.933,-23.705,-27.211,-29.063,-39.955,-42.216
-14.735,3.972,-29.522,-22.758,-23.926,-28.827,-39.544,-42.444
-9.448,8.633,-24.213,-18.41,-18.473,-23.627,-35.512,-37.133
-10.021,8.446,-23.087,-16.772,-16.735,-21.087,-32.245,-32.447
-16.988,2.635,-28.322,-20.759,-21.664,-25.024,-34.225,-33.659
-27.78,-6.608,-37.051,-27.47,-30.519,-31.7,-39.995,-39.248
-38.924,-15.682,-44.98,-32.682,-38.308,-36.487,-44.366,-44.478
-46.717,-21.81,-49.827,-35.254,-42.576,-38.596,-44.849,-46.725
-50.139,-26.15,-52.519,-37.838,-44.748,-40.549,-43.767,-47.335
-51.818,-30.963,-55.961,-42.954,-48.139,-44.882,-45.428,-49.563
-54.183,-35.117,-60.913,-49.021,-53.68,-50.889,-50.858,-53.739
-56.611,-35.909,-64.82,-52.71,-58.482,-55.515,-56.299,-57.182
-58.094,-34.051,-65.691,-53.232,-59.852,-56.792,-57.809,-58.544
-59.305,-33.346,-64.184,-51.289,-58.241,-54.504,-54.995,-57.517
-60.663,-35.317,-62.849,-47.788,-56.19,-50.246,-50.974,-53.707
-60.816,-37.233,-62.771,-44.649,-54.859,-47.051,-48.91,-48.75
-58.899,-36.787,-61.257,-42.894,-52.676,-46.119,-48.128,-45.08
-57.422,-36.174,-57.423,-41.855,-49.706,-46.093,-46.449,-43.099
-58.879,-38.231,-55.324,-41.532,-48.927,-46.034,-44.671,-42.281
-61.257,-41.207,-56.472,-42.094,-50.368,-45.88,-44.481,-42.352
-62.077,-41.952,-56.643,-41.8,-49.981,-44.516,-44.341,-42.092
-62.76,-41.508,-53.951,-39.67,-46.814,-41.746,-42.532,-40.622
-64.498,-42.488,-51.851,-38.266,-44.785,-40.762,-41.071,-39.444
-64.701,-43.538,-51.235,-39.155,-45.131,-42.727,-41.468,-39.667
-61.277,-42.089,-48.89,-39.879,-44.596,-43.61,-41.677,-40.13
-57.083,-40.282,-45.034,-39.021,-42.155,-41.659,-40.36,-39.759
-56.521,-42.022,-43.755,-38.513,-40.906,-40.274,-39.453,-39.044
-58.883,-45.812,-46.069,-39.246,-42.654,-41.08,-40.963,-39.467
-59.227,-46.14,-48.165,-39.094,-44.741,-41.468,-43.145,-40.986
-55.61,-41.537,-46.814,-36.4,-44.07,-39.306,-43.077,-41.06
-51.243,-37.18,-43.707,-33.226,-41.808,-36.377,-41.747,-39.089
-50.717,-38.823,-43.552,-33.459,-41.782,-36.53,-42.24,-38.626
-55.899,-46.3,-48.43,-37.78,-45.791,-40.614,-45.725,-42.088
-63.287,-54.159,-54.767,-42.902,-51.353,-45.474,-50.65,-46.769
-66.464,-57.231,-56.36,-44.863,-53.044,-47.232,-52.473,-47.758
-62.83,-54.507,-50.548,-41.305,-47.553,-43.434,-47.48,-43.074
-56.504,-49.7,-41.885,-34.561,-38.729,-36.334,-39.439,-36.596
-53.709,-48.202,-37.647,-31.065,-33.77,-32.55,-35.657,-34.328
-56.635,-51.618,-39.24,-33.346,-34.156,-34.939,-36.611,-36.726
-63.23,-57.558,-42.963,-38.223,-36.62,-40.495,-38.541,-40.167
-69.682,-63.508,-46.531,-43.148,-39.659,-46.145,-40.951,-43.446
-71.61,-67.068,-48.317,-46.969,-41.927,-49.968,-42.69,-45.757
-67.788,-66.562,-46.423,-47.799,-40.899,-50.146,-40.254,-44.599
-62.812,-63.74,-42.898,-45.348,-37.687,-47.038,-35.149,-40.672
-61.773,-62.272,-42.138,-42.519,-36.573,-43.919,-33.468,-38.402
-63.863,-63.068,-44.441,-42.374,-38.479,-43.929,-36.447,-39.718
-64.417,-63.315,-45.489,-43.84,-39.22,-45.933,-38.665,-41.657
-60.774,-61.077,-41.265,-42.578,-34.859,-45.112,-36,-40.654
-55.457,-58.703,-33.248,-37.788,-27.407,-40.238,-30.535,-36.916
-54.304,-59.446,-28.589,-34.379,-23.55,-36.262,-27.496,-33.821
-58.007,-62.624,-31.152,-35.351,-26.047,-36.099,-28.698,-33.022
-59.631,-64.155,-35.091,-37.054,-29.432,-36.389,-29.896,-32.243
-55.355,-61.401,-33.479,-35.637,-27.934,-34.723,-27.081,-29.728
