EEG 1,EEG 2,EEG 3,EEG 4,EEG 5,EEG 6,EEG 7,EEG 8
260.595,242.506,229.108,161.674,237.582,160.876,199.706,142.262
255.364,237.686,225.903,159.349,234.823,159.143,197.144,140.283
251.559,239.467,222.977,156.172,232.048,157.129,195.125,138.429
249.233,240.593,221.068,155.387,230.627,156.086,194.244,136.681
250.165,239.417,222.326,158.92,232.749,158.217,196.427,137.542
253.335,240.147,224.43,162.32,235.464,161.511,199.46,140.348
253.438,241.704,222.012,160.422,233.22,161.564,198.093,140.483
248.357,240.294,215.242,154.258,226.611,158.083,192.049,136.287
243.584,237.386,210.991,149.657,222.589,155.277,187.884,132.666
243.933,235.394,212.87,149.849,224.387,156.031,190.041,134.141
246.737,233.692,217.25,153.52,228.243,159.137,195.967,139.233
248.218,232.551,220.921,158.832,231.398,162.468,202.074,144.61
248.473,233.304,223.494,163.314,234.153,164.887,206.714,148.284
246.838,234.511,223.178,163.49,234.852,165.205,207.607,148.341
241.581,233.499,218.803,159.518,231.634,163.423,203.489,144.443
234.75,230.341,212.728,155.924,226.247,161.631,196.561,139.08
230.004,226.33,207.405,155.241,221.139,160.475,189.623,134.054
227.759,221.864,203.495,155.388,217.145,158.103,183.579,128.982
224.961,216.873,200.42,153.474,213.941,153.231,177.989,123.518
218.148,210.137,195.909,148.18,209.549,146.318,171.656,117.334
208.906,202.249,189.574,141.261,203.442,140.13,165.092,110.807
202.953,197.644,184.7,136.752,198.667,137.92,161.236,106.369
201.765,197.989,182.54,135.415,196.603,138.591,160.551,104.97
202.193,199.148,180.742,134.328,194.972,138.511,159.911,104.462
202.239,197.013,177.845,132.12,192.227,137.028,157.581,103.31
200.975,191.708,174.238,129.565,188.882,135.133,154.767,101.856
197.356,185.645,170.129,126.779,185.565,132.411,152.744,100.455
192.85,180.498,165.758,123.798,182.631,129.24,151.459,98.961
191.199,178.319,162.506,122.322,180.8,127.967,150.326,97.683
193.005,181.046,161.085,123.176,180.358,128.861,148.389,97.013
194.535,185.929,160.057,124.066,180.486,129.188,145.392,96.211
194.002,187.695,158.511,123.065,180.533,127.814,143.324,94.681
193.453,185.049,157.243,121.869,180.483,126.562,143.568,93.452
192.722,179.962,155.878,122.17,179.687,126.401,143.825,92.948
188.929,174.821,153.107,121.807,177.402,125.761,141.619,91.704
183.515,172.015,150.372,119.519,175.175,124.224,138.762,89.938
180.724,171.27,149.627,117.968,174.595,123.859,137.816,89.717
179.524,169.44,148.894,117.725,173.345,124.471,136.991,90.146
176.429,165.802,146.507,116.393,169.552,123.632,134.354,88.811
172.283,162.884,144.747,114.268,165.847,121.76,131.915,86.348
169.775,161.132,144.851,113.813,164.08,120.774,130.985,84.781
169.775,158.7,145.023,115.502,162.495,120.818,130.116,84.674
171.563,156.785,144.292,117.807,160.103,121.735,129.135,85.459
172.948,158.778,143.383,119.652,158.149,123.55,129.469,86.487
171.877,163.138,142.183,120.651,156.479,124.879,130.172,86.928
168.928,163.726,139.182,119.814,152.928,123.834,128.343,85.653
165.824,158.377,133.784,116.482,147.109,120.656,123.875,82.772
162.396,150.902,127.476,111.906,141.01,117.654,119.312,79.626
158.35,145.609,122.553,108.586,136.443,116.44,116.015,76.961
154.835,143.731,119.51,107.273,133.391,115.896,113.346,74.546
150.881,142.886,115.722,105.391,129.562,113.28,109.611,71.578
144.858,140.332,109.667,100.817,123.759,108.326,104.015,67.74
139.512,136.694,104.367,95.584,118.844,104.403,98.397,64.058
138.495,134.391,102.933,93.079,117.784,104.34,95.76,62.208
141.038,135.103,104.347,93.72,119.53,107.557,97.207,63.143
143.508,138.537,105.541,95.591,120.878,111.166,100.42,65.593
143.179,140.589,104.64,96.494,120.006,112.375,101.651,67.029
140.709,137.201,102.49,95.116,118.098,111.034,100.179,67.16
141.886,134.087,104.088,95.041,120.316,112.026,101.728,70.583
154.008,143.456,115.878,104.438,132.79,122.667,114.321,83.65
173.991,163.961,135.136,122.734,152.317,141.163,134.851,103.21
187.329,179.011,149.218,136.49,166.358,155.102,148.931,116.353
187.43,181.409,152.846,139.233,170.198,159.32,151.717,119.067
182.422,178.708,152.056,138.229,169.87,159.707,151.476,119.361
178.698,174.428,149.562,136.785,167.752,158.09,151.166,119.738
174.957,166.88,144.489,131.886,163.015,152.702,147.829,116.311
170.899,160.401,140.34,125.862,159.138,147.32,143.423,110.647
167.94,159.281,138.82,122.144,157.802,144.887,140.244,106.564
165.038,158.22,135.72,117.678,155.29,141.667,135.851,102.895
160.345,150.88,128.98,109.73,149.543,135.667,129.242,97.814
154.034,140.926,121.785,102.075,142.659,131.059,123.136,93.119
148.228,136.007,117.528,100.138,137.596,130.84,119.737,91.123
144.981,136.147,116.184,104.109,135.572,132.586,118.912,91.443
143.119,135.217,113.564,107.501,133.41,131.818,117.698,90.801
138.818,130.427,105.529,103.546,126.051,125.976,112.055,85.56
131.807,124.319,94.8,94.416,114.759,117.035,102.629,76.516
126.925,119.596,87.92,88.513,106.293,110.214,94.794,68.954
127.32,117.725,86.562,89.454,103.749,109.015,91.783,66.384
130.069,119.291,87.395,94.14,104.331,112.042,91.555,66.788
129.479,120.238,86.123,96.685,103.164,112.81,89.253,65.225
124.558,115.713,81.046,93.816,98.425,107.011,83.343,60.436
121.117,109.66,76.044,89.855,94.4,100.738,78.92,57.097
122.163,108.541,74.68,89.33,94.049,100.548,79.032,57.258
122.377,109.986,73.103,88.502,92.321,101.306,77.799,55.461
117.418,108.297,66.958,83.598,85.026,96.796,70.682,48.936
110.35,103.203,59.754,78.598,76.88,91.45,63.438,44.017
105.088,97.65,56.079,77.016,72.937,90.428,61.976,44.587
99.968,92.295,52.755,74.551,69.549,88.828,61.841,43.885
91.725,85.029,45.184,66.923,61.745,81.167,56.615,36.586
81.407,75.223,35.894,57.769,52.195,71.798,48.099,27.87
71.883,65.504,28.939,51.795,45.062,66.199,41.041,22.927
64.167,58.743,23.456,48.015,39.356,62.519,36.47,19.88
58.935,55.506,18.115,44.584,33.735,58.047,33.732,16.778
56.386,53.581,14.181,41.706,29.545,53.644,32.208,14.175
54.696,50.216,11.87,38.653,26.997,50.017,30.633,11.196
52.468,45.8,9.741,35.048,24.655,46.959,28.259,7.02
50.035,42.515,7.266,32.288,22.172,44.888,25.49,3.692
46.767,39.935,4.555,30.212,19.883,43.742,22.636,3.164
41.503,36.411,2.07,28.206,18.058,43.201,20.418,4.861
36.097,33.609,1.427,28.551,17.837,44.287,20.745,7.554
33.192,33.331,2.532,31.906,19.012,46.761,23.026,9.341
31.03,31.928,2.123,33.55,18.421,46.647,22.685,7.659
26.967,26.526,-0.376,31.075,15.176,42.247,18.617,4.093
23.458,21.781,-1.3,29.895,12.774,38.976,15.665,3.304
23.795,22.023,0.295,33.834,13.072,41.05,16.277,5.216
25.803,23.91,1.883,38.123,14.593,44.44,19.383,6.573
24.854,22.417,2.243,37.551,15.842,44.196,24.414,7.053
20.054,17.856,-0.241,32.871,13.9,40.766,25.106,6.379
13.637,12.923,-8.763,25.993,4.805,35.263,11.624,1.3
7.115,7.718,-21.015,18.073,-8.161,27.981,-9.082,-8.005
2.1,2.508,-28.031,13.422,-14.509,23.313,-15.814,-13.793
0.343,-0.503,-27.304,14.352,-12.026,24.633,-7.504,-12.198
-0.558,-2.793,-28.048,14.527,-11.644,25.789,-7.117,-12.292
-5.108,-8.554,-35.712,8.897,-19.312,20.408,-21.484,-20.417
-12.659,-16.407,-43.752,2.375,-27.408,13.224,-32.873,-28.094
-18.45,-21.199,-47.094,0.079,-30.508,10.769,-35.483,-29.051
-20.291,-22.083,-48.874,0.015,-32.376,11.006,-39.899,-29.676
-20.079,-22.166,-51.219,-1.078,-34.574,9.917,-45.332,-33.856
-21.068,-23.907,-53.109,-4.269,-35.01,7.744,-44.054,-36.587
-24.343,-27.108,-55.532,-9.379,-35.552,5.563,-41.344,-36.054
-27.238,-29.624,-59.028,-13.724,-38.358,3.655,-45.989,-36.9
-27.737,-30.808,-61.061,-14.224,-40.701,2.734,-54.259,-40.894
-27.524,-31.936,-59.825,-11.055,-39.607,3.008,-55.916,-43.533
-27.758,-32.927,-56.243,-6.039,-35.532,3.5,-48.605,-40.99
-27.652,-33.176,-52.926,-1.41,-31.177,3.029,-40.944,-36.448
-27.838,-33.458,-53.03,-0.22,-30.161,1.01,-41.208,-36.009
-29.73,-34.135,-57.126,-3.383,-33.592,-2.022,-45.535,-39.568
-32.549,-34.585,-60.829,-6.973,-36.935,-4.044,-43.717,-40.693
-34.142,-34.938,-60.16,-6.462,-35.979,-3.185,-36.935,-35.78
-35.016,-37.11,-59.446,-4.74,-35.417,-1.648,-38.98,-30.811
-39.122,-43.265,-66.587,-9.839,-43.133,-5.536,-55.97,-35.924
-46.597,-50.941,-78.741,-20.723,-55.614,-14.902,-74.553,-49.577
-50.791,-53.71,-84.273,-26.383,-60.95,-20.38,-77.778,-57.983
-49.472,-51.11,-81.483,-24.265,-57.895,-18.416,-67.418,-56.807
-49.54,-50.272,-80.051,-23.513,-56.864,-17.122,-59.604,-55.509
-54.993,-54.394,-84.097,-27.308,-62.17,-20.625,-62.854,-57.731
-61.68,-59.035,-88.58,-29.424,-68.029,-23.402,-71.356,-57.367
-66.244,-61.611,-90.467,-28.179,-70.785,-22.932,-77.466,-54.455
-70.964,-65.599,-93.184,-29.763,-74.283,-24.406,-81.983,-58.107
-77.812,-72.511,-99.06,-36.664,-81.376,-30.183,-87.32,-69.304
-83.316,-77.398,-104.19,-42.99,-87.651,-35.39,-90.047,-76.37
-84.053,-77.423,-105.165,-44.945,-89.297,-37.483,-89.198,-74.347
-82.464,-76.705,-104.062,-45.376,-89.325,-38.987,-89.454,-71.359
-81.502,-77.645,-102.866,-44.651,-90.296,-39.519,-90.686,-71.789
-80.367,-77.661,-101.213,-40.026,-91.008,-36.832,-88.579,-71.605
-78.313,-75.665,-99.853,-33.516,-91.534,-33.06,-84.494,-69.488
-75.687,-72.602,-99.439,-29.27,-92.601,-30.823,-82.776,-67.358
-72.986,-69.644,-99.028,-27.762,-93.308,-29.337,-83.66,-64.917
-71.95,-69.101,-98.118,-27.365,-93.141,-28.132,-84.477,-62.142
-72.766,-70.739,-96.415,-25.977,-91.914,-26.953,-82.33,-60.164
-72.765,-70.822,-93.187,-21.984,-89.052,-23.82,-75.652,-57.67
-72.841,-69.923,-90.132,-18.04,-86.565,-19.668,-67.354,-53.5
-77.143,-72.764,-91.209,-18.935,-88.687,-19.22,-64.198,-51.101
-83.484,-77.759,-96.111,-23.074,-95.084,-22.692,-68.704,-53.018
-86.142,-79.556,-100.396,-25.682,-101.047,-25.43,-76.282,-56.532
-87.799,-80.867,-104.937,-29.778,-107.227,-28.261,-85.56,-61.882
-94.976,-87.457,-114.627,-40.655,-118.537,-36.103,-100.769,-73.658
-105.172,-96.316,-126.907,-53.905,-132.133,-46.253,-118.677,-89.369
-110.733,-100.415,-133.665,-60.029,-139.292,-50.774,-128.392,-99.617
-110.293,-98.846,-132.772,-56.545,-138.251,-48.658,-126.604,-100.042
-108.042,-95.633,-128.772,-50.136,-134.615,-45.704,-120.348,-94.653
-107.43,-94.47,-126.635,-48.219,-133.384,-45.412,-117.432,-90.526
-109.588,-96.889,-128.938,-51.868,-136.484,-47.295,-120.623,-91.565
-112.215,-99.83,-133.032,-56.277,-141.085,-49.156,-125.296,-94.269
-109.568,-96.613,-130.829,-54.646,-138.932,-45.868,-121.532,-90.567
-98.896,-86.03,-117.458,-44.038,-124.917,-33.824,-104.439,-75.831
-85.513,-75.448,-98.989,-29.105,-105.582,-18.506,-81.789,-54.217
-76.412,-70.001,-85.627,-16.663,-91.763,-7.974,-65.853,-36.187
-72.521,-67.293,-79.943,-9.64,-85.923,-2.796,-59.527,-28.702
-71.447,-65.55,-78.207,-8.733,-83.932,-0.528,-56.94,-28.857
-71.756,-66.194,-77.994,-12.152,-83.365,-0.616,-54.348,-30.064
-72.918,-68.704,-79.22,-15.188,-84.564,-1.588,-54.244,-31.656
-75.169,-71.141,-81.979,-16.763,-87.872,-3.157,-60.027,-36.632
-78.768,-73.537,-85.946,-20.33,-92.702,-7.988,-70.454,-44.165
-83.208,-76.687,-90.304,-26.398,-97.859,-15.491,-80.428,-51.393
-87.794,-80.054,-94.159,-31.896,-102.191,-22.161,-86.248,-57.659
-91.686,-83.01,-97.717,-35.632,-106.011,-27.9,-89.781,-63.035
-92.651,-84.489,-100.238,-37.352,-109.254,-31.789,-94.382,-66.173
-88.863,-82.397,-98.703,-35.533,-109.027,-29.655,-96.979,-64.627
-83.479,-78.206,-93.278,-31.685,-104.65,-23.371,-92.387,-57.59
-82.204,-77.183,-89.278,-30.444,-101.211,-19.981,-84.197,-49.381
-86.598,-81.378,-90.966,-33.557,-103.349,-21.623,-81.275,-47.135
-94.25,-87.923,-97.151,-39.182,-109.668,-26.471,-85.131,-52.37
-101.344,-92.832,-102.773,-44.732,-115.299,-32.558,-90.301,-59.532
-103.58,-93.264,-104.033,-47.839,-117.436,-36.523,-94.808,-64.291
-99.288,-89.037,-101.165,-47.062,-116.238,-35.24,-100.053,-67.16
-91.257,-82.703,-95.709,-42.687,-112.004,-28.965,-102.846,-67.79
-84.749,-77.88,-88.835,-37.364,-105.495,-21.786,-97.661,-62.087
-84.272,-78.077,-83.561,-34.795,-100.372,-18.11,-87.131,-51.493
-90.193,-84.177,-84.363,-37.122,-101.573,-18.597,-82.457,-47.587
-98.395,-92.537,-91.712,-45.035,-109.519,-23.528,-89.591,-55.596
-104.002,-97.965,-99.636,-56.862,-117.912,-33.669,-101.03,-64.973
-104.011,-97.674,-101.584,-65.644,-119.784,-42.432,-105.499,-65.881
-98.417,-92.826,-96.872,-64.908,-114.316,-41.32,-100.596,-59.986
-91.39,-87.718,-90.037,-57.927,-106.264,-33.942,-92.367,-52.393
-88.718,-86.239,-85.938,-53.059,-100.858,-29.686,-86.377,-46.524
-91.992,-88.638,-86.153,-53.536,-100.26,-30.304,-83.571,-44.577
-96.141,-90.944,-88.086,-55.799,-102.23,-31.638,-82.756,-45.511
-95.536,-88.956,-88.258,-54.058,-102.732,-31.398,-83.899,-47.25
-92.944,-85.338,-87.634,-49.459,-102.078,-33.264,-88.766,-50.938
-94.688,-86.73,-88.665,-43.453,-102.982,-40.579,-95.733,-56.43
-98.18,-92.215,-88.2,-6.684,-102.879,-46.624,-97.421,-58.841
-98.12,-95.758,-83.615,99.587,-99.072,-44.552,-91.662,-56.864
-98.441,-97.226,-80.524,239.312,-96.465,-40.727,-86.81,-56.303
-102.223,-98.68,-82.66,322.763,-98.483,-42.984,-87.435,-58.514
-103.021,-97.434,-84.128,330.941,-99.954,-47.443,-87.204,-56.708
-98.187,-92.192,-81.116,315.771,-97.573,-46.997,-82.766,-50.816
-94.038,-87.12,-78.263,301.068,-95.152,-42.978,-79.669,-49.387
-92.242,-84.419,-77.134,280.682,-93.335,-42.002,-78.745,-50.821
-87.784,-80.578,-72.602,269.757,-87.56,-44.124,-72.798,-44.889
-80.027,-72.831,-63.082,285.216,-77.512,-41.874,-60.281,-32.899
-72.982,-64.002,-52.99,305.242,-67.757,-33.887,-48.372,-24.971
-69.879,-59.816,-48.186,293.742,-63.281,-29.759,-44.928,-25.749
-72.369,-63.044,-52.545,252.899,-67.64,-36.661,-53.171,-34.359
-77.916,-69.658,-62.284,220.118,-77.523,-49.415,-67.141,-46.191
-80.496,-72.452,-67.957,214.958,-83.675,-57.95,-76.423,-54.343
-77.173,-68.073,-65.349,218.296,-81.629,-58.492,-77.538,-55.041
-69.392,-58.161,-56.622,208.04,-73.728,-53.324,-70.524,-46.944
-60.929,-47.523,-45.199,187.861,-63.93,-45.508,-54.552,-31.347
-55.676,-41.238,-35.5,174.977,-56.616,-38.234,-36.123,-16.78
-54.466,-40.525,-31.853,174.5,-56.074,-35.368,-27.204,-13.308
-56.491,-43.048,-35.444,171.31,-64.081,-39.485,-32.532,-21.495
-59.842,-44.917,-41.756,151.969,-74.855,-48.244,-44.576,-31.518
-61.043,-44.006,-43.666,126.898,-77.168,-54.978,-51.178,-34.54
-60.639,-44.156,-41.213,114.095,-69.095,-56.526,-49.698,-33.163
-62.266,-48.616,-40.439,111.043,-60.138,-56.896,-47.117,-33.971
-64.955,-52.831,-41.977,100.874,-55.865,-60.904,-45.791,-35.312
-65.226,-52.431,-41.401,79.369,-53.738,-67.078,-41.605,-32.737
-63.446,-50.283,-38.776,59.181,-52.526,-70.436,-35.177,-29.382
-61.818,-49.445,-38.424,49.526,-54.001,-71.089,-32.334,-30.578
-59.301,-46.746,-39.313,47.597,-55.068,-71.347,-31.613,-32.377
-54.792,-40.438,-36.672,45.988,-50.444,-70.122,-26.424,-28.377
-51.287,-36.461,-33.324,36.984,-44.24,-69.493,-22.447,-24.423
-50.442,-38.063,-36.027,18.562,-45.345,-74.845,-31.538,-30.164
-50.557,-40.099,-43.803,-0.563,-53.623,-84.89,-49.975,-42.747
-51.167,-38.673,-49.739,-10.746,-60.553,-92.154,-63.254,-52.339
-51.345,-34.831,-49.555,-13.804,-59.667,-93.227,-64.308,-54.27
-48.678,-30.52,-44.768,-18.729,-52.341,-92.033,-55.704,-49.636
-43.968,-27.321,-39.638,-27.678,-44.69,-92.324,-44.78,-42.925
-40.03,-25.209,-36.713,-35.434,-40.711,-93.71,-39.211,-39.612
-36.947,-22.946,-36.38,-41.685,-40.149,-96.045,-40.467,-41.484
-32.921,-19.861,-37.043,-50.188,-39.91,-99.507,-42.567,-45.331
-27.171,-14.69,-34.604,-57.184,-36.018,-100.936,-39.416,-46.739
-19.702,-6.922,-26.475,-55.716,-27.565,-96.706,-31.004,-43.913
-11.696,-0.114,-16.523,-50.392,-19.056,-89.803,-22.187,-38.048
-8.206,0.502,-13.097,-54.386,-17.198,-89.689,-19.658,-33.58
-12.204,-4.67,-18.802,-69.404,-22.787,-99.374,-25.884,-35.851
-15.39,-6.749,-24.18,-80.661,-26.788,-108.005,-31.751,-41.835
-8.6,1.051,-19.289,-77.328,-21.199,-105.197,-26.157,-41.011
2.346,11.89,-8.053,-68.324,-10.873,-96.17,-13.445,-32.36
6.836,15.026,-1.557,-69.17,-5.604,-93.563,-6.8,-27.141
6.892,12.795,-2.207,-79.004,-5.972,-98.842,-8.442,-30.339
9.754,14.208,-4.109,-85.52,-6.447,-103.211,-10.443,-34.308
15.174,19.429,-3.147,-86.779,-4.774,-103.211,-8.21,-32.324
20.359,23.613,0.866,-89.103,-1.024,-102.314,-3.151,-26.786
25.272,25.963,5.534,-93.144,3.452,-102.803,0.06,-24.933
29.198,27.027,6.753,-97.62,4.701,-105.188,-2.782,-30.179
31.727,27.039,4.993,-104.093,3.194,-108.491,-7.167,-35.486
36.284,29.754,7.891,-109.811,7.258,-108.389,-2.269,-30.794
44.147,37.696,18.267,-110.749,19.523,-103.287,12.608,-19.206
49.217,44.885,26.332,-112.26,28.64,-99.626,23.651,-14.773
47.7,45.402,23.701,-120.637,25.26,-102.084,18.847,-22.766
45.211,43.493,15.999,-130.375,16.021,-105.957,2.814,-33.323
49.06,46.847,14.343,-132.43,13.759,-105.732,-6.909,-34.192
61.819,57.358,23.223,-125.663,23.247,-100.161,1.373,-22.409
79.95,71.38,38.981,-114.062,39.638,-88.758,21.863,-5.195
95.97,84.651,55.081,-101.055,55.6,-74.024,42.034,8.84
106.12,95.035,66.775,-90.789,66.618,-63.487,54.832,16.989
110.583,100.177,70.409,-89.319,69.332,-62.541,56.497,18.685
109.554,99.553,65.848,-96.803,63.782,-67.073,48.27,14.661
107.429,99.784,61.662,-103.311,58.869,-67.405,41.992,12.591
110.213,106.494,65.667,-101.62,62.666,-60.564,47.592,18.947
114.592,112.492,71.319,-98.918,68.759,-55.095,56.787,26.004
111.245,106.179,66.339,-107.308,64.633,-60.747,53.871,20.912
100.656,91.32,52.65,-125.986,51.236,-74.035,39.168,5.398
96.389,86.75,47.2,-140.057,44.79,-78.875,30.795,-2.831
107.291,100.77,60.167,-137.915,56.311,-66.43,42.682,8.571
124.218,118.609,80.67,-124.574,75.854,-47.279,65.923,28.986
133.88,125.509,92.093,-114.152,86.032,-36.164,79.433,39.389
134.946,124.387,91.157,-115.149,83.068,-36.217,75.289,36.419
130.685,120.036,82.815,-127.824,73.169,-45.174,61.524,27.567
121.586,110.182,71.281,-146.795,61.264,-60.674,48.925,17.126
111.889,98.864,62.473,-162.25,52.62,-74.354,46.073,8.648
107.114,93.799,59.527,-169.281,49.871,-78.196,51.416,4.109
104.873,91.889,56.208,-174.265,46.299,-77.097,47.481,-1.708
98.973,84.931,46.566,-183.165,35.442,-81.23,23.908,-12.744
86.666,70.738,32.095,-194.837,19.576,-93.2,-4.747,-26.874
68.171,51.537,14.553,-209.196,1.503,-110.001,-23.805,-43.383
47.413,32.275,-4.375,-225.844,-17.552,-126.328,-36.204,-60.783
31.869,19.289,-18.227,-238.38,-31.701,-135.932,-44.05,-72.395
25.49,13.609,-22.408,-242.128,-35.952,-137.387,-42.338,-74.26
24.371,10.166,-21.446,-241.371,-34.975,-135.488,-35.478,-71.153
21.647,4.986,-23.299,-243.035,-37.411,-135.459,-35.914,-71.59
15.802,-0.098,-28.504,-246.625,-43.298,-137.093,-43.941,-78.073
11.797,-0.021,-30.776,-246.457,-45.53,-136.632,-47.157,-83.81
12.144,4.338,-28.709,-242.623,-43.163,-134.047,-40.728,-82.646
13.742,4.974,-26.841,-239.729,-41.087,-131.485,-31.859,-77.461
14.305,-0.006,-27.733,-238.869,-41.201,-129.145,-29.477,-75.45
12.838,-3.778,-32.998,-240.259,-45.151,-129.058,-39.095,-81.168
9.164,-3.069,-41.326,-243.596,-52.419,-131.536,-53.314,-91.218
8.528,0,-42.883,-242.044,-53.069,-128.653,-51.943,-93.313
16.23,4.55,-31.525,-229.221,-40.941,-114.715,-31.221,-80.728
27.373,10.052,-16.738,-211.078,-26.76,-97.339,-13.775,-64.5
31.183,12.401,-11.615,-199.923,-23.553,-88.943,-14.707,-60.238
27.564,11.535,-14.4,-196.197,-27.297,-88.787,-20.747,-65.916
33.768,22.29,-7.267,-183.412,-19.332,-78.634,-9.572,-60.408
59.833,54.058,18.642,-151.629,7.641,-48.147,20.358,-33.054
86.135,84.876,44.808,-118.007,34.478,-16.546,47.358,-3.772
90.901,89.499,51.016,-104.819,42.048,-6.703,55.683,5.164
76.948,70.728,37.995,-113.762,31.076,-17.815,45.707,-6.969
42.89,30.792,2.996,-145.539,-2.608,-49.95,10.141,-43.179
-28.537,-42.774,-69.573,-212.38,-74.889,-117.271,-66.289,-117.687
-119.626,-129.696,-163.332,-297.257,-168.668,-202.42,-165.673,-212.397
-173.098,-175.032,-221.936,-346.57,-227.68,-249.89,-230.604,-269.293
-169.173,-163.996,-220.11,-339.107,-226.387,-239.27,-230.272,-262.742
-148.309,-140.047,-196.275,-312.764,-201.967,-211.053,-200.332,-233.752
-144.647,-136.206,-190.614,-303.02,-194.754,-200.956,-187.018,-224.991
-151.423,-142.723,-197.725,-303.958,-200.931,-201.421,-189.377,-230.767
-156.959,-148.149,-200.732,-302.592,-203.998,-200.063,-187.98,-232.636
-165.067,-158.966,-204.42,-303.828,-207.914,-203.21,-187.226,-234.386
-172.495,-170.076,-212.514,-306.695,-216.384,-208.111,-197.089,-240.559
-167.37,-164.897,-213.299,-298.067,-218.147,-199.7,-207.756,-240.576
-150.355,-144.861,-199.31,-275.448,-205.03,-177.031,-200.869,-225.701
-131.676,-124.228,-176.267,-248.428,-181.764,-150.718,-173.307,-200.601
-118.843,-110.717,-156.266,-227.629,-160.737,-128.515,-144.557,-178.901
-111.507,-102.614,-144.826,-216.009,-148.249,-111.741,-129.233,-166.524
-97.449,-88.528,-129.753,-200.141,-132.217,-90.546,-112.28,-149.43
-71.548,-64.651,-102.473,-170.794,-103.809,-59.052,-80.781,-118.082
-54.863,-52.188,-82.513,-147.623,-82.756,-35.891,-56.114,-92.531
-65.197,-66.394,-89.582,-150.098,-89.478,-38.534,-60.126,-94.683
-87.37,-87.547,-110.909,-164.409,-111.373,-52.34,-80.775,-114.976
-99.072,-92.757,-124.314,-170.111,-125.555,-56.522,-96.698,-130.346
-100.405,-87.021,-128.992,-169.862,-130.689,-54.337,-105.803,-135.677
-100.819,-84.397,-133.29,-171.219,-135.348,-53.984,-114.123,-139.503
-102.088,-87.66,-136.275,-170.019,-138.884,-50.766,-119.303,-142.948
-101.477,-92.075,-133.569,-161.376,-136.304,-39.791,-115.091,-138.411
-95.773,-90.408,-124.952,-146.004,-126.332,-22.822,-101.43,-123.658
-86.674,-81.222,-115.839,-129.066,-114.522,-5.23,-87.822,-108.247
-84.408,-75.465,-116.001,-118.766,-111.91,4.944,-86.077,-103.805
-94.346,-81.075,-128.781,-118.234,-122.2,4.582,-95.924,-110.022
-107.627,-90.373,-144.859,-121.731,-135.532,0.605,-105.12,-116.755
-114.07,-93.848,-153.122,-121.541,-141.247,1.542,-105.756,-117.863
-113.217,-92.324,-151.654,-114.901,-138.329,9.323,-100.731,-114.996
-109.055,-89.682,-146.017,-105.187,-131.944,20.751,-95.818,-111.623
-105.604,-87.829,-143.381,-99.066,-128.483,30.418,-95.108,-110.515
-107.114,-90.303,-147.372,-100.613,-132.057,32.837,-100.5,-113.167
-112.858,-97.436,-153.978,-105.903,-139.411,29.293,-108.128,-117.088
-116.294,-101.149,-156.668,-106.807,-143.297,28.764,-111.28,-118.055
-114.777,-95.921,-155.576,-100.66,-142.457,36.413,-109.325,-115.859
-112.675,-87.707,-155.338,-92.176,-141.277,47.734,-106.688,-112.932
-112.55,-83.381,-156.035,-86.007,-140.555,56.162,-103.575,-108.651
-112.125,-82.245,-153.971,-81.512,-137.576,60.782,-97.46,-102.053
-111.746,-84.262,-151.432,-77.519,-135.923,64.152,-95.074,-98.313
-114.964,-91.617,-154.528,-75.923,-141.952,66.651,-105.049,-101.147
-120.526,-99.325,-160.391,-75.695,-150.964,68.299,-118.456,-103.73
-123.089,-99.91,-160.992,-71.859,-153.053,71.578,-120.475,-99.341
-122.041,-96.011,-157.681,-63.972,-149.342,77.069,-113.377,-91.987
-123.27,-96.638,-159.157,-58.598,-149.144,80.674,-109.203,-89.005
-130.665,-103.54,-167.653,-59.986,-155.141,78.659,-111.309,-90.01
-139.715,-110.062,-175.954,-62.889,-160.488,72.339,-112.66,-87.81
-144.339,-112.305,-179.12,-60.658,-161.527,65.338,-109.707,-80.666
-146.52,-114.102,-181.68,-55.934,-164.408,58.839,-110.762,-76.145
-152.044,-120.543,-188.384,-54.96,-173.318,52.423,-120.957,-78.101
-159.685,-129.904,-195.788,-56.261,-182.251,48.258,-130.041,-80.721
-163.31,-135.395,-199.125,-54.946,-185.26,49.115,-129.126,-79.693
-162.961,-135.62,-199.983,-52.88,-185.376,52.838,-125.509,-78.367
-165.361,-136.206,-203.577,-55.612,-189.716,54.042,-131.415,-82.503
-175.56,-141.588,-213.532,-64.931,-202.376,48.806,-147.47,-95.249
-192.461,-153.399,-228.387,-78.134,-221.166,37.168,-163.472,-112.916
-208.847,-170.382,-241.464,-89.466,-238.615,25.731,-173.941,-126.64
-218.7,-186.456,-248.583,-94.749,-249.869,21.599,-183.054,-133.478
-226.967,-199.133,-254.316,-97.699,-258.57,20.741,-192.543,-138.219
-238.933,-210.097,-261.389,-102.38,-267.166,16.327,-195.487,-140.456
-245.375,-213.002,-261.539,-102.397,-268.404,14.401,-185.897,-133.499
-239.069,-202.726,-251.518,-93.117,-260.144,22.502,-171.713,-120.634
-230.315,-190.276,-243.318,-83.279,-254.729,34.364,-169.026,-114.189
-228.704,-187.737,-244.203,-80.5,-258.742,41.066,-177.521,-114.844
-230.522,-192.009,-246.102,-81.754,-262.507,42.529,-180.155,-112.491
-232.228,-195.872,-245.225,-84.887,-261.961,40.318,-176.844,-107.81
-237.426,-201.489,-250.095,-92.694,-267.558,33.628,-186.59,-111.743
-247.152,-212.6,-261.911,-102.924,-281.318,25.465,-207.803,-123.825
-254.38,-221.42,-267.559,-106.835,-288.641,22.859,-215.458,-130.212
-251.931,-216.946,-259.086,-100.334,-280.778,29.395,-200.382,-124.32
-241.408,-202.804,-244.748,-88.365,-267.285,41.684,-181.705,-114.837
-229.402,-190.816,-234.783,-75.891,-259.81,54.453,-179.423,-111.701
-220.65,-184.528,-229.595,-64.363,-257.911,64.209,-189.621,-114.805
-219.933,-185.405,-228.471,-58.678,-258.653,66.715,-196.76,-119.91
-230.005,-198.124,-234.026,-63.49,-264.437,60.329,-199.19,-125.241
-244.69,-217.109,-242.442,-73.012,-273.262,51.006,-201.847,-128.108
-253.611,-227.105,-245.115,-77.367,-276.838,45.858,-199.966,-125.688
-251.391,-220.633,-239.61,-73.046,-271.425,47.913,-189.953,-119.193
-242.591,-206.851,-232.282,-64.186,-263.659,55.656,-182.084,-114.556
-239.983,-202.925,-232.921,-59.947,-264.035,60.922,-187.817,-118.777
-247.464,-211.787,-243.995,-63.236,-271.193,58.207,-200.226,-128.24
-254.407,-219.764,-259.364,-67.469,-273.902,53.146,-203.001,-131.724
-256.174,-221.624,-272.359,-69.582,-270.971,51.772,-194.531,-128.273
-259.496,-225.306,-278.244,-71.062,-270.366,52.687,-187.041,-124.427
-266.653,-232.594,-277.357,-71.06,-273.719,52.539,-188.2,-122.014
-271.43,-235.174,-273.298,-68.068,-275.372,52.032,-192.336,-118.921
-269.36,-228.91,-265.589,-61.512,-271.486,55.809,-189.148,-112.967
-265.135,-222.247,-255.44,-53.812,-265.33,63.468,-179.174,-104.898
-266.662,-225.862,-250.6,-51.222,-263.116,65.95,-173.302,-99.657
-273.189,-237.067,-253.777,-55.748,-265.728,58.832,-176.361,-100.662
-277.337,-243.693,-257.047,-61.47,-268.63,49.494,-181.288,-104.227
-279.042,-242.324,-254.851,-64.279,-270.26,44.464,-182.5,-106.12
-285.473,-241.214,-252.249,-67.189,-273.869,41.087,-183.822,-109.199
-294.359,-244.183,-252.989,-71.599,-277.993,36.267,-186.955,-113.517
-295.113,-245.732,-251.832,-73.389,-276.259,33.143,-186.645,-111.251
-289.63,-244.776,-245.958,-71.445,-269.807,34.417,-181.991,-102.475
-290.695,-247.933,-241.618,-71.402,-267.929,34.89,-182.07,-98.287
-301.25,-258.241,-245.361,-78.559,-276.155,27.373,-197.114,-104.81
-311.496,-269.134,-253.285,-88.732,-287.586,16.05,-218.643,-115.518
-313.825,-271.835,-255.914,-92.325,-291.5,12.016,-228.538,-121.831
-313.32,-269.587,-255.136,-91.016,-292.218,13.51,-235.502,-126.326
-319.389,-272.935,-258.977,-94.909,-299.693,9.62,-254.007,-133.237
-330.565,-281.385,-263.44,-102.984,-307.149,1.537,-265.272,-135.664
-337.137,-288.002,-260.729,-106.098,-303.793,-0.407,-253.476,-128.281
-334.979,-291.062,-253.905,-103.494,-294.25,5.82,-237.115,-117.58
-329.043,-290.077,-250.386,-101.934,-287.99,12.435,-232.44,-110.928
-325.747,-286.58,-252.093,-104.597,-285.306,12.484,-231.496,-108.148
-325.685,-285.269,-255.736,-107.54,-281.564,8.399,-226.079,-105.603
-325.484,-285.386,-258.464,-106.674,-276.659,7.56,-221.731,-102.163
-324.739,-283.338,-261.005,-104.414,-274.758,9.977,-224.653,-100.704
-324.764,-280.853,-262.279,-103.841,-274.992,10.303,-229.248,-102.234
-323.085,-279.384,-257.002,-102.034,-270.1,9.138,-224.898,-100.525
-318.238,-276.752,-245.841,-96.578,-259.119,10.355,-212.849,-91.464
-315.725,-274.283,-238.953,-91.27,-251.756,12.017,-206.513,-82.666
-319.017,-275.404,-240.907,-88.912,-253.047,10.642,-211.036,-81.562
-320.878,-277.354,-241.657,-84.703,-253.626,9.723,-214.242,-82.623
-314.553,-274.866,-232.015,-74.264,-244.769,13.92,-206.369,-78.604
-305.602,-269.12,-218.577,-74.347,-232.825,19.062,-195.711,-73.117
-302.578,-265.098,-212.762,-141.607,-227.705,17.867,-193.339,-71.652
-305.14,-264.52,-214.737,-321.112,-228.356,11.715,-196.178,-72.23
-307.395,-265.546,-216.437,-535.024,-227.877,8.039,-195.039,-70.714
-305.6,-265.58,-212.564,-640.475,-223.347,9.491,-187.713,-66.334
-301.153,-263.178,-204.999,-627.05,-217.24,12.282,-179.163,-61.623
-297.719,-258.802,-199.144,-590.355,-213.264,13.663,-176.003,-59.881
-296.197,-254.964,-197.119,-561.494,-211.993,15.67,-179.816,-60.705
-296.391,-255.746,-197.462,-524.939,-212.006,18.511,-183.772,-60.742
-300.334,-262.888,-199.745,-505.573,-213.64,17.175,-182.88,-60.246
-307.666,-272.03,-204.07,-521.834,-217.382,10.162,-182.113,-62.18
-313.323,-277.349,-208.732,-532.962,-220.87,2.577,-185.014,-65.84
-315.406,-278.747,-212.887,-503.465,-222.165,-1.738,-187.315,-69.767
-317.222,-279.967,-217.623,-465.848,-222.033,-2.921,-186.381,-75.513
-318.863,-281.82,-222.646,-467.37,-220.083,-2.295,-183.257,-81.754
-317.673,-282.25,-226.632,-495.662,-215.359,-2.135,-177.779,-83.634
-315.353,-281.479,-229.301,-502.179,-210.281,-4.706,-170.846,-80.708
-314.267,-281.085,-229.763,-472.827,-207.404,-8.926,-167.372,-77.43
-313.288,-281.1,-226.998,-443.71,-205.718,-11.901,-170.495,-76.421
-312.538,-282.56,-222.476,-450.743,-203.499,-13.575,-175.596,-76.474
-311.934,-284.74,-216.77,-477.82,-199.42,-13.612,-174.368,-73.606
-306.541,-280.666,-206.346,-475.144,-190.331,-8.712,-161.526,-62.99
-290.133,-262.573,-186.936,-424.031,-171.784,3.435,-136.724,-43.558
-260.661,-229.339,-158.071,-354.211,-143.301,24.204,-108.393,-18.085
-229.037,-195.143,-130.288,-307.49,-117.301,48.265,-95,5.015
-215.992,-183.813,-120.19,-302.859,-110.599,59.651,-104.444,11.688
-225.494,-198.458,-127.323,-322.407,-119.862,51.755,-118.802,1.095
-240.604,-217.399,-135.193,-331.993,-127.681,36.596,-120.999,-9.949
-250.947,-227.481,-137.07,-321.821,-129.666,24.421,-116.868,-13.614
-259.038,-233.785,-137.995,-310.521,-132.033,15.047,-116.672,-17.454
-263.761,-238.995,-138.211,-308.881,-133.97,9.085,-118.937,-23.951
-261.145,-238.896,-134.575,-304.499,-131.362,7.964,-120.008,-29.094
-258.018,-236.906,-132.21,-289.203,-129.259,4.779,-123.181,-35.289
-264.282,-241.96,-137.549,-274.829,-134.504,-8.252,-129.838,-45.509
-273.99,-250.723,-144.516,-270.038,-141.343,-24.703,-132.452,-52.702
-274.162,-251.206,-143.16,-266.117,-139.729,-31.386,-126.864,-49.579
-267.033,-244.077,-135.791,-255.705,-131.717,-28.601,-120.515,-41.681
-264.161,-241.332,-131.832,-244.592,-126.687,-28.303,-120.069,-40.358
-267.45,-246.397,-133.535,-238.315,-127.375,-35.29,-121.866,-47.797
-271.954,-252.891,-136.729,-234.817,-130.845,-44.366,-122.471,-57.878
-276.402,-257.691,-139.865,-231.979,-136.721,-51.688,-128.712,-67.819
-280.624,-261.368,-143.348,-228.229,-144.882,-57.393,-145.202,-78.819
-283.507,-263.312,-145.852,-220.979,-151.799,-62.582,-162.957,-88.799
-286.721,-264.942,-147.136,-212.163,-155.632,-69.15,-171.735,-94.005
-292.543,-270.446,-148.795,-207.419,-158.266,-78.576,-171.897,-96.109
-298.906,-279.043,-150.886,-206.925,-161.083,-89.343,-170.407,-100.451
-296.81,-278.548,-147.464,-199.006,-159.13,-92.746,-168.704,-102.673
-281.477,-261.064,-133.692,-174.412,-147.296,-82.077,-161.304,-92.715
-272.158,-248.089,-124.832,-151.52,-139.506,-74.605,-155.52,-82.568
-287.265,-262.806,-136.816,-152.674,-150.86,-90.521,-164.068,-91.198
-302.555,-281.576,-147.214,-157.532,-159.82,-109.111,-170.397,-99.97
-289.045,-270.273,-129.266,-136.029,-141.163,-100.408,-152.34,-82.417
-266.609,-246.054,-103.215,-104.89,-115.418,-79.778,-127.621,-56.945
-264.744,-242.843,-98.111,-92.399,-111.015,-75.001,-122.413,-51.637
-275.341,-254.414,-105.867,-90.601,-119.808,-80.521,-129.843,-58.5
-282.701,-260.563,-112.617,-85.835,-127.619,-84.547,-136.432,-62.659
-292.713,-266.923,-125.836,-86.954,-140.636,-95.087,-147.063,-71.021
-310.248,-283.517,-148.218,-98.458,-161.633,-115.877,-164.632,-89.186
-321.148,-296.05,-163.183,-103.217,-175.282,-130.317,-176.384,-103.035
-312.532,-287.141,-160.122,-87.391,-170.003,-125.178,-172.941,-99.166
-294.902,-269.185,-151.495,-62.172,-156.544,-111.821,-164.173,-86.637
-287.944,-267.211,-153.224,-47.545,-151.829,-108.593,-163.436,-82.599
-293.765,-280.234,-163.942,-46.468,-156.335,-115.119,-169.137,-87.638
-299.689,-288.385,-173.105,-46.495,-159.732,-118.818,-172.714,-90.715
-299.246,-285.971,-176.666,-39.225,-158.066,-116.13,-171.745,-88.273
-299.536,-284.954,-179.408,-30.354,-157.261,-116.453,-170.683,-87.592
-309.279,-294.105,-186.037,-30.18,-162.498,-128.487,-173.19,-94.208
-320.266,-304.085,-188.497,-33.23,-164.77,-142.421,-171.354,-98.928
-310.83,-295.226,-171.603,-17.941,-148.585,-134.339,-156.266,-85.129
-280.55,-266.952,-141.451,18.267,-120.692,-103.687,-141.585,-55.042
-259.21,-245.226,-124.573,45.923,-106.806,-82.582,-144.482,-34.321
-263.091,-246.024,-129.278,45.865,-113.463,-88.99,-156.992,-41.009
-276.307,-258.088,-140.959,31.727,-126.121,-107.52,-169.325,-66.692
-285.152,-270.378,-151.557,20.009,-137.538,-123.349,-185.016,-93.558
-292.25,-281.709,-161.504,12.638,-147.684,-135.91,-199.629,-112.113
-297.495,-285.774,-166.24,9.339,-152.029,-143.267,-203.062,-119.29
-295.956,-278.831,-162.267,11.383,-148.135,-142.176,-197.295,-115.397
-289.803,-271.1,-154.583,15.52,-140.758,-137.005,-191.062,-106.015
-283.716,-269.533,-147.403,19.581,-133.152,-132.786,-185.938,-97.111
-276.973,-267.56,-138.969,27.983,-124.038,-127.931,-178.137,-90.618
-269.513,-261.34,-130.164,41.894,-115.317,-121.241,-169.436,-86.958
-263.724,-255.018,-124.327,54.125,-110.551,-115.691,-164.433,-83.565
-257.762,-248.696,-119.014,59.649,-106.976,-112.423,-160.195,-75.059
-247.908,-238.396,-109.009,63.102,-98.746,-108.493,-149.252,-61.493
-234.962,-226.021,-93.86,72.244,-84.913,-101.352,-130.948,-49.102
-222.881,-217.427,-79.354,85.823,-71.219,-92.968,-116.177,-42.263
-215.305,-213.033,-73.131,93.474,-65.139,-87.902,-115.657,-40.264
-209.439,-206.058,-71.948,94.015,-62.979,-84.122,-118.95,-35.988
-192,-186.639,-58.038,104.727,-47.063,-69.905,-100.722,-17.304
-159.241,-154.878,-26.363,134.757,-13.27,-42.586,-59.83,15.055
-129.715,-126.322,2.565,166.507,16.533,-18.196,-26.098,41.867
-111.901,-106.93,19.352,187.234,31.509,-2.955,-14.104,57.2
-91.691,-85.605,38.422,206.549,46.341,16.132,-5.542,76.162
-67.111,-62.95,62.492,227.629,66.781,39.128,13.275,100.83
-50.521,-49.842,79.184,242.606,82.848,52.866,33.253,117.97
-39.382,-41.613,88.963,254.45,93.923,60.018,46.352,125.798
-23.685,-27.98,100.491,268.753,106.404,70.364,57.372,131.251
-8.571,-14.494,110.334,278.509,115.837,78.283,66.843,132.796
-4.705,-11.347,110.417,277.966,113.877,74.644,65.714,126.114
-11.335,-17.074,103.569,272.91,103.298,63.699,53.497,116.092
-19.681,-24.923,98.421,269.171,93.061,55.358,40.651,110.929
-21.897,-30.504,98.313,266.751,87.015,53.282,30.668,111.85
-17.295,-31.607,100.577,264.314,83.582,53.798,20.512,113.617
-14.927,-31.665,99.714,260.002,79.099,50.322,11.667,109.798
-20.335,-34.775,95.059,255.203,73.519,42.676,7.897,101.176
-19.527,-31.711,99.973,260.486,78.442,43.07,16.192,101.303
4.78,-8.999,128.445,284.625,106.082,63.271,45.224,123.207
43.405,27.228,169.979,317.839,146.231,96.129,86.575,159.478
69.296,53.393,196.156,337.71,171.483,118.433,111.774,184.651
72.298,55.602,195.107,334.153,170.121,116.299,106.603,183.648
66.384,44.963,183.669,321.244,158.788,101.304,92.436,170.397
64.388,38.709,180.241,316.589,155.695,91.788,93.318,165.435
63.376,37.806,182.415,317.895,157.72,88.634,102.395,167.864
57.198,35.684,178.75,312.097,152.811,81.084,99.482,164.377
49.484,32.401,169.374,299.629,142.066,67.485,85.092,153.659
46.498,29.03,162.348,292.843,136.778,57.525,77.993,146.24
43.651,21.517,153.561,292.2,136.514,53.676,81.935,143.552
32.972,8.042,132.955,286.112,129.195,47.746,79.169,135.116
20.275,-4.059,109.349,274.184,114.454,38.053,62.287,119.488
17.932,-5.15,100.886,267.669,105.68,30.667,46.773,109.052
25.2,4.689,107.48,270.196,108.64,27.769,45.957,109.921
29.53,13.44,114.481,273.496,114.152,26.603,53.147,113.248
24.212,8.863,113.976,269.211,112.887,23.439,55.526,110.797
16.688,-4.769,110.707,260.57,108.463,18.511,53.645,106.389
17.637,-9.2,111.394,257.995,109.56,17.03,55.852,105.781
25.514,1.364,114.124,260.992,113.653,18.682,59.899,105.538
30.663,12.443,114.119,259.92,112.572,16.618,58.087,101.588
34.516,17.705,117.259,258.637,112.141,14.958,57.716,101.485
48.225,28.927,132.418,270.285,125.145,26.33,72.017,114.539
69.257,46.767,151.992,289.568,145.754,46.213,93.384,133.478
80.645,54.814,160.639,298.407,155.77,56.834,102.635,142.81
78.012,51.221,159.189,295.511,153.178,55.297,99.303,141.873
75.209,50.857,159.562,293.491,150.927,52.988,97.734,140.977
78.1,53.771,162.844,294.578,152.82,53.662,100.913,141.009
77.943,49.16,161.579,291.771,151.999,51.985,100.815,136.029
75.71,44.061,158.891,287.589,149.896,49.375,99.152,129.74
81.808,49.936,164.174,289.662,154.702,51.572,104.32,130.157
90.31,56.318,171.725,290.932,161.675,52.407,110.769,132.334
86.442,50.079,167.979,279.573,158.553,43.395,106.856,125.456
74.595,40.285,156.828,263.479,148.413,33.418,97.96,113.971
71.707,41.894,153.653,258.659,144.995,34.66,97.413,111.511
81.394,53.559,160.497,262.855,150.567,41.224,103.667,116.89
92.258,63.734,166.003,262.254,155.238,40.511,104.749,117.169
95.252,66.902,163.324,253.337,152.605,32.106,95.743,109.095
93.238,66.485,157.126,243.576,146.804,24.889,83.831,100.306
94.658,66.687,156.411,239.462,146.636,25.413,81.086,97.693
101.487,67.464,163.546,241.432,154.372,32.816,90.131,102.454
108.52,68.523,172.299,245.927,163.225,41.348,101.01,110.308
114.942,74.034,179.007,251.071,169.471,47.542,108.559,117.823
125.578,86.66,187.036,258.215,177.445,52.477,117.914,126.354
138.511,100.401,195.576,264.333,186.999,55.343,128.299,134.219
145.925,108.572,197.748,262.266,190.887,52.182,132.081,135.741
149.201,114.757,194.882,254.594,189.903,46.344,131.371,133.011
156.772,125.655,196.734,252.914,193.545,48.917,136.439,135.37
167.303,136.091,204.174,258.284,202.597,60.519,148.354,144.907
172.628,136.227,208.314,260.315,208.008,68.628,157.993,153.612
172.524,130.301,206.194,256.125,206.121,68.052,159.978,154.915
171.954,130.212,203.07,251.358,201.807,64.781,157.461,150.477
173.144,138.641,203.457,248.227,200.422,62.592,156.135,146.446
176.722,149.384,207.051,245.616,202.548,61.981,157.879,146.374
180.783,154.62,209.611,242.575,204.131,63.709,159.378,147.935
182.011,152.848,209.021,238.779,203.143,66.541,158.886,147.424
182.863,150.623,209.88,236.44,203.878,68.964,160.413,145.897
188.218,151.424,216.111,237.742,209.56,71.513,166.127,148.001
196.826,154.642,224.698,241.308,217.296,75.295,172.751,155.659
205.082,162.945,231.956,245.018,224.322,81.182,178.805,165.056
211.991,175.194,237.501,247.473,230.594,87.567,185.473,171.031
217.655,184.397,241.426,247.376,235.579,91.166,191.711,173.557
223.422,190.555,245.077,246.432,239.941,93.816,197.222,177.177
231.163,200.526,251.074,247.944,246.169,100.021,204.399,183.927
240.765,214.167,258.959,250.832,254.021,107.124,212.78,190.769
250.242,223.57,265.833,251.791,260.859,109.35,219.534,195.223
258.587,227.702,272.272,252.633,267.549,110.071,226.192,199.658
266.527,232.61,280.256,256.364,276.171,115.986,234.852,205.521
272.246,235.96,285.257,257.43,281.763,121.609,238.891,206.486
274.439,234.354,283.446,250.571,280.026,119.24,233.121,198.639
278.887,237.594,282.529,244.114,278.867,116.913,227.573,191.785
288.864,250.405,289.259,246.528,285.411,123.431,232.268,194.995
297.412,259.665,297.18,251.6,293.149,130.495,241.148,202.261
300.553,259.252,300.105,252.476,296.002,129.971,246.73,206.667
304.69,262.531,303.013,254.2,299.165,129.705,252.576,212.268
313.954,275.329,310.433,261.038,306.74,137.565,261.546,221.44
324.105,284.504,319.064,268.235,315.22,148.815,270.432,229.173
331.86,285.129,326.522,272.643,322.777,157.094,278.792,234.425
338.53,289.203,333.821,276.443,330.417,162.147,287.774,240.449
344.715,301.239,339.534,279.852,335.902,165.549,293.656,245.52
349.188,311.216,341.526,281.023,337.012,168.079,293.195,245.529
352.522,313.979,342.168,280.674,337.114,170.896,291.048,242.829
357.159,316.206,345.263,280.332,340.364,175.163,293.752,243.168
361.633,320.379,348.372,276.818,343.366,177.671,298.201,244.725
361.284,320.117,345.686,266.215,339.89,173.386,296.07,240.919
358.811,317.013,340.003,253.811,333.677,166.464,289.666,234.291
362.206,321.527,340.094,247.451,333.989,165.993,289.256,233.297
370.114,333.184,345.454,245.504,339.466,170.883,295.14,236.659
372.647,337.637,347.283,243.205,340.767,172.532,297.671,235.819
366.202,327.494,343.103,240.378,336.054,167.98,293.34,229.474
358.114,314.546,338.785,238.081,331.617,161.388,288.852,223.841
356.525,313.749,337.739,236.073,330.402,156.103,289.314,222.019
360.819,323.632,337.297,234.07,329.414,151.61,291.04,221.364
364.729,331.948,335.452,232.365,326.804,147.614,289.408,219.41
364.576,332.624,332.595,229.875,323.129,144.357,285.309,216.008
360.47,327.052,327.544,225.031,317.255,140.011,280.329,211.067
355.591,318.529,321.643,221.138,310.375,135.052,276.71,207.002
356.535,315.211,322.233,223.132,309.649,134.846,280.61,209.238
365.891,323.302,332.086,228.767,318.021,141.986,293.652,217.79
376.858,334.97,343.774,232.967,328.159,152.629,307.793,226.405
382.395,340.41,350.202,235.935,332.695,161.595,314.943,231.608
383.157,342.346,351.471,238.579,332.022,165.299,314.417,233.52
382.722,345.757,350.678,238.99,330.243,163.534,310.784,232.102
381.393,347.923,348.828,236.55,328.723,159.453,308.242,228.592
376.872,345.308,343.725,230.659,324.457,153.297,305.565,224.335
368.435,338.315,333.549,219.697,314.491,142.94,298.247,217.916
357.551,326.542,319.446,205.43,299.448,130.886,285.204,207.498
344.807,309.042,302.878,189.707,281.446,118.36,269.012,193.028
331.392,291.263,287.01,172.372,264.773,102.503,254.633,177.946
322.778,282.243,279.138,159.855,256.75,89.354,248.111,169.078
322.609,282.645,280.717,158.695,258.191,87.624,247.704,167.706
324.219,283.594,280.955,159.929,258.673,89.852,243.484,165.36
318.012,278.188,271.197,151.961,250.009,84.116,231.774,155.702
305.497,268.95,256.962,139.892,236.776,73.906,219.382,143.612
296.953,263.436,248.27,133.999,228.299,68.917,213.588,137.837
297.335,264.781,247.354,134.249,227.852,69.728,215.136,139.852
302.303,268.955,250.356,136.351,232.46,71.925,219.038,143.835
306.264,270.759,253.303,138.502,237.107,74.405,220.137,144.92
308.25,269.827,253.947,138.823,238.177,77.508,218.078,143.251
309.419,269.79,252.09,135.458,236.064,79.454,216.068,141.129
307.69,271.062,248.197,128.454,232.762,77.473,215.214,139.105
300.312,268.804,242.021,120.127,228.169,71.441,213.185,135.944
292.162,262.533,235.503,116.15,223.318,66.207,209.928,132.93
291.682,259.538,233.131,119.802,222.369,66.763,209.524,133.975
298.048,263.97,235.886,125.397,226.604,71.468,213.615,138.622
302.441,270.234,238.684,126.394,231.22,74.402,217.629,140.651
300.008,269.7,235.314,122.802,230.039,71.992,215.057,135.625
294.465,262.182,226.253,117.379,223.098,66.389,205.563,126.776
293.144,257.568,220.219,114.294,218.693,63.884,198.228,122.592
297.468,260.974,222.609,116.804,222.752,67.058,201.131,127.155
300.37,264.811,227.588,121.829,230.134,71.535,210.546,134.983
297.279,263.596,227.659,123.19,232.859,72.422,216.501,138.136
291.499,260.998,221.676,117.863,228.797,67.24,212.418,133.276
286.172,257.857,212.025,107.621,220.423,56.644,198.836,121.803
281.53,251.625,203.282,98.199,213.18,47.251,184.832,110.002
278.098,244.735,199.226,92.772,210.885,44.521,179.435,104.912
276.265,241.411,198.005,88.761,211.025,45.027,180.653,105.898
276.204,242.74,196.794,86.198,210.639,44.527,181.837,106.917
278.353,247.35,196.674,88.827,211.153,44.724,181.909,105.819
280.607,250.458,197.183,93.505,212.329,45.677,181.661,103.934
278.525,246.66,194.281,91.741,210.087,42.823,179.451,101.126
273.347,240.009,189.01,84.382,205.625,37.606,177.277,99.263
271.596,239.917,187.112,80.59,205.351,37.655,180.355,102.47
271.696,243.36,186.285,80.516,207.113,41.618,185.116,107.388
266.36,239.496,179.585,76.353,202.783,40.209,182.312,105.858
257.911,229.539,170.312,69.306,194.245,32.744,173.034,98.424
252.778,222.832,165.612,66.537,188.756,26.304,165.396,91.527
248.273,220.823,161.959,66.017,184.379,21.912,159.963,85.789
239.882,218.404,152.383,60.666,175.015,15.338,151.843,77.859
230.697,213.204,138.948,51.272,162.076,6.925,140.756,67.788
225.304,207.816,128.112,44.063,151.554,0.648,130.709,58.487
222.984,204.422,122.036,39.946,145.763,-2.378,124.542,52.6
220.142,199.682,119.501,33.969,143.324,-2.898,122.536,51.16
216.166,191.968,119.273,24.545,142.879,-0.627,122.689,51.79
213.059,186.599,118.6,14.751,142.116,1.492,120.601,49.697
210.763,185.672,114.416,5.407,138.21,-1.834,114.209,43.952
208.182,185.054,108.905,-3.897,133.07,-8.597,108.508,39.492
206.244,184.048,107.031,-10.404,131.535,-11.345,108.804,39.456
205.207,184.6,107.944,-12.907,133.055,-9.443,112.06,40.276
201.003,182.457,104.74,-16.538,131.021,-10.852,110.809,36.647
191.146,173.326,94.851,-24.959,122.44,-19.869,103.465,28.745
181.261,163.382,84.842,-33.895,112.985,-29.796,95.515,21.509
176.071,159.101,79.595,-40.05,107.596,-34.127,90.73,17.052
172.031,156.065,76.097,-46.104,104.215,-35.709,87.827,13.88
167.047,149.83,72.776,-51.958,101.468,-37.378,85.969,12.054
165.211,145.071,72.281,-53.539,101.503,-36.616,85.974,11.698
167.455,145.89,73.47,-51.724,103.383,-34.008,86.637,10.072
169.53,149.105,73.308,-50.818,104.457,-33.769,87.059,6.884
169.746,151.247,72.886,-50.765,105.29,-35.891,88.367,5.772
169.003,152.882,72.038,-50.403,105.255,-37.745,88.139,5.702
167.065,155.303,68.511,-50.573,102.485,-38.303,83.928,2.749
165.122,157.801,65.89,-49.38,100.867,-36.077,81.325,0.144
164.55,156.936,67.973,-45.117,103.874,-31.624,84.445,1.752
161.652,149.431,68.806,-42.781,105.418,-31.407,86.411,1.964
152.712,137.368,61.614,-48.12,99.213,-39.977,80.596,-5.422
142.773,127.628,51.019,-56.854,90.006,-50.853,71.706,-15.787
140.968,126.343,46.896,-57.891,87.099,-53.127,69.109,-18.842
151.215,137.054,53.721,-46.155,94.621,-43.134,77.348,-9.582
170.461,159.129,69.279,-26.286,110.506,-25.075,94.16,8.223
187.846,180.972,84.022,-9.18,125.452,-8.67,109.288,23.112
192.206,186.78,87.115,-4.803,128.899,-3.862,111.947,24.867
186.141,176.676,79.931,-11.639,122.289,-9.959,104.945,17.058
179.355,164.376,71.693,-19.448,114.373,-17.999,99.029,10.938
174.215,157.589,65.981,-22.342,108.193,-22.664,97.518,10.316
171.652,156.446,63.962,-20.452,105.183,-22.539,99.216,13.227
175.263,161.1,67.628,-15.161,108.218,-17.096,104.411,18.303
181.412,169.054,72.693,-9.519,113.496,-10.212,110.028,22.436
183.293,175.392,73.686,-5.332,115.209,-6.585,111.969,23.127
182.978,178.477,73.825,-0.18,116.028,-4.398,112.548,23.686
185.312,179.195,77.243,6.253,119.989,-0.476,115.677,27.748
188.533,179.173,80.749,10.581,123.912,3.162,119.494,32.585
189.172,180.409,81.043,12.416,124.108,4.46,120.017,33.743
187.222,181.492,79.375,13.689,121.482,4.554,116.861,31.142
182.136,176.609,75.334,12.987,115.824,1.996,110.817,25.486
173.208,164.273,67.335,8.821,106.11,-5.458,102.29,16.541
164.99,153.263,59.492,5.274,97.059,-12.814,94.998,8.678
161.122,150.384,56.186,5.526,93.354,-14.703,92,6.469
158.571,151.078,55.601,6.749,92.757,-14.379,90.86,6.908
156.407,151.377,56.477,7.826,93.122,-14.783,90.061,6.615
157.673,154.121,59.862,10.874,95.08,-13.177,90.933,7.463
161.112,158.784,63.757,14.778,97.034,-9.29,92.72,10.212
162.113,159.233,64.754,15.782,96.282,-7.129,92.865,11.251
157.729,152.066,60.67,11.333,91.346,-10.026,88.644,6.422
149.554,141.771,53.099,4.124,84.148,-16.678,81.283,-2.094
145.145,137.933,49.584,2.661,81.448,-20.344,78.291,-5.552
148.363,143.506,53.109,9.234,85.064,-18.199,81.608,-2.025
151.672,148.903,55.143,14.128,86.452,-17.064,82.082,-0.575
148.907,146.298,50.774,11.678,81.343,-20.732,75.752,-5.084
144.636,140.807,47.064,8.439,76.729,-23.526,70.634,-8.885
144.02,139.395,49.008,9.505,77.444,-22.039,72,-8.062
145.372,140.381,51.833,11.867,79.387,-19.96,74.996,-6.429
144.008,138.679,49.138,11.125,76.47,-21.622,72.381,-9.177
138.069,134.112,41.354,6.057,68.632,-27.288,64.081,-16.402
131.192,131.467,35.328,0.219,62.795,-32.171,58.346,-21.644
127.413,132.073,34.789,-1.566,62.929,-32.027,60.236,-20.528
125.4,130.899,36.2,0.854,64.797,-28.652,64.779,-16.717
121.989,125.61,35.853,3.823,64.29,-26.469,65.157,-15.311
115.344,118.319,31.398,2.353,59.786,-29.427,58.431,-18.956
105.167,109.726,20.81,-6.222,49.487,-38.589,45.67,-28.352
96.66,102.744,9.498,-15.768,37.919,-46.984,33.757,-38.708
95.177,101.612,6.425,-17.52,33.615,-46.66,30.054,-42.624
97.116,104.13,10.812,-12.633,36.345,-40.457,34.364,-38.631
98.96,107.494,16.334,-6.777,40.45,-34.564,42.061,-30.595
103.414,112.815,20.914,-0.627,44.175,-28.492,49.304,-22.822
109.568,118.522,24.721,6.071,47.57,-21.305,53.803,-17.754
112.699,121.623,28.078,11.453,50.461,-15.789,56.435,-14.429
112.163,122.298,31.355,13.929,52.909,-13.358,59.048,-11.398
111.357,122.317,33.979,13.895,54.398,-12.249,60.618,-9.9
112.333,122.712,35.125,13.282,54.169,-11.402,59.464,-11.146
112.053,122.561,33.951,12.451,51.609,-11.67,56.595,-13.75
107.803,120.988,31.282,11.615,48.042,-11.783,55.35,-14.887
102.697,118.392,29.773,11.912,46.099,-10.262,57.003,-13.683
99.652,113.245,29.477,11.466,44.948,-10.106,58.101,-12.859
97.599,104.661,28.438,9.067,42.355,-12.756,55.995,-14.725
95.156,97.361,26.403,7.588,39.062,-14.925,52.095,-18.098
92.313,96.729,23.885,8.075,35.907,-15.44,47.664,-21.244
91.031,102.616,21.832,9.757,32.855,-15.043,43.78,-23.585
93.023,109.993,21.23,13.072,30.87,-13.103,42.593,-24.338
95.235,112.315,20.403,15.788,29.512,-10.922,43.124,-23.661
94.006,108.019,17.858,14.781,27.194,-10.53,42.216,-22.949
91.271,102.802,15.662,12.055,24.58,-11.04,40.059,-22.529
90.445,100.835,15.583,11.533,23.453,-11.1,39.37,-21.881
91.439,100.43,16.939,13.827,24.3,-10.382,41.246,-20.957
91.279,99.42,17.089,15.363,24.572,-10.352,41.996,-21.566
88.141,98.221,13.307,12.122,20.912,-13.43,36.989,-25.706
85.553,99.01,8.668,7.119,16.486,-16.92,30.759,-29.592
86.267,101.33,8.446,6.96,16.949,-15.635,31.823,-28.268
85.435,99.928,9.816,10.971,19.022,-11.469,37.122,-26.413
79.362,93.772,6.562,13.748,15.845,-10.113,36.641,-31.465
72.906,90.196,0.36,14.014,9.481,-11.314,30.086,-40.01
71.644,92.172,-1.908,14.383,7.447,-10.537,26.144,-42.977
75.346,93.884,2.432,17.275,12.175,-6.177,29.561,-38.042
82.207,94.564,11.172,23.477,21.012,0.387,38.752,-28.31
90.909,99.775,20.861,31.436,30.636,7.583,50.673,-16.863
97.439,107.454,27.218,37.822,37.044,13.391,60.444,-7.895
99.322,111.261,28.465,41.754,38.553,17.158,63.503,-4.612
100.518,112.883,28.696,45.852,39.367,21.717,62.174,-4.155
101.479,113.238,29.659,48.921,41.177,26.652,61.085,-2.65
94.205,105.049,25.808,45.527,37.93,25.216,58.51,-2.623
78.651,88.924,16.453,37.213,28.579,16.722,52.703,-6.837
66.789,76.974,9.185,31.42,20.945,9.638,47.297,-12.046
63.242,74.118,6.572,28.994,17.814,7.693,43.318,-15.533
61.407,74.689,4.333,25.976,14.933,6.894,38.087,-18.264
57.636,74.047,0.583,22.336,10.623,4.662,31.643,-20.768
53.438,71.107,-3.568,19.08,6.195,1.748,25.879,-23.587
49.101,65.439,-7.997,14.977,1.832,-1.37,21.411,-28.228
44.131,58.022,-13.044,10.411,-2.821,-5.377,17.695,-34.036
40.375,52.551,-17.261,7.691,-6.663,-10.394,14.294,-37.627
40.717,52.522,-17.78,8.785,-7.403,-12.754,12.623,-36.664
44.306,56.425,-14.195,14.287,-4.655,-8.01,14.46,-32.598
45.919,58.734,-10.55,20.847,-1.805,-0.151,18.069,-28.539
43.074,56.882,-10.582,22.963,-2.153,2.033,19.646,-26.053
40.566,55.511,-12.379,21.014,-4.01,-0.473,18.936,-24.999
43.353,59.596,-11.288,21.151,-3.041,0.697,19.422,-23.9
47.685,64.202,-7.892,24.093,0.228,4.82,21.967,-21.845
46.31,61.537,-7.614,24.05,0.392,4.116,22.539,-21.202
39.396,54.385,-12.084,20.137,-4.516,-0.533,18.095,-24.627
32.316,49.077,-17.348,17.457,-10.541,-1.978,11.269,-30.267
29.139,45.821,-18.775,19.002,-12.433,1.263,8.513,-32.15
32.105,44.671,-14.463,23.702,-8.151,6.135,13.852,-25.506
38.699,47.094,-8.046,28.097,-1.926,10.015,22.804,-14.534
42.795,51.967,-5.594,29.077,0.184,11.793,26.462,-9.714
43.954,57.955,-6.625,28.616,-0.652,13.661,24.007,-12.301
46.887,62.83,-5.429,30.821,1.157,17.894,22.992,-12.91
51.99,62.537,-1.184,33.474,5.614,21.278,26.239,-8.277
55.859,58.725,2.585,32.677,8.99,21.142,29.932,-3.873
57.698,58.455,6.179,32.189,11.843,22.362,33.525,-0.712
58.11,61.823,11.155,35.69,15.838,28.141,38.624,3.86
56.345,61.811,13.975,38.329,17.877,32.206,41.886,6.734
52.999,57.702,11.672,36.221,15.603,29.578,39.989,4.472
50.956,55.385,7.587,33.406,11.933,24.915,35.374,0.21
51.247,55.989,5.193,33.202,9.366,23.548,31.27,-2.94
52.456,57.452,4.386,33.908,7.994,25.271,28.875,-4.607
54.776,61.949,6.053,35.649,9.561,29.858,29.893,-2.422
58.334,69.386,10.753,39.711,14.582,36.746,34.153,4.295
59.274,71.934,14.061,41.878,18.165,40.439,37.218,9.855
54.944,65.741,11.868,38.202,16.218,37.286,35.834,9.776
49.751,58.545,7.767,33.876,12.197,33.152,33.156,8.184
48.657,57.281,8.045,35.546,12.009,35.264,34.492,10.75
50.032,59.442,12.55,40.67,15.937,41.65,39.902,15.799
50.533,60.238,16.032,42.842,19.31,44.913,44.308,18.283
49.476,57.584,14.647,39.838,17.558,41.146,42.769,16.484
47.339,53.478,9.931,34.39,11.163,34.175,36.271,12.791
45.874,52.658,7.778,31.728,6.107,31.717,31.778,11.31
47.273,55.502,11.177,33.737,6.529,35.502,33.094,13.135
51.639,58.732,16.976,37.702,10.617,40.938,37.144,15.569
56.024,60.278,20.462,40.289,13.65,44.481,39.541,16.469
56.105,58.319,19.238,38.567,11.773,44.154,37.966,15.222
50.309,52.884,14.149,32.391,5.208,39.132,33.233,11.648
42.36,48.321,8.508,26.866,-1.991,33.596,28.808,7.762
38.438,48.57,5.563,26.916,-6.13,33.783,27.335,7.428
40.466,51.759,5.676,30.616,-6.919,38.376,28.32,10.747
44.495,54.05,6.643,32.943,-6.261,39.942,29.578,13.097
47.492,56.247,7.185,33.974,-5.187,37.562,30.042,12.638
50.899,60.796,8.265,37.194,-3.57,37.845,30.118,12.814
55.802,66.241,10.913,42.046,-1.29,42.365,30.514,15.806
59.455,69.627,13.769,44.088,1.035,45.047,31.045,18.373
58.808,70.594,13.332,41.088,1.108,42.439,29.341,15.81
54.954,70.649,7.778,35.144,-3.131,37.279,23.142,8.455
52.092,70.486,0.412,29.911,-9.242,33.357,15.241,1.697
53.351,70.275,-2.425,28.728,-11.106,33.095,12.69,0.36
59.073,72.638,2.482,33.647,-5.418,37.854,19.669,6.185
68.89,81.326,13.077,43.803,5.901,47.629,33.739,18.674
82.264,95.45,25.116,55.638,18.807,60.132,48.528,33.892
93.863,107.915,33.255,64.09,27.849,69.646,57.398,44.181
94.898,111.996,32.827,65.152,28.163,70.63,57.412,44.929
85.529,109.183,25.874,60.853,21.972,64.954,52.358,40.001
78.327,107.026,21.954,59.294,18.972,61.577,50.709,37.899
82.697,109.044,28.556,65.585,26.331,66.862,58.285,44.555
94.491,113.559,42.974,76.215,40.98,78.525,72.058,58.297
109.241,123.365,60.55,89.722,58.323,94.427,87.72,75.419
129.542,142.221,82.22,111.067,79.606,117.311,106.759,96.458
147.878,160.004,101.753,133.398,98.741,139.554,123.852,115.522
148.918,162.961,106.116,139.844,102.655,145.374,126.935,120.625
136.494,155.812,97.641,131.261,93.675,136.85,117.541,112.949
127.881,151.703,90.289,123.055,85.622,129.483,107.144,103.74
124.636,149.477,86.065,118.037,80.425,125.285,98.394,95.955
114.972,137.297,77.075,108.057,70.883,115.647,87.858,86.158
96.594,112.456,63.064,93.387,57.359,100.841,76.754,75.434
79.675,88.72,51.917,82.47,47.091,89.597,69.546,68.293
71.801,79.444,47.883,78.772,43.536,86.098,68.246,66.325
69.671,79.454,47.443,77.338,43.306,85.867,70.334,67.012
66.961,77.341,46.081,73.971,41.907,84.294,70.917,67.247
62.573,73.272,42.973,70.751,38.139,82.329,67.038,65.39
56.369,68.649,37.365,68.288,31.694,79.805,59.108,59.837
46.503,57.848,28.307,62.75,22.472,73.638,49.579,50.691
34.657,41.713,17.837,53.453,12.192,64.48,39.814,41.607
26.201,30.374,8.661,43.792,2.698,55.433,28.79,34.749
24.267,28.218,2.455,36.646,-4.14,48.091,18.114,28.678
24.682,27.77,-1.029,31.933,-7.994,42.665,10.852,22.028
19.225,20.582,-5.915,26.585,-13.186,37.239,4.05,14.001
7.557,8.476,-14.079,19.489,-21.827,30.462,-4.9,5.675
-4.235,-3.115,-22.435,11.695,-30.58,22.874,-12.471,-0.821
-17.834,-17.5,-32.481,-0.127,-40.997,11.773,-20.439,-9.719
-37.427,-38.025,-48.37,-18.621,-57.549,-5.248,-35.081,-26.379
-58.122,-57.821,-66.804,-38.195,-76.673,-23.414,-53.332,-45.976
-74.116,-71.798,-81.951,-52.806,-92.082,-36.904,-67.218,-60.364
-82.472,-80.977,-90.393,-60.851,-100.653,-43.929,-73.114,-66.269
-78.877,-82.387,-88.807,-60.561,-99.665,-43.61,-70.095,-63.068
-67.326,-75.904,-80.405,-53.83,-92.161,-38.414,-62.693,-55.367
-62.571,-72.316,-76.844,-50.372,-89.211,-36.611,-61.546,-52.832
-69.878,-77.975,-82.498,-56.105,-95.172,-42.265,-69.813,-58.392
-77.904,-85.321,-88.293,-64.253,-101.294,-48.543,-78.164,-65.28
-78.995,-86.534,-88.328,-67.429,-101.719,-49.681,-80.029,-68.515
-78.685,-84.047,-87.791,-68.148,-101.275,-49.869,-79.162,-68.985
-81.236,-84.994,-89.882,-69.679,-102.788,-52.865,-78.62,-67.524
-82.369,-89.983,-89.679,-69.33,-101.632,-54.568,-74.853,-63.542
-79.421,-91.53,-84.359,-65.847,-95.477,-51.139,-65.437,-57.474
-77.538,-87.528,-79.483,-63.356,-89.737,-46.187,-55.302,-51.636
-82.057,-86.384,-81.95,-66.406,-91.363,-46.858,-53.552,-50.96
-90.829,-92.096,-91.033,-74.788,-100.527,-54.58,-63.704,-58.591
-97.941,-98.776,-99.504,-83.015,-110.167,-62.147,-76.99,-68.189
-101.923,-104.388,-103.141,-86.549,-114.594,-63.703,-82.808,-71.165
-106.027,-112.823,-104.755,-86.656,-115.761,-62.318,-83.204,-69.802
-111.782,-121.068,-107.4,-85.987,-118.076,-61.889,-85.111,-70.101
-117.599,-122.772,-110.128,-85.23,-121.631,-61.385,-87.271,-70.71
-121.98,-121.317,-111.745,-85.232,-123.935,-60.575,-86.358,-69.292
-123.952,-122.305,-112.69,-86.101,-124.203,-60.871,-85.083,-68.423
-123.249,-122.844,-112.766,-85.944,-122.995,-61.277,-85.797,-69.149
-121.506,-120.669,-111.379,-84.45,-120.68,-60.678,-85.257,-68.141
-121.285,-120.538,-110.204,-84.549,-118.852,-61.069,-82.258,-64.904
-122.88,-123.765,-110.845,-86.72,-118.958,-63.17,-80.73,-62.76
-123.002,-123.791,-110.888,-85.865,-118.674,-62.74,-81.293,-61.567
-119.531,-117.345,-107.97,-79.883,-115.484,-57.7,-80.843,-59.122
-115.026,-109.942,-104.018,-74.508,-111.04,-52.89,-79.326,-56.626
-110.933,-106.105,-100.183,-72.529,-106.436,-50.94,-76.946,-54.531
-105.563,-103.619,-95.055,-69.761,-100.636,-48.471,-72.398,-51.176
-102.236,-101.595,-92.052,-67.294,-97.709,-46.662,-70.318,-50.292
-105.607,-102.228,-95.81,-70.952,-102.259,-51.213,-76.487,-56.417
-109.822,-103.756,-100.308,-76.419,-107.169,-58.242,-84.614,-63.435
-107.328,-104.121,-97.104,-74.269,-103.172,-57.722,-84.577,-62.865
-102.422,-104.853,-90.788,-67.39,-95.146,-51.361,-79.308,-57.968
-102.714,-106.022,-90.671,-65.62,-93.231,-49.158,-78.763,-57.599
-106.893,-106.892,-95.28,-69.13,-96.747,-52.14,-83.553,-62.372
-108.823,-108.309,-97.321,-70.697,-98.423,-53.643,-86.347,-65.236
-108.116,-110.671,-96.771,-68.638,-97.345,-52.437,-85.37,-63.585
-109.726,-112.952,-99.034,-68.123,-98.497,-53.557,-86.238,-63.308
-114.443,-113.999,-104.323,-71.976,-102.805,-58.591,-91.328,-67.885
-117.923,-115.42,-107.186,-76.548,-105.41,-62.652,-95.338,-71.652
-117.129,-118.354,-104.396,-77.79,-102.644,-61.639,-92.495,-68.653
-112.655,-119.352,-98.668,-76.868,-96.546,-57.892,-84.95,-62.004
-108.382,-117.326,-95.106,-76.417,-92.272,-55.854,-80.691,-59.59
-108.47,-116.001,-95.671,-76.558,-92.298,-56.249,-83.205,-63.517
-112.447,-117.38,-99.086,-78.469,-95.658,-58.603,-89.307,-69.477
-115.039,-119.888,-102.671,-82.637,-99.545,-62,-94.175,-72.824
-111.701,-119.512,-101.776,-83.429,-98.845,-62.137,-93.326,-71.033
-103.575,-113.985,-94.446,-77.418,-91.33,-57.687,-86.823,-65.012
-96.557,-107.85,-87.029,-71.702,-83.703,-54.557,-82.45,-59.927
-96.143,-107.7,-87.237,-73.651,-84.167,-56.464,-86.091,-60.804
-100.997,-112.697,-92.353,-79.475,-90.032,-59.093,-91.947,-64.988
-103.696,-115.516,-93.742,-81.725,-92.261,-58.364,-92.521,-65.283
-102.15,-113.524,-91.548,-81.885,-90.79,-57.791,-91.813,-62.569
-101.25,-111.591,-92.384,-84.889,-92.442,-61.291,-96.496,-63.915
-101.46,-111.684,-96.069,-88.165,-96.681,-65.604,-103.133,-69.051
-100.538,-111.22,-98.414,-87.937,-98.493,-67.12,-105.874,-72.535
-102.182,-111.84,-100.727,-87.778,-99.789,-67.887,-106.909,-74.848
-107.75,-115.586,-104.196,-90.476,-103.232,-69.271,-108.387,-77.492
-109.34,-117.353,-103.49,-90.609,-103.135,-67.631,-105.057,-75.55
-102.434,-113.367,-96.012,-84.106,-95.21,-61.341,-95.335,-66.962
-94.35,-107.822,-89.01,-77.263,-86.674,-56.163,-88.083,-59.466
-93.027,-104.556,-89.682,-77.665,-86.287,-57.487,-89.909,-59.951
-96.021,-102.113,-94.823,-82.587,-91.342,-61.701,-95.116,-64.075
-95.794,-98.79,-96.316,-84.022,-92.709,-61.484,-94.323,-62.782
-89.708,-95.436,-91.131,-79.471,-86.824,-55.591,-85.967,-54.888
-82.07,-93.874,-82.926,-73.604,-77.924,-49.257,-75.566,-47.589
-79.084,-95.282,-77.397,-71.611,-72.293,-46.681,-68.48,-45.694
-81.738,-98.592,-76.103,-72.656,-71.496,-46.9,-65.571,-45.851
-85.992,-101.203,-76.376,-73.478,-72.397,-48.657,-64.988,-43.827
-89.421,-101.763,-77.267,-74.745,-73.768,-52.275,-66.892,-41.753
-92.639,-100.626,-80.69,-78.441,-78.096,-56.378,-73.726,-44.507
-96.539,-99.602,-87.66,-84.503,-86.684,-61.061,-85.592,-53.556
-101.662,-102.181,-96.949,-91.945,-97.486,-68.647,-99.034,-66.498
-107.649,-109.344,-105.598,-98.57,-106.793,-76.524,-109.151,-77.911
-112.126,-115.99,-109.727,-100.771,-110.68,-78.651,-111.102,-81.2
-112.859,-117.276,-108.15,-97.594,-108.631,-75.123,-105.244,-75.815
-110.721,-114.438,-104.61,-93.177,-105.332,-71.537,-99.091,-69.252
-107.498,-110.169,-102.956,-90.939,-104.415,-69.352,-97.959,-67.313
-103.661,-105.766,-102.865,-89.2,-104.545,-66.028,-99.127,-67.941
-101.937,-104.786,-104.063,-88.344,-105.46,-64.203,-100.246,-68.782
-106.468,-109.372,-109.009,-93.693,-110.201,-68.985,-105.179,-73.424
-114.512,-113.915,-115.823,-103.675,-116.848,-76.931,-113.812,-81.58
-117.77,-112.976,-116.419,-107.513,-117.159,-79.323,-115.961,-83.272
-113.605,-108.767,-107.95,-100.979,-108.556,-74.445,-106.648,-74.63
-107.535,-104.521,-98.636,-92.546,-99.63,-68.539,-96.373,-66.217
-105.589,-101.844,-96.814,-90.995,-98.599,-67.125,-95.205,-66.047
-106.845,-102.272,-99.479,-94.775,-101.935,-69.306,-98.649,-68.682
-105.171,-103.639,-98.27,-96.27,-101.418,-69.95,-98.154,-67.353
-99.855,-103.066,-93.156,-93.609,-97.406,-67.502,-94.333,-64.416
-96.407,-101.269,-90.078,-91.127,-95.353,-65.46,-92.185,-64.386
-96.081,-98.171,-89.654,-90.522,-95.611,-65.56,-92.462,-66.231
-95.189,-93.109,-89.072,-90.349,-96.024,-66.673,-93.781,-67.806
-92.674,-88.965,-88.684,-89.972,-97.216,-67.884,-96.242,-70.313
-91.947,-89.563,-90.387,-90.947,-100.712,-69.478,-100.138,-74.635
-95.726,-94.172,-94.163,-95.187,-106.245,-72.668,-104.208,-78.464
-100.83,-96.945,-97.615,-99.94,-111.12,-76.322,-105.958,-79.41
-102.316,-95.309,-98.695,-100.801,-112.945,-77.264,-105.239,-78.628
-101.012,-94.179,-98.139,-98.859,-112.825,-74.955,-104.831,-78.641
-100.761,-95.706,-97.241,-97.446,-112.778,-71.33,-104.842,-79.141
-101.523,-95.598,-95.221,-96.403,-112.195,-67.965,-102.221,-77.519
-100.827,-93.757,-91.697,-94.595,-110.464,-65.719,-97.819,-72.935
-99.111,-94.638,-89.625,-93.129,-109.916,-64.88,-96.391,-68.551
-98.076,-96.349,-90.966,-92.684,-111.609,-64.762,-97.869,-67.328
-95.705,-93.085,-91.718,-91.125,-111.941,-63.749,-97.209,-67.254
-89.008,-86.036,-86.953,-85.843,-107.565,-59.766,-92.787,-64.805
-80.505,-80.489,-78.388,-78.066,-100.165,-53.157,-87.168,-60.022
-76.629,-77.97,-72.457,-73.417,-94.419,-49.198,-82.765,-55.825
-80.018,-78.968,-72.334,-75.753,-93.238,-52.35,-81.712,-55.272
-86.611,-84.689,-75.165,-81.629,-95.397,-58.858,-84.592,-58.445
-90.925,-92.365,-77.325,-84.596,-97.682,-61.859,-87.887,-61.65
-91.951,-96.584,-78.114,-82.99,-98.21,-60.564,-87.543,-61.719
-92.322,-96.373,-77.438,-79.271,-96.686,-57.845,-83.439,-58.643
-94.175,-95.842,-75.638,-76.224,-94.243,-55.238,-78.924,-54.817
-97.46,-96.625,-74.886,-76.645,-93.313,-54.768,-77.694,-53.396
-100.093,-94.879,-75.77,-80.229,-94.277,-57.518,-79.273,-54.249
-97.149,-87.42,-73.688,-79.704,-92.329,-57.377,-77.111,-51.71
-84.256,-76.471,-63.593,-68.593,-82.557,-46.859,-66.112,-40.771
-67.773,-68.107,-50.425,-54.685,-70.009,-32.291,-53.072,-27.48
-60.375,-64.846,-44.68,-51.293,-64.47,-26.279,-48.596,-23.043
-62.836,-63.054,-46.358,-56.169,-65.51,-27.371,-50.272,-26.079
-68.229,-64.137,-49.856,-60.217,-68.266,-29.071,-51.394,-28.837
-76.935,-74.4,-56.885,-66.201,-74.918,-35.586,-55.787,-33.684
-90.286,-89.009,-69.254,-79.118,-86.948,-50.065,-67.471,-45.418
-102.41,-97.074,-81.386,-92.892,-98.767,-64.362,-80.873,-59.69
-107.433,-99.888,-86.517,-97.67,-103.89,-69.609,-88.449,-68.385
-107.082,-104.99,-84.465,-92.756,-101.693,-66.783,-88.652,-69.634
-106.64,-110.303,-80.872,-86.261,-97.15,-63.191,-85.084,-67.227
-105.535,-108.165,-77.877,-82.669,-92.887,-61.694,-80.128,-61.815
-100.22,-98.905,-73.068,-79.536,-87.529,-59.252,-74.017,-52.899
-95.19,-92.758,-69.92,-78.207,-84.394,-57.126,-71.449,-48.187
-98.154,-96.523,-75.468,-84.635,-89.441,-61.96,-78.959,-56.215
-105.585,-102.965,-85.499,-94.949,-97.987,-71.663,-91.607,-70.231
-108.049,-104.294,-88.829,-97.313,-99.49,-75.242,-96.49,-75.297
-105.313,-104.013,-84.845,-90.931,-94.326,-70.508,-91.628,-69.469
-101.944,-102.465,-80.448,-84.411,-89.655,-64.646,-85.177,-61.812
-98.675,-95.023,-77.823,-81.414,-87.32,-61.522,-81.559,-57.712
-95.869,-87.732,-75.707,-80.444,-85.913,-60.326,-80.733,-57.665
-94.659,-88.368,-73.964,-79.106,-85.105,-59.139,-81.793,-59.399
-95.465,-92.585,-74.442,-77.6,-85.995,-58.55,-83.46,-59.872
-98.402,-94.527,-78.666,-79.726,-89.415,-61.944,-85.68,-60.522
-99.841,-93.261,-81.993,-83.517,-91.129,-66.305,-86.177,-62.038
-94.104,-86.358,-77.111,-80.28,-85.086,-63.305,-79.585,-58.65
-84.922,-75.314,-67.548,-71.334,-75.437,-55.726,-69.462,-50.892
-83.283,-71.989,-64.382,-68.508,-72.443,-54.778,-67.505,-49.029
-88.548,-81.461,-66.917,-72.45,-74.149,-59.3,-72.277,-52.888
-87.272,-87.014,-63.16,-70.465,-68.571,-56.68,-69.195,-49.999
-76.175,-75.833,-51.441,-59.365,-55.505,-44.109,-56.764,-38.873
-68.85,-64.319,-44.409,-51.523,-48.6,-33.935,-49.845,-31.831
-72.283,-68.41,-47.795,-53.441,-52.868,-34.699,-53.95,-33.803
-77.448,-76.58,-53.556,-57.382,-59.427,-40.592,-60.233,-38.462
-78.605,-76.463,-56.387,-58.597,-63.191,-44.714,-64.585,-42.456
-78.881,-73.146,-57.596,-59.7,-65.325,-46.636,-68.291,-45.671
-77.623,-70.773,-55.528,-58.525,-63.265,-45.199,-66.973,-44.135
-71.409,-65.634,-47.902,-50.892,-54.682,-38.405,-57.165,-35.818
-62.12,-57.418,-37.437,-40.108,-43.332,-29.159,-44.495,-25.36
-52.301,-48.548,-26.007,-30.231,-31.822,-20.777,-33.961,-15.363
-39.223,-35.776,-10.43,-17.108,-16.85,-8.865,-21.093,-1.67
-20.939,-15.868,9.771,2.872,2.667,10.993,-2.089,16.736
-2.752,3.99,27.617,22.08,20.481,31.268,16.325,32.78
7.445,13.178,36.177,30.166,29.624,40.414,25.431,40.766
6.188,9.869,33.744,25.528,27.284,35.694,23.257,39.968
-4.139,-0.288,22.234,12.692,14.77,22.173,12.31,30.332
-16.462,-9.95,8.04,-1.78,-0.681,7.921,-0.938,16.329
-23,-13.794,0.086,-10.323,-9.104,0.38,-7.472,7.985
-22.537,-14.195,0.492,-10.906,-8.379,0.098,-5.702,8.836
-21.768,-18.577,1.868,-10.327,-6.667,0.11,-4.213,11.097
-25.75,-26.157,-1.851,-14.269,-10.708,-4.003,-8.618,7.695
-31.974,-30.296,-8.562,-20.517,-18.356,-9.662,-15.088,0.197
-36.717,-32.534,-14.204,-25.161,-24.966,-14.015,-19.967,-6.972
-39.911,-36.859,-17.489,-26.479,-29.052,-15.743,-23.755,-11.016
-43.421,-41.81,-19.61,-25.694,-32.031,-14.943,-26.785,-11.595
-49.448,-48.174,-24.627,-29.044,-37.678,-17.163,-30.918,-13.67
-57.83,-56.934,-34.665,-39.954,-47.63,-26.781,-39.018,-22.296
-64.141,-62.2,-44.126,-51.009,-56.565,-37.245,-47.685,-32.511
-64.818,-60.344,-46.471,-54.026,-58.483,-39.885,-50.062,-35.396
-63.564,-58.3,-45.214,-52.457,-56.954,-37.98,-48.474,-33.597
-66.716,-63.544,-48.633,-55.136,-60.004,-41.275,-52.357,-37.443
-72.073,-70.863,-54.777,-61.258,-65.359,-48.854,-60.104,-45.674
-72.296,-69.367,-54.942,-61.7,-64.378,-50.326,-60.067,-46.692
-69.14,-62.164,-50.292,-55.835,-58.915,-44.914,-52.552,-39.995
-70.859,-63.692,-49.542,-53.552,-58.152,-42.701,-49.873,-37.026
-77.364,-75.711,-53.672,-58.235,-62.805,-46.334,-55.076,-40.867
-80.654,-84.445,-56.084,-62.337,-65.935,-49.121,-59.608,-43.448
-78.221,-82.368,-54.625,-61.496,-65.482,-49.22,-59.859,-41.927
-75.958,-75.534,-54.121,-59.325,-66.448,-50.02,-61.137,-42.49
-77.346,-70.681,-57.191,-58.258,-70.846,-51.159,-65.578,-47.3
-79.209,-68.967,-60.036,-56.975,-73.834,-50.853,-68.169,-50.331
-79.587,-69.956,-59.979,-55.241,-72.98,-50.85,-66.604,-48.741
-80.443,-73.023,-60.258,-54.947,-72.72,-53.538,-65.844,-48.269
-83.202,-77.653,-63.996,-57.808,-76.461,-59.137,-69.961,-53.624
-88.044,-84.137,-69.147,-62.525,-81.647,-65.119,-75.618,-61.234
-94.667,-92.246,-72.5,-65.528,-84.763,-68.089,-77.856,-65.508
-100.684,-100.424,-73.938,-66.356,-85.643,-68.506,-77.434,-65.897
-102.314,-105.116,-73.963,-67.56,-84.992,-69.003,-77.43,-65.002
-99.185,-102.994,-72.534,-69.555,-82.983,-69.116,-77.87,-64.495
-95.262,-96.039,-71.244,-70.634,-80.948,-67.371,-77.339,-63.959
-93.207,-89.936,-71.171,-69.535,-79.831,-64.703,-75.636,-62.27
-92.334,-87.797,-70.777,-66.098,-78.717,-62.425,-73.711,-59.929
-91.963,-88.058,-69.447,-62.035,-77.502,-60.51,-72.768,-58.618
-92.294,-87.624,-69.074,-59.974,-77.787,-58.986,-73.199,-58.784
-92.441,-85.907,-69.756,-59.816,-78.98,-57.913,-73.282,-58.396
-91.278,-83.715,-68.746,-58.655,-77.841,-56.393,-70.434,-54.944
-90.169,-81.379,-65.627,-55.488,-74.212,-53.986,-65.527,-49.846
-90.961,-81.389,-62.942,-52.392,-71.522,-51.566,-62.425,-47.048
-92.757,-85.193,-62.101,-50.941,-71.437,-50.333,-62.718,-47.2
-93.213,-86.161,-62.394,-50.153,-72.458,-49.902,-64.228,-47.882
-90.803,-78.79,-61.777,-47.546,-71.944,-47.369,-63.816,-47.29
-87.404,-72.932,-59.421,-43.028,-69.204,-42.381,-61.157,-45.771
-87.35,-79.966,-57.047,-40.191,-66.132,-39.581,-58.394,-44.323
-90.6,-91.329,-55.296,-40.312,-63.537,-40.854,-56.265,-42.646
-92.387,-92.699,-53.256,-40.26,-61,-42.525,-55.115,-41.293
-91.53,-87.393,-52.486,-40.005,-60.431,-43.418,-57.624,-43.209
-92.12,-85.965,-56.013,-44.437,-64.653,-47.316,-65.241,-50.041
-94.456,-86.267,-61.621,-52.887,-70.809,-53.628,-72.839,-57.464
-92.685,-81.28,-62.191,-56.226,-71.067,-54.86,-72.695,-58.049
-85.251,-74.638,-55.706,-50.225,-63.386,-48.603,-64.786,-50.894
-78.607,-72.907,-48.068,-41.684,-54.711,-41.303,-56.849,-42.971
-78.609,-74.461,-45.669,-39.222,-52.327,-39.3,-55.47,-40.964
-84.178,-75.5,-49.752,-45.206,-56.702,-44.337,-60.95,-45.934
-89.081,-75.687,-55.415,-53.626,-61.57,-51.966,-67.172,-52.514
-88.292,-75.177,-56.245,-55.607,-60.757,-53.879,-67.133,-53.144
-82.917,-73.607,-52.022,-51.068,-55.042,-49.026,-61.035,-46.764
-77.829,-71.316,-47.766,-47.687,-49.402,-44.715,-54.732,-39.617
-75.451,-68.941,-45.664,-47.798,-45.894,-44.068,-50.938,-36.163
-74.423,-67.252,-44.076,-47.767,-43.46,-43.884,-47.917,-35.131
-72.332,-66.5,-42.01,-46.542,-41.078,-42.405,-44.473,-33.982
-68.259,-65.417,-39.444,-44.668,-38.138,-39.861,-41.14,-31.798
-64.783,-64.044,-36.777,-41.419,-35.333,-36.392,-39.122,-29.126
-65.639,-65.045,-35.684,-38.255,-34.93,-33.527,-40.015,-28.004
-69.932,-67.845,-36.45,-37.663,-36.799,-32.66,-43.239,-29.785
-72.086,-67.232,-35.655,-38.189,-36.897,-32.358,-44.304,-31.695
-67.948,-60.968,-30.343,-36.459,-32.265,-30.263,-39.663,-29.147
-59.42,-52.791,-22.959,-31.773,-25.226,-26.081,-32.44,-22.957
-52.849,-47.482,-18.951,-26.476,-21.05,-22.017,-29.384,-19.549
-52.16,-46.815,-20.105,-24.165,-21.831,-20.632,-32.183,-22.157
-54.267,-48.865,-22.191,-26.132,-23.775,-21.85,-35.171,-26.22
-52.989,-49.006,-19.29,-27.944,-20.998,-22.377,-31.765,-24.439
-46.746,-44.68,-10.191,-23.429,-11.562,-18.163,-21.02,-14.435
-38.8,-37.897,1.177,-12.639,1.162,-8.304,-7.458,-0.76
-31.806,-30.794,10.673,-2.073,12.264,2.007,3.206,9.788
-28.214,-26.12,14.588,1.828,17.14,5.083,6.159,12.348
-30.85,-28.415,10.135,-2.032,13.003,-0.405,0.005,6.298
-36.865,-35.431,1.03,-8.863,3.679,-8.155,-10.229,-3.102
-39.887,-39.417,-5.583,-13.922,-3.463,-13.182,-18.251,-9.939
-40.992,-40.37,-10.001,-18.432,-8.119,-17.088,-24.161,-14.966
-46.305,-44.115,-17.35,-25.629,-15.474,-22.644,-31.09,-21.474
-55.271,-50.945,-26.478,-33.671,-25.104,-28.351,-38.224,-28.089
-61.331,-56.114,-31.74,-38.01,-31.194,-31.108,-42.716,-32.042
-61.058,-56.669,-31.527,-37.898,-31.169,-30.192,-43.076,-32.634
-57.263,-54.306,-28.548,-36.074,-27.969,-27.371,-39.321,-29.618
-55.216,-52.313,-26.496,-35.152,-26.493,-26.178,-35.459,-25.673
-57.912,-52.003,-28.889,-37.243,-30.071,-30.309,-38.077,-26.92
-62.901,-52.772,-35.436,-41.671,-37.116,-37.656,-46.775,-33.892
-64.268,-52.995,-40.569,-43.933,-42.064,-40.6,-52.983,-38.819
-60.582,-52.183,-40.499,-42.321,-42.356,-37.55,-52.471,-37.389
-55.146,-50.096,-35.836,-38.236,-38.894,-32.746,-48.373,-33.052
-49.039,-44.916,-27.943,-31.567,-31.892,-26.844,-42.776,-28.849
-43.36,-38.866,-20.835,-25.491,-24.595,-21.26,-37.256,-25.694
-41.549,-36.626,-19.21,-25.376,-22.409,-20.264,-34.736,-24.228
-43.131,-35.614,-21.061,-28.579,-24.133,-22.322,-34.88,-23.649
-44.188,-31.832,-21.648,-28.764,-24.704,-22.682,-35.658,-23.87
-43.1,-28.963,-20.543,-26.305,-23.32,-20.834,-36.136,-25.561
-39.654,-29.701,-18.109,-23.773,-20.792,-17.424,-33.916,-25.76
-34.866,-30.522,-14.442,-21.375,-17.453,-13.976,-28.771,-21.731
-33.851,-31.973,-14.37,-22.655,-17.579,-16.513,-27.961,-19.273
-39.855,-38.956,-21.39,-30.855,-24.087,-26.464,-36.054,-24.913
-47.275,-47.87,-28.873,-39.325,-30.337,-34.07,-44.061,-32.407
-49.656,-49.512,-29.688,-39.916,-29.959,-32.853,-42.924,-32.652
-47.992,-43.665,-26.045,-34.694,-26.054,-27.904,-37.579,-28.404
-45.746,-37.726,-21.884,-29.594,-22.065,-23.945,-34.785,-25.509
-44.26,-35.545,-17.879,-26.693,-17.264,-20.68,-32.491,-22.974
-43.581,-35.343,-15.055,-25.734,-12.525,-18.39,-28.536,-19.6
-43.939,-35.855,-15.206,-26.81,-10.731,-18.47,-26.709,-19.39
-47.378,-40.708,-19.914,-31.181,-14.297,-22.302,-31.484,-25.939
-54.064,-51.38,-27.965,-37.519,-22.111,-28.837,-40.868,-35.314
-58.34,-58.808,-32.987,-40.184,-27.49,-32.881,-46.566,-38.658
-56.175,-54.636,-30.651,-36.905,-25.806,-31.504,-43.912,-33.217
-52.222,-45.54,-25.774,-32.616,-21.602,-28.181,-38.152,-25.963
-52.484,-43.259,-25.059,-32.045,-21.132,-26.762,-36.375,-23.788
-54.727,-47.751,-26.828,-33.134,-22.612,-26.279,-37.504,-25.387
-52.75,-50.543,-25.02,-31.098,-20.542,-23.491,-35.854,-25.492
-47.858,-49.427,-20.608,-27.244,-16.473,-19.086,-31.825,-23.022
-47.505,-49.388,-20.762,-27.608,-17.49,-18.296,-32.225,-21.862
-52.179,-50.936,-26.131,-32.511,-23.721,-21.987,-38.096,-23.57
-53.534,-49.034,-27.947,-34.87,-26.221,-22.979,-39.875,-23.014
-48.07,-43.001,-22.18,-31.653,-21.185,-17.983,-32.692,-17.109
-43.005,-38.645,-17.132,-29.192,-16.77,-14.204,-26.409,-12.53
-43.854,-39.517,-19.217,-31.739,-19.163,-16.383,-29.141,-15.31
-46.485,-41.609,-23.066,-35.085,-23.591,-19.713,-34.986,-21.339
-47.514,-41.423,-24.631,-36.799,-26.328,-21.092,-38.152,-25.739
-50.431,-43.247,-29.207,-40.624,-31.662,-23.909,-43.072,-30.736
-56.325,-50.885,-38.862,-47.908,-40.922,-29.635,-52.936,-38.447
-60.361,-59.396,-45.888,-53.893,-47.13,-34.312,-60.897,-44.837
-60.677,-62.85,-44.983,-54.974,-45.801,-34.91,-60.285,-45.656
-60.756,-62.206,-40.953,-53.686,-41.449,-34.172,-54.792,-42.382
-61.358,-59.238,-39.006,-52.597,-38.9,-35.25,-50.743,-38.149
-60.508,-54.347,-38.694,-51.219,-38.152,-36.848,-49.416,-35.313
-59.685,-51.667,-39.135,-50.386,-38.494,-37.447,-50.523,-36.437
-60.73,-53.613,-39.739,-50.772,-38.386,-37.265,-52.182,-39.627
-62.446,-57.151,-39.536,-51.086,-36.375,-36.217,-51.162,-39.884
-63.521,-60.494,-39.09,-51.155,-34.602,-34.515,-48.763,-37.189
-63.458,-63.028,-38.064,-50.8,-34.121,-32.515,-47.905,-34.304
-62.842,-63.315,-35.51,-48.821,-32.494,-30.251,-46.51,-31.159
-63.237,-62.748,-33.809,-46.451,-30.196,-28.741,-42.898,-28.097
-64.201,-63.143,-35.371,-46.031,-30.356,-28.794,-40.79,-28.022
-63.791,-62.823,-37.947,-46.772,-32.196,-29.195,-42.075,-31.115
-62.343,-60.812,-38.19,-46.714,-32.341,-28.633,-42.757,-32.943
-61.145,-58.724,-35.987,-45.354,-30.241,-26.92,-39.654,-30.215
-58.659,-56.376,-32.513,-42.112,-27.2,-23.373,-34.012,-24.146
-52.859,-51.845,-28.277,-36.974,-23.492,-18.041,-28.494,-18.236
-46.328,-45.972,-25.25,-32.967,-20.274,-14.365,-26.04,-16.317
-44.366,-42.889,-26.594,-34.131,-20.571,-16.195,-28.831,-20.193
-47.637,-45.336,-31.612,-39.524,-24.524,-21.87,-34.349,-26.459
-51.804,-51.448,-35.972,-43.173,-28.403,-25.902,-37.675,-30.082
-54.947,-57.938,-38.677,-43.28,-31.004,-27.772,-39.133,-31.513
-57.33,-62.225,-40.903,-43.186,-33.174,-30.282,-41.157,-33.163
-56.413,-61.238,-40.556,-42.551,-33.104,-30.676,-41.536,-33.237
-50.784,-54.014,-36.568,-39.093,-30.263,-26.18,-38.744,-30.366
-43.256,-43.822,-31.189,-34.296,-26.586,-20.908,-34.579,-25.782
-37.221,-36.494,-25.612,-30.469,-22.173,-18.086,-29.443,-20.244
-34.389,-36.195,-20.69,-28.116,-17.374,-15.811,-24.202,-15.784
-33.699,-39.633,-17.846,-26.364,-14.16,-12.697,-21.096,-13.849
-33.034,-39.886,-16.94,-23.976,-13.06,-10.102,-20.029,-12.218
-32.926,-36.724,-17.594,-21.721,-13.498,-9.646,-20.676,-11.218
-34.192,-35.455,-19.874,-21.479,-15.16,-10.916,-24.218,-14.728
-34.651,-37.839,-21.813,-22.092,-16.523,-11.22,-28.291,-20.623
-32.494,-39.867,-20.591,-20.444,-14.888,-9.004,-27.185,-21.214
-28.957,-37.744,-16.862,-16.954,-10.317,-6.192,-20.633,-15.369
-25.935,-33.363,-14.423,-15.069,-7.062,-4.646,-15.534,-10.559
-24.462,-31.159,-15.206,-15.465,-8.124,-3.534,-16.113,-11.064
-24.59,-30.762,-16.709,-15.015,-10.766,-1.734,-18.295,-12.286
-25.109,-29.093,-15.837,-12.235,-10.844,0.259,-17.194,-10.164
-24.454,-26.894,-13.16,-9.974,-8.423,1.453,-14.235,-7.564
-21.701,-25.237,-10.6,-10.069,-5.599,1.952,-12.511,-6.951
-18.488,-23.405,-9.345,-10.74,-3.983,1.88,-12.44,-6.916
-18.202,-23.81,-10.584,-11.025,-4.978,0.59,-14.128,-7.519
-19.942,-27.653,-12.758,-11.025,-6.905,-0.529,-16.52,-9.515
-18.651,-28.755,-11.842,-9.35,-5.613,1.507,-16.453,-10.558
-12.977,-21.814,-7.253,-5.495,-0.699,6.673,-13.083,-8.239
-8.122,-11.9,-3.019,-2.181,3.41,11.229,-9.568,-4.099
-9.507,-8.637,-3.041,-2.944,2.788,11.332,-8.895,-1.381
-14.536,-13.426,-6.047,-7.141,-0.843,7.572,-10.147,-0.757
-15.233,-18.574,-6.164,-9.224,-1.577,5.117,-9.824,-0.364
-10.201,-18.628,-1.042,-5.833,2.697,7.254,-6.13,1.764
-5.93,-15.453,4.7,-0.294,7.906,11.816,-0.97,5.528
-5.952,-12.226,6.818,2.579,10.334,14.986,2.1,8.059
-7.49,-9.806,6.23,2.263,10.251,15.552,1.892,7.185
-7.84,-8.564,5.221,1.201,9.301,14.676,0.51,4.78
-6.561,-7.749,4.842,0.944,8.939,13.867,0.27,4.153
-3.461,-4.995,6.035,2.166,10.5,14.711,1.839,6.039
0.013,-0.398,8.214,5.412,13.152,17.631,4.065,8.602
1.014,2.941,8.433,9.49,13.722,20.403,4.633,9.755
-0.948,2.649,4.791,11.404,10.273,20.01,1.995,8.248
-4.227,-2.258,-1.339,9.483,4.2,15.849,-3.156,4.175
-6.88,-9.163,-5.625,7.172,0.065,11.752,-6.523,1.159
-6.731,-11.171,-4.469,9.608,1.624,12.36,-3.229,3.894
-3.863,-6.535,-0.688,14.772,5.706,16.262,3.813,10.021
-2.333,-2.565,-0.948,15.902,5.04,17.256,5.149,11.403
-5.548,-4.637,-6.81,11.947,-1.891,12.366,-2.208,5.82
-11.143,-9.611,-13.297,8.446,-9.073,5.945,-10.452,-0.27
-14.103,-12.615,-15.954,9.57,-11.17,4.074,-12.314,-1.829
-13.151,-12.293,-14.836,13.684,-8.672,6.566,-9.052,-0.331
-10.806,-9.46,-11.919,17.321,-4.675,9.106,-4.691,1.659
-9.875,-7.519,-9.737,18.933,-2.291,9.001,-2.356,2.446
-10.901,-9.568,-10.838,18.236,-3.947,6.261,-5.702,-0.381
-11.148,-11.333,-13.204,16.754,-6.941,3.873,-12.305,-5.002
-7.321,-5.769,-10.459,18.036,-4.012,5.517,-12.278,-4.412
-0.701,4.28,-1.751,23.512,5.583,11.014,-3.193,2.634
3.336,8.812,4.978,28.824,12.657,16.138,4.642,8.158
4.074,7.813,5.644,30.038,12.374,18.657,4.855,8.443
7.147,10.689,6.864,30.938,12.085,21.581,4.258,9.673
14.074,16.714,13.496,35.539,17.831,26.532,8.768,14.874
20.39,16.949,21.132,41.131,25.376,30.8,14.413,19.609
23.937,13.786,25.619,44.951,30.022,33.581,18.4,22.777
25.762,16.716,28.249,47.77,32.91,36.297,23.772,26.807
26.482,24.632,30.263,49.67,35.125,38.025,29.722,29.438
26.011,28.565,30.22,48.835,34.77,36.363,29.964,26.585
24.327,25.889,27.288,45.048,31.265,31.181,22.536,19.614
23.864,23.061,25.017,42.651,28.828,27.022,15.369,14.984
28.072,25.53,27.834,45.419,31.616,28.401,17.006,16.822
33.651,29.327,32.098,48.775,35.496,31.381,22.585,19.966
33.767,28.004,30.575,46.628,33.926,29.42,21.347,17.686
30.501,24.042,25.857,42.692,30.266,25.428,15.953,14.063
31.355,24.911,25.801,43.66,31.758,26.016,16.446,16.066
36.673,31.296,29.869,48.148,36.883,29.838,21.821,21.054
41.181,36.049,31.843,51.085,39.391,31.488,24.49,23.53
42.342,34.55,30.4,51.961,38.272,31.276,24.024,24.451
40.75,31.258,29.155,53.248,37.134,33.631,24.769,26.711
36.52,30.877,28.84,53.931,36.931,37.507,26.391,28.435
29.638,29.674,25.744,50.03,34.064,36.021,24.126,25.659
23.865,25.56,20.281,43.02,28.394,28.765,18.24,20.115
25.426,26.179,19.455,40.895,26.809,25.443,16.825,19.277
34.394,35.342,26.126,46.971,32.831,31.517,24.071,25.769
43.37,44.677,34.902,55.206,41.378,40.31,33.746,33.224
47.443,47.205,40.912,59.911,47.309,44.377,39.201,36.251
48.563,46.188,44.11,62.349,50.268,45.139,40.502,36.649
49.694,46.867,45.746,65.434,51.315,46.918,39.994,37.552
50.559,49.121,46.014,68.27,50.877,48.812,38.896,38.48
49.758,50.589,44.692,68.548,49.428,48.068,37.807,37.687
48.715,51.292,43.331,67.322,48.599,46.518,36.944,35.745
50.272,51.87,44.289,67.307,49.859,47.079,36.797,34.89
53.12,51.993,46.085,67.411,51.284,47.991,37.729,35.399
53.233,51.909,45.062,64.915,49.705,46.754,38.546,35.563
50.719,51,41.773,61.677,45.94,45.339,37.435,35.025
49.793,48.058,40.696,62.502,44.307,46.883,35.285,35.086
52.395,45.182,43.871,67.721,46.99,50.81,35.301,36.355
55.38,45.571,47.794,71.75,50.777,53.744,37.63,38.066
55.602,48.601,49.28,71.8,52.327,54.425,39.992,39.928
54.875,51.751,50.629,71.404,53.599,54.939,42.918,42.746
56.125,54.157,53.907,72.023,56.623,56.187,46.92,45.775
58.396,55.766,56.468,71.29,58.903,56.852,49.165,46.631
58.784,55.374,55.509,68.839,57.927,56.026,47.75,44.342
55.692,50.95,51.088,65.279,54.063,52.902,43.852,39.787
50.774,43.541,45.98,60.862,49.9,48.112,40.506,35.813
48.39,38.903,44.095,57.727,48.737,45.269,41.027,35.947
49.64,40.523,45.427,57.156,50.077,45.863,44.763,39.441
51.081,45.012,46.982,58.035,50.999,47.53,48.472,43.124
52.578,48.866,49.863,60.839,53.235,50.036,53.377,48.035
58.156,53.082,56.841,66.197,60.034,55.048,62.263,56.231
66.455,56.813,64.399,70.658,67.746,60.195,71.29,64.005
69.425,55.043,65.662,69.863,69.001,60.467,72.938,64.921
63.078,46.424,58.726,62.668,61.621,54.023,64.263,56.492
52.879,36.268,47.986,51.527,50.012,43.885,49.428,42.489
46.413,30.254,39.971,41.915,40.683,35.502,36.977,31.247
43.509,28.077,36.553,36.881,35.897,30.802,31.626,27.375
38.917,25.412,33.353,33.342,31.986,26.511,28.993,26.073
33.926,20.801,28.876,29.517,27.33,21.896,24.119,22.341
34.432,16.302,27.567,28.557,25.471,20.388,19.542,18.646
40.479,15.297,31.26,31.443,28.07,22.525,19.869,18.67
47.91,19.988,37.116,35.059,33.168,26.259,25.407,22.522
52.588,25.709,41.293,35.392,37.421,29.003,31.854,27.251
49.958,24.113,39.689,29.476,36.156,26.035,32.881,27.375
40.421,15.142,32.355,19.995,28.809,16.862,27.286,21.291
32.408,8.046,26.192,14.726,22.346,9.691,21.853,15.703
32.464,9.123,26.305,17.033,22.062,10.741,21.785,16.392
37.093,13.937,29.635,22.333,24.877,15.656,23.965,19.837
39.863,15.062,31.593,25.511,26.494,17.513,24.105,20.031
40.781,13.332,32.173,26.666,27.319,16.723,23.228,17.795
42.747,14.271,32.516,27.488,28.278,17.08,23.279,17.082
44.199,17.059,32.002,27.057,28.31,17.769,22.981,16.906
41.573,16.226,30.336,24.347,27.061,15.767,21.365,14.499
36.502,12.573,28.942,21.15,25.976,12.217,21.182,12.358
34.312,12.609,29.4,19.598,26.684,10.671,24.477,14.079
35.07,16.265,30.261,18.082,28.039,10.874,27.045,16.625
34.283,16.829,28.432,14.004,27.127,9.63,24.378,15.097
34.154,15.886,26.286,10.632,25.883,7.668,21.17,12.918
41.343,22.557,29.347,13.012,29.151,8.701,24.426,16.597
51.896,34.843,35.159,18.016,34.48,11.576,30.563,22.681
55.534,41.107,36.896,18.977,35.817,11.858,32.254,23.797
53.218,40.053,35.246,16.332,34.365,9.764,31.124,22.094
53.526,40.724,35.073,14.989,34.851,9.159,32.512,23.704
57.562,46.566,36.885,15.773,37.45,10.683,36.345,27.797
60.656,52.718,38.504,15.597,39.446,11.29,39.13,29.394
63,55.305,39.939,14.949,40.418,10.481,39.518,27.766
68.344,56.418,42.693,17.971,42.16,11.15,39.214,26.563
75.773,60.33,46.445,23.652,44.907,13.841,39.881,27.354
81.287,67.46,49.694,26.48,47.32,16.464,41.421,28.512
84.29,74.646,51.802,25.024,48.695,16.982,42.515,29.107
86.734,79.988,53.043,22.098,49.548,14.294,42.951,30.093
90.24,84.384,55.519,20.983,52.37,11.551,46.252,33.663
95.242,88.777,61.374,23.258,58.947,13.569,55.312,41.022
99.379,91.974,68.068,26.664,65.843,18.288,65.603,49.023
100.522,93.602,71.823,29.115,68.993,20.454,70.688,53.255
101.579,96.752,74.474,32.759,70.801,21.25,72.043,54.612
105.178,102.367,78.563,37.842,74.55,23.877,74.237,56.29
107.894,105.756,81.35,40.133,77.617,26.289,76.375,57.582
106.916,103.901,80.902,38.629,77.509,26.219,76.3,57.209
103.927,99.521,78.712,35.822,75.446,24.207,74.398,55.694
99.027,96.051,74.126,31.113,70.98,19.617,70.339,51.718
92.145,95.043,67.857,24.872,64.691,13.324,65.716,45.478
88.118,96.397,66.381,22.796,62.854,10.125,65.945,42.511
89.517,97.448,71.554,26.479,67.739,11.296,71.026,45.233
91.785,96.053,75.922,29.724,72.103,12.415,73.34,48.15
90.887,93.569,74.938,28.828,70.796,10.964,69.646,46.955
87.01,90.864,71.907,26.098,66.941,8.54,64.791,43.852
82.908,87.524,71.072,24.986,65.576,7.562,64.014,43.739
83.622,86.229,74.203,28.275,68.977,10.637,69.032,49.539
89.902,88.814,78.776,34.798,74.281,17.151,75.741,57.025
93.052,90.051,78.094,36.746,74.425,19.295,75.377,56.874
87.048,84.715,70.809,29.651,67.803,11.426,66.363,47.614
78.652,76.186,64.409,20.203,61.385,0.11,57.864,38.532
75.225,71.117,63.055,15.017,59.161,-5.769,55.94,35.922
74.672,71.001,63.453,12.854,58.527,-6.253,57.917,37.077
73.379,71.319,63.624,11.484,58.268,-5.732,60.539,38.042
71.816,67.097,64.283,10.948,59.07,-6.647,62.674,37.802
71.367,60.658,65.812,11.943,60.605,-7.974,63.909,37.497
72.323,59.517,69.463,15.612,63.845,-6.063,66.077,39.909
74.013,65.377,75.61,21.127,69.905,-0.344,70.967,45.951
74.578,71.854,80.042,23.631,75.038,3.138,75.27,51.256
72.031,72.686,77.824,19.601,73.674,-0.218,73.615,50.327
67.879,68.266,71.298,13.064,67.613,-5.965,67.738,44.855
66.463,63.316,68.097,9.952,64.812,-8.462,65.788,42.241
68.363,60.498,70.56,9.518,67.951,-9.555,70.754,44.336
70.048,60.247,73.82,7.927,71.958,-12.595,77.238,46.441
70.186,62.928,74.391,5.57,72.997,-15.468,80.375,46.815
70.381,66.525,74.23,4.967,72.858,-15.504,80.839,47.386
70.834,67.688,75.407,4.988,73.736,-15.395,80.275,47.598
69.983,66.967,76.41,3.04,74.383,-17.981,77.848,45.208
68.878,67.848,76.918,0.832,74.647,-20.062,74.999,42.321
71.613,71.638,80.625,2.302,78.53,-17.634,77.574,44.482
78.306,76.802,87.985,6.478,86.919,-13.162,86.558,51.152
82.871,80.277,92.777,7.505,93.245,-12.65,93.978,54.424
82.615,78.434,92.588,4.188,93.948,-16.788,95.341,51.645
82.297,71.735,93.462,2.649,94.641,-20.06,95.846,49.045
84.604,67.39,98.041,5.382,98.643,-19.79,98.388,49.42
86.917,71.402,100.989,7.354,101.18,-19.462,98.697,48.592
87.708,79.325,99.064,5.105,99.161,-21.87,95.458,45.088
87.375,81.496,95.454,1.032,95.932,-25.448,93.346,42.626
86.444,77.175,94.565,-1.026,95.665,-26.888,95.879,43.864
86.425,75.801,97.321,0.277,98.632,-24.253,101.42,47.742
88.02,82.387,100.062,2.935,101.173,-19.967,104.727,51.166
89.374,90.543,98.553,3.49,99.619,-18.884,102.196,51.116
89.467,93.197,93.92,1.331,95.105,-21.278,96.68,48.134
89.646,90.64,90.767,-0.865,92.087,-23.375,94.397,47.212
89.722,86.235,89.858,-1.585,91.668,-23.93,96.82,50.79
88.444,83.524,88.591,-1.731,91.131,-24.525,99.431,54.544
88.745,86.91,87.628,-1.44,90.574,-24.672,99.575,54.898
94.391,96.544,90.266,0.938,93.368,-21.432,100.486,54.757
101.404,104.216,95.382,4.434,98.553,-15.953,103.721,56.724
102.283,102.622,97.384,3.539,100.247,-14.535,104.356,56.939
96.827,95.337,93.694,-4.564,96.243,-19.919,99.489,52.069
90.949,90.501,87.837,-14.444,91.142,-27.304,94.258,46.228
89.261,90.747,85.404,-18.547,90.631,-30.038,94.664,45.226
91.842,94.202,87.789,-16.578,94.652,-26.922,99.231,48.655
94.866,98.269,90.56,-14.36,97.507,-23.334,101.358,50.737
95.86,100.493,91.104,-13.902,97.065,-23.143,99.551,48.888
95.864,100.15,92.023,-12.234,97.196,-23.589,98.027,46.521
94.03,97.442,92.827,-10.345,97.866,-22.817,95.787,43.902
89.148,93.564,90.487,-11.649,95.86,-23.152,90.077,39.036
85.68,92.529,88.345,-13.533,94.406,-24.083,87.255,37.3
86.541,93.322,89.951,-13.511,96.868,-24.153,91.035,41.131
87.446,88.768,91.928,-15.14,99.405,-25.049,93.55,41.99
87.468,81.959,93.134,-18.002,100.654,-25.364,91.833,37.725
91.393,84.38,96.346,-16.971,103.722,-22.145,91.652,36.094
98.063,95.023,98.641,-13.632,105.871,-18.214,92.189,37.162
100.895,102.395,95.43,-13.722,102.604,-17.319,88.272,34.901
99.429,102.959,90.707,-16.794,98.483,-18.048,83.549,31.873
98.656,101.687,90.545,-18.215,99.626,-17.518,84.384,33.859
98.922,100.363,91.577,-18.308,101.58,-16.715,86.747,36.521
96.532,96.688,87.616,-21.402,97.513,-18.361,83.591,32.743
92.097,91.764,81.762,-26.362,91.266,-20.668,78.228,26.183
89.857,90.096,80.593,-27.53,90.436,-19.326,78.048,25.302
92.032,93.326,83.596,-23.657,94.461,-13.792,83.18,31.073
97.867,99.65,86.61,-18.255,98.385,-6.72,89.174,38.393
103.336,105.824,87.714,-15.104,100.247,-1.369,92.587,42.945
103.452,107.744,86.262,-15.854,100.042,0.038,91.577,42.99
98.988,105.2,82.4,-18.823,97.682,-1.258,87.171,39.522
95.211,103.054,77.786,-21.261,93.784,-2.342,82.465,35.105
93.377,103.103,74.088,-22.971,89.845,-2.713,78.675,30.97
90.714,101.85,71.498,-25.822,87.065,-3.583,75.179,27.241
86.628,98.082,68.859,-30.482,84.801,-4.968,71.96,24.513
82.363,94.522,65.016,-35.54,81.212,-6.057,69.591,23.126
77.423,91.237,60.039,-39.956,75.805,-7.312,67.974,22.133
71.448,85.287,54.697,-44.207,69.788,-9.598,65.41,19.214
67.526,78.572,50.809,-47.286,65.611,-10.934,61.415,14.195
68.591,77.085,50.716,-46.472,65.626,-8.082,59.629,11.521
71.672,79.919,52.575,-43.428,67.574,-2.93,61.317,12.871
71.433,80.101,51.47,-43.679,66.076,-1.228,60.882,13.178
67.953,76.881,47.329,-47.62,60.854,-3.329,55.48,9.88
65.642,75.644,44.314,-49.989,56.587,-3.275,50.544,7.12
66.808,77.999,44.114,-47.994,55.601,2.089,50.545,8.067
70.238,80.339,45.481,-43.974,56.205,8.932,53.026,10.459
74.569,80.403,47.481,-40.558,56.922,13.011,54.981,11.687
79.674,80.819,50.692,-37.406,59.121,15.988,58.192,13.515
83.493,83.368,54.296,-35.148,62.629,19.93,62.727,16.605
81.201,82.87,53.01,-38.14,61.17,20.466,61.128,14.674
71.51,74.641,43.064,-47.672,50.251,14.456,48.85,3.283
61.802,66.247,31.396,-56.124,37.734,9.398,35.073,-9.469
61.421,68.714,29.47,-55.269,35.491,13.983,32.194,-11.198
68.93,76.955,36.445,-48.216,41.478,23.452,38.108,-2.382
73.024,76.988,39.426,-45.042,42.255,26.681,38.785,3.311
68.402,68.812,32.848,-48.312,33.391,23.244,28.755,-2.028
62.375,64.019,26.131,-50.702,25.355,21.992,19.46,-9.355
61.462,66.431,26.828,-47.176,25.731,26.782,20.769,-8.528
60.41,67.79,27.608,-42.367,26.857,31.738,24.389,-5.946
52.702,60.981,20.001,-41.03,19.701,31.081,18.309,-12.583
42.657,50.227,9.517,-38.579,9.23,27.966,7.073,-24.329
37.492,44.325,4.926,-30.301,4.433,28.105,1.514,-30.189
36.355,44.453,4.086,-21.406,3.634,30.324,0.008,-30.277
34.227,44.084,0.49,-18.748,0.405,30.281,-4.486,-31.848
30.087,39.362,-5.498,-21.601,-4.655,28.392,-10.141,-35.798
26.021,34.068,-9.283,-25.168,-6.926,28.366,-11.154,-37.134
20.693,30.89,-11.356,-26.552,-7.882,29.847,-9.436,-35.218
11.857,26.962,-15.775,-25.553,-12.256,29.371,-11.237,-35.491
5.532,24.435,-19.696,-20.931,-16.566,29.742,-15.259,-39.008
10.662,31.184,-14.883,-9.297,-12.058,38.739,-13.431,-37.466
23.052,43.879,-2.397,7.521,-0.049,55.251,-4,-26.113
25.88,44.991,3.112,18.517,4.903,65.822,1.682,-16.537
10.933,26.57,-8.704,16.064,-6.827,61.364,-7.641,-23.041
-8.568,4.833,-27.044,8.574,-24.148,50.972,-24.502,-39.086
-16.035,-2.305,-34.245,9.414,-30.438,48.696,-31.96,-46.005
-13.792,1.847,-30.665,18.783,-27.215,53.795,-28.436,-40.785
-13.015,5.775,-27.838,28.269,-25.298,58.246,-24.436,-34.534
-14.225,7.237,-27.475,35.139,-25.048,62.728,-22.837,-31.802
-13.623,6.954,-25.42,41.206,-22.84,69.817,-20.726,-30.124
-15.554,1.847,-25.587,44.674,-23.618,73.366,-21.734,-31.514
-24.703,-7.508,-33.904,42.884,-32.735,67.975,-31.168,-39.775
-36.424,-15.547,-46.631,37.953,-45.838,58.466,-45.038,-51.766
-45.622,-22.846,-57.524,31.869,-57.26,50.841,-56.469,-61.777
-53.164,-34.062,-65.596,25.164,-66.277,46.375,-64.169,-67.203
-56.699,-43.646,-67.256,23.926,-68.573,48.901,-64.71,-63.478
-51.84,-42.368,-58.125,32.222,-59.422,61.712,-53.278,-47.853
-45.379,-35.807,-46.822,39.699,-48.158,76.341,-39.218,-31.618
-50.2,-38.45,-48.733,34.005,-50.654,78.911,-40.507,-31.718
-66.766,-52.558,-65.384,18.786,-67.972,67.344,-59.282,-49.175
-82.729,-66.997,-83.864,6.152,-87.004,53.236,-80.318,-69.404
-90.888,-75.603,-95.779,-0.831,-99.704,45.88,-94.099,-82.992
-97.649,-84.397,-105.948,-8.311,-110.663,40.882,-106.689,-94.288
-111.207,-98.896,-121.126,-18.62,-126.06,30.302,-124.74,-109.005
-130.086,-115.49,-139.391,-26.09,-143.959,16.79,-143.523,-124.613
-148.491,-129.33,-155.254,-26.88,-159.331,7.051,-155.802,-136.716
-163.683,-141.1,-167.329,-24.729,-171.162,0.805,-161.627,-145.937
-172.615,-150.818,-175.601,-23.315,-179.297,-3.082,-164.5,-152.912
-172.31,-155.113,-179.338,-22.106,-183.1,-1.771,-168.79,-154.131
-167.863,-155.951,-181.296,-24.743,-186.23,2.74,-178.884,-150.151
-170.953,-161.908,-188.502,-41.564,-195.572,0.638,-195.053,-153.08
-190.184,-179.846,-209.102,-77.99,-217.634,-16.737,-219.285,-176.686
-220.194,-205.268,-240.125,-120.613,-248.836,-42.806,-250.353,-212.517
-238.503,-218.953,-258.302,-141.037,-266.485,-53.653,-266.372,-228.945
-233.905,-211.814,-250.973,-130.824,-258.133,-40.734,-253.166,-215.575
-227.576,-203.663,-241.74,-117.225,-247.995,-29.141,-237.994,-202.293
-237.122,-210.894,-251.141,-121.122,-257.868,-36.415,-247.636,-209.559
-249.046,-221.87,-265.338,-130.787,-273.983,-47.5,-267.307,-221.452
-249.526,-223.109,-268.372,-133.038,-278.72,-47.947,-273.7,-222.815
-247.136,-220.277,-267.053,-133.613,-277.277,-43.888,-269.069,-220.204
-249.647,-220.962,-268.683,-136.891,-277.275,-40.218,-264.606,-218.82
-249.371,-219.914,-266.95,-136.599,-274.147,-31.054,-261.497,-212.573
-242.79,-212.817,-259.887,-132.923,-266.948,-18.149,-259.014,-202.119
-239.726,-207.852,-256.236,-134.893,-263.868,-12.905,-259.61,-197.792
-244.798,-210.859,-258.372,-141.98,-266.243,-15.038,-260.781,-200.068
-244.935,-209.347,-254.222,-138.838,-261.912,-7.752,-252.768,-193.034
-228.201,-191.375,-235.972,-117.905,-243.689,16.215,-232.478,-168.872
-210.029,-174.035,-220.768,-98.61,-228.549,35.634,-218.439,-150.295
-214.201,-180.62,-228.25,-100.849,-235.703,30.517,-229.095,-159.999
-231.794,-199.202,-244.643,-109.874,-252.014,17.496,-248.64,-179.437
-237.633,-204.603,-246.259,-102.748,-254.034,20.548,-251.276,-180.257
-233.573,-200.652,-239.624,-88.415,-247.326,30.151,-243.163,-170.442
-235.345,-201.93,-241.076,-84.525,-248.225,28.491,-242.166,-168.635
-240.74,-204.529,-246.56,-86.322,-253.716,22.254,-245.454,-170.73
-242.779,-204.104,-248.956,-86.264,-256.599,21.274,-246.115,-169.859
-246.185,-208.768,-253.005,-89.439,-260.742,19.577,-249.567,-171.575
-252.254,-217.952,-258.9,-95.366,-266.369,15.12,-256.661,-175.401
-253.366,-220.175,-257.87,-93.995,-265.315,18.368,-256.645,-171.155
-247.937,-214.924,-247.951,-83.801,-255.782,32.643,-244.759,-156.994
-242.776,-211.923,-238.314,-75.7,-246.601,45.463,-230.694,-142.745
-238.748,-210.591,-233.291,-74.034,-241.663,49.573,-221.519,-132.953
-228.33,-200.919,-224.045,-68.283,-232.316,56.427,-210.871,-120.262
-217.879,-189.511,-212.702,-59.712,-221.276,67.288,-201.874,-107.538
-227.835,-197.45,-219.779,-69.078,-228.849,61.281,-212.15,-112.97
-253.753,-221.356,-243.81,-94.281,-253.079,38.644,-236.38,-133.938
-263.658,-231.715,-253.272,-100.446,-262.792,30.662,-244.454,-140.938
-245.888,-217.461,-235.391,-73.268,-245.346,49.972,-226.656,-121.856
-225.84,-200.988,-215.421,-44.068,-225.348,71.775,-206.545,-99.999
-225.84,-201.328,-215.311,-39.895,-224.734,74.316,-203.829,-96.916
-237.412,-210.814,-225.65,-46.381,-234.94,65.222,-211.626,-105.537
-250.792,-223.736,-236.99,-47.357,-246.757,52.703,-223.185,-117.344
-273.868,-249.2,-258.082,-51.897,-268.33,29.791,-245.113,-138.737
-307.58,-285.357,-289.838,-67.039,-300.297,-3.087,-275.643,-169.195
-343.251,-321.717,-323.719,-92.037,-334.353,-38.908,-307.773,-202.123
-378.522,-356.052,-357.821,-128.058,-368.719,-76.592,-342.243,-237.522
-414.158,-388.827,-392.685,-170.485,-403.869,-114.392,-378.939,-274.268
-448.413,-419.667,-425.691,-210.704,-436.988,-148.158,-412.287,-306.225
-474.141,-446.006,-448.793,-240.817,-459.952,-172.599,-433.358,-325.31
-482.129,-459.575,-453.582,-252.651,-464.654,-181.257,-436.134,-326.505
-477.101,-458.732,-447.295,-249.262,-458.417,-177.627,-429.773,-318.104
-478.501,-458.883,-449.583,-249.799,-460.518,-178.33,-432.996,-318.632
-496.337,-473.834,-467.411,-265.467,-477.825,-193.224,-450.51,-335.392
-517.325,-493.369,-486.05,-280.427,-495.888,-210.586,-466.508,-353.48
-522.939,-497.17,-489.082,-273.317,-498.485,-213.521,-466.436,-354.879
-508.706,-480.318,-473.898,-242.33,-482.99,-198.972,-450.301,-337.278
-476.483,-447.256,-441.534,-193.694,-450.216,-168.452,-418.247,-303.048
-434.495,-406.77,-398.769,-136.917,-406.814,-127.579,-374.406,-258.585
-408.843,-382.281,-371.534,-97.294,-378.924,-100.471,-345.102,-229.534
-416.316,-389.152,-376.823,-91.428,-383.914,-105.506,-349.751,-234.092
-439.955,-412.054,-397.379,-103.494,-405.164,-128.505,-371.961,-255.606
-455.93,-427.914,-409.524,-110.811,-419.244,-145.203,-386.81,-269.263
-453.502,-424.4,-404.448,-104.798,-416.02,-143.311,-383.325,-264.905
-429.208,-398.297,-381.066,-84.909,-392.911,-121.232,-359.444,-241.465
-390.685,-359.656,-346.32,-56.73,-357.228,-89.147,-323.443,-206.289
-359.616,-329.576,-318.994,-36.689,-328.718,-66.34,-295.617,-177.691
-355.079,-324.648,-317.281,-43.756,-325.809,-67.181,-294.252,-174.375
-370.253,-339.033,-334.488,-72.221,-342.281,-84.072,-312.486,-191.727
-374.083,-343.726,-338.525,-85.867,-346.679,-87.841,-317.951,-197.044
-348.024,-319.04,-311.137,-62.57,-320.398,-61,-291.388,-168.235
-311.782,-282.628,-273.589,-28.274,-283.683,-23.725,-253.472,-126.032
-296.717,-266.02,-257.126,-20.847,-267.253,-7.787,-236.434,-106.213
-302.917,-271.692,-261.062,-37.527,-270.659,-13.879,-240.864,-111.058
-302.314,-273.721,-257.883,-44.985,-266.875,-14.33,-238.698,-111.039
-280.363,-255.718,-234.365,-28.997,-242.985,5.787,-215.457,-90.266
-253.302,-229.191,-207.481,-8.324,-216.004,30.285,-188.321,-65.067
-240.851,-213.254,-195.995,-2.597,-204.774,39.389,-176.591,-54.045
-240.364,-210.479,-195.784,-8.091,-205.184,36.317,-176.066,-53.614
-235.805,-208.249,-191.065,-9.03,-200.68,37.252,-171.152,-49.239
-219.324,-195.935,-174.904,2.248,-183.538,50.206,-155.212,-34.275
-196.968,-175.436,-153.088,19.825,-160.114,68.825,-133.863,-13.599
-178.88,-156.121,-135.896,32.495,-141.662,81.282,-117.006,3.282
-169.068,-143.991,-127.845,36.025,-132.725,84.425,-109.207,11.169
-164.519,-138.912,-124.113,35.235,-127.943,84.64,-106.091,14.297
-158.33,-135.815,-116.366,36.879,-118.719,88.709,-99.686,21.654
-145.31,-127.58,-101.909,43.282,-102.896,99.116,-86.838,35.57
-130.386,-114.865,-87.191,49.755,-87.524,110.893,-72.165,48.932
-123.419,-106.359,-79.594,50.185,-79.553,115.515,-62.248,55.807
-123.243,-103.523,-77.073,46.739,-76.551,113.972,-57.472,59.356
-118.917,-97.57,-70.877,49.029,-70.32,117.346,-50.881,67.151
-106.195,-84.142,-56.84,62.794,-56.734,131.033,-36.488,82.42
-91.232,-69.125,-39.367,84.242,-39.308,147.827,-17.311,101.105
-77.943,-57.013,-23.708,106.085,-23.075,160.035,-0.122,117.7
-63.361,-44.016,-9.652,124.961,-8.588,169.109,14.114,131.197
-48.086,-28.805,3.338,140.836,4.364,178.398,26.774,141.659
-37.444,-17.543,12.785,153.511,13.993,186.314,36.018,148.457
-31.306,-12.269,18.427,163.035,20.688,190.551,40.866,153.717
-26.313,-7.942,22.202,168.915,25.962,190.912,43.35,158.652
-24.124,-3.44,23.206,168.238,28.012,187.504,44.113,159.81
-27.038,-3.453,19.841,159.501,24.926,180.955,40.86,155.089
-30.266,-7.144,16.271,147.891,21.105,174.791,35.627,150.111
-27.319,-6.669,18.64,140.826,23.281,173.255,36.523,151.978
-21.151,-1.598,23.413,138.276,29.136,174.453,42.257,156.602
-19.595,-0.133,20.472,135.574,31.938,172.315,41.186,155.202
-21.196,-2.612,9.443,133.404,35.309,166.999,34.947,151.521
-18.201,-0.688,1.73,135.38,45.946,165.102,37.277,154.93
-10.588,6.843,4.4,139.556,58.629,169.044,48.235,163.655
-4.572,13.309,11.859,140.516,65.278,173.793,56.335,169.901
-1.305,17.04,17.152,137.635,67.547,175.001,59.544,172.342
2.226,20.858,20.683,134.88,69.434,173.811,63.098,173.555
6.748,24.242,24.657,133.983,70.807,172.59,67.386,174.09
13.464,27.988,30.536,135.175,74.407,172.921,72.862,176.663
24.8,36.783,40.51,140.683,84.906,177.064,83.535,185.738
36.839,48.683,52.325,148.988,97.302,183.544,96.459,197.027
42.095,54.997,59.528,153.35,101.422,185.75,102.554,200.527
41.689,54.166,61.64,152.311,98.643,181.98,101.321,196.494
42.758,52.122,63.927,151.385,98.897,178.636,101.016,194.652
47.03,51.94,68.449,153.759,104.986,180.202,105.908,199.227
51.992,53.479,74.394,157.876,112.219,184.399,113.383,206.034
56.285,55.824,80.659,159.569,116.576,186.045,119.192,210.59
59.222,57.381,84.946,155.847,117.55,183.19,121.196,211.881
61.477,59.065,86.813,150.386,117.86,180.196,121.405,211.572
65.712,64.109,89.569,149.168,120.742,181.115,124.207,213.226
72.746,72.334,96.057,152.12,126.495,183.926,131.312,218.911
78.89,78.122,104.414,154.356,132.044,185.003,139.246,224.985
80.245,77.574,109.91,152.362,134.243,183.449,143.265,226.223
78.451,74.44,110.755,147.263,133.218,179.993,142.74,223.256
78.4,74.883,110.437,142.937,131.94,176.065,141.248,221.059
81.64,80.034,113.396,141.361,132.827,173.304,142.206,221.87
84.997,85.133,118.228,141.518,133.948,170.454,143.916,221.782
85.981,85.739,119.939,143.424,132.052,165.139,142.506,217.093
87.126,84.247,119.727,148.521,130.068,160.494,140.693,212.648
91.309,85.838,122.87,154.498,132.793,160.993,143.968,214.716
96.263,90.96,128.254,156.947,137.186,163.508,149.502,219.491
98.54,96.415,130.702,154.676,137.334,162.078,150.483,219.721
98.87,99.344,130.483,148.471,134.887,157.407,148.131,216.786
100.288,99.63,132.133,141.212,135.757,154.649,149.03,216.738
103.151,100.433,136.077,137.375,139.806,154.715,153.414,219.29
103.645,101.531,137.29,135.598,140.612,152.229,154.661,218.336
98.419,96.69,132.79,129.508,134.976,142.731,149.427,211.112
90.836,87.166,126.954,119.402,127.955,130.328,142.654,202.375
88.854,84.675,126.646,113.794,126.422,124.45,141.189,198.842
94.269,91.083,132.215,116.891,130.404,127.39,145.269,201.152
100.226,95.461,137.589,122.476,134.257,131.143,149.809,204.781
101.683,94.31,138.627,122.6,134.167,129.335,151.236,206.401
100.135,93.552,136.558,116.691,130.999,124.218,149.319,205.121
98.125,94.863,134.346,109.865,127.899,119.625,145.852,201.444
95.946,94.613,133.132,105.059,126.484,115.021,142.844,196.757
93.589,92.013,132.625,101.399,125.758,109.8,141.069,192.609
92.889,90.936,133.547,99.316,125.702,106.973,141.341,190.934
96.19,94.215,137.556,100.44,128.653,108.421,144.828,192.976
103.067,99.913,144.207,103.111,134.798,110.863,150.355,197.174
109.269,103.712,149.787,103.147,139.892,109.983,154.226,199.722
110.682,103.65,151.546,99.049,140.67,106.119,154.72,198.285
108.696,102.456,151.33,93.591,139.215,102.484,154.167,194.841
108.381,104.465,152.52,90.087,139.39,100.368,155.476,193.54
111.726,109.701,155.914,89.274,142.13,99.358,158.967,195.555
115.833,112.887,159.279,88.621,144.896,98.325,162.304,197.169
117.594,111.258,160.213,85.031,144.948,95.783,163.25,194.786
117.332,108.706,159.18,79.237,142.701,91.574,162.105,189.43
116.757,108.199,158.001,74.829,139.974,86.366,160.02,183.519
117.858,109.475,158.83,75.356,139.062,82.247,159.232,179.691
122.727,113.533,163.84,80.965,142.747,82.161,163.072,181.452
129.043,118.993,170.404,85.267,148.756,83.974,169.183,186.305
132.463,122.347,173.61,83.484,151.674,83.218,171.541,187.293
134.407,125.396,174.967,80.804,152.538,81.783,171.81,185.49
139.3,131.207,179.865,84.484,156.879,84.564,177.183,188.369
148.016,137.807,189.712,94.285,166.169,92.027,188.825,197.319
157.139,142.935,200.157,103.534,176.008,99.668,199.841,205.969
162.036,147.028,205.248,106.153,180.948,102.129,203.927,209.13
161.953,150.14,204.332,103.237,180.628,99.455,202.643,208.296
160.059,150.638,201.439,99.645,178.167,95.782,200.499,206.325
158.102,147.461,198.08,95.743,174.173,91.295,197.218,201.907
156.51,143.725,193.934,90.849,169.075,84.741,192.232,195.137
157.089,144.44,191.284,88.576,166.497,79.968,189.533,190.84
159.876,148.921,191.445,90.018,167.52,79.496,190.622,190.074
162.317,152.414,192.216,90.705,168.505,78.885,191.32,188.152
164.678,155.029,192.895,89.073,168.529,75.18,189.925,184.081
168.9,159.432,194.597,87.925,170.124,71.676,188.937,181.12
172.121,162.292,195.499,87.356,172.013,70.161,187.837,178.823
171.299,159.1,194.98,86.059,172.122,68.838,185.411,175.725
170.218,152.835,197.684,86.036,174.021,67.988,185.56,174.778
171.09,148.268,203.26,87.426,178.443,67.275,188.827,175.6
168.764,145.379,202.391,85.523,177.667,62.12,187.29,170.779
162.354,144.325,192.604,79.984,169.169,51.958,178.028,158.547
159.331,146.851,184.752,78.363,162.312,44.448,169.872,148.086
162.059,151.122,185.315,83.177,162.46,43.543,168.519,145.381
163.332,153.458,186.06,85.075,162.129,42.272,167.378,144.651
159.385,153.133,180.858,78.938,156.839,36.222,162.288,141.161
156.057,150.995,177.506,74.372,154.502,32.736,160.662,140.172
157.662,148.048,181.493,78.052,159.544,36.159,165.974,144.418
160.278,147.432,185.28,81.734,164.244,38.915,170.135,146.885
160.591,151.413,183.389,78.567,163.507,36.16,168.434,143.447
161.781,156.668,181.852,74.698,163.124,33.569,166.715,139.715
166.736,158.616,186.316,76.909,168.377,35.756,170.514,140.791
172.054,157.541,193,81.604,175.682,39.441,176.928,143.552
173.089,156.611,196.286,82.339,179.74,40.234,180.079,143.051
171.674,157.497,197.571,80.505,181.841,39.131,180.408,141.099
173.526,160.2,201.895,81.768,186.627,40.346,183.439,143.103
179.054,164.186,208.871,85.44,193.593,44.049,189.698,148.461
182.176,166.953,211.491,84.733,196.287,44.364,192.357,149.875
178.703,164.722,205.603,77.489,191.244,37.46,187.198,143.179
171.501,158.169,196.193,69.312,183.243,27.721,178.82,133.208
166.087,152.275,190.47,65.25,178.463,22.084,173.733,127.16
164.57,149.311,189.742,65.05,177.801,21.827,173.327,126.845
165.941,148.792,191.292,66.156,179.385,23.23,175.772,129.519
169.209,150.689,193.441,67.064,182.051,23.604,178.946,131.246
172.913,152.753,195.765,67.297,184.648,23.015,180.793,129.75
174.285,151.189,197.325,65.414,185.719,21.306,180.507,126.444
172.488,146.95,197.338,59.743,185.135,17.494,178.703,123.305
169.618,144.509,195.688,51.083,183.611,11.998,175.474,119.2
167.309,144.397,192.682,42.85,181.452,6.852,171.249,113.275
165.418,143.057,189.523,37.682,179.209,3.191,168.033,107.785
163.236,139.079,187.081,34.775,177.35,-0.035,166.328,103.894
160.406,134.578,184.584,31.783,175.517,-4.298,164.573,99.955
155.883,130.233,179.745,26.465,171.716,-10.809,160.954,93.997
147.75,123.841,170.419,17.233,163.042,-20.07,153.019,84.809
137.167,115.121,158.469,6.334,150.919,-29.449,140.949,74.011
129.008,107.51,149.022,-0.817,141.546,-35.138,130.281,66.07
126.106,103.909,144.116,-2.189,137.954,-36.909,125.199,63.041
126.153,102.721,140.862,-1.72,136.416,-37.889,122.684,61.746
125.316,100.234,136.259,-4.247,132.332,-40.887,117.812,57.718
123.936,97.74,132.06,-9.254,127.487,-44.523,111.884,51.643
126.677,101.057,133.197,-11.515,128.268,-43.908,111.177,49.571
134.677,109.942,139.666,-9.239,135.134,-38.88,116.515,53.225
141.948,116.15,144.44,-7.795,140.295,-36.536,120.158,56.287
143.672,115.143,142.937,-11.28,138.912,-40.354,117.192,54.588
142.219,111.618,138.353,-16.303,134.316,-45.131,111.377,50.471
141.735,110.959,135.027,-19.005,130.353,-46.836,106.906,46.085
141.653,111.197,132.107,-21.455,126.077,-48.899,102.484,40.349
138.46,107.474,126.716,-26.808,119.607,-55.295,95.427,32.27
132.809,101.43,120.68,-32.645,113.385,-62.853,88.111,24.514
130.17,99.642,119.117,-34.009,112.107,-65.493,86.327,21.443
131.957,102.701,122.149,-31.411,115.427,-63.823,90.043,22.46
133.028,104.151,124.161,-30.127,117.713,-63.675,92.488,22.26
130.852,101.899,122.595,-31.567,116.563,-66.562,90.964,19.545
127.99,100.025,120.393,-31.725,114.828,-69.078,89.498,17.852
125.163,99.147,118.598,-29.409,113.207,-70.56,89.039,16.911
121.994,97.539,115.622,-27.375,110.027,-73.209,86.666,13.769
121.92,98.346,113.587,-24.678,107.744,-75.133,84.508,11.187
127.922,105.086,116.303,-18.44,110.47,-72.234,87.648,13.903
138.052,116.186,123.046,-10.549,117.597,-65.847,95.864,20.692
148.344,127.742,129.291,-4.627,124.637,-60.859,104.347,26.847
154.838,135.353,130.652,-2.798,126.947,-60.196,107.257,28.1
155.413,136.981,126.745,-6.454,123.633,-64.032,101.536,22.356
153.014,136.687,122.588,-12.892,119.563,-68.77,92.784,13.966
151.886,138.328,121.811,-16.334,119.005,-70.032,89.697,10.491
151.299,138.538,121.2,-16.695,119.301,-69.862,91.025,11.979
147.657,132.207,117.124,-19.179,116.138,-73.841,88.865,11.135
140.795,121.095,111.572,-24.277,110.708,-81.6,82.445,4.606
134.87,113.002,108.328,-27.675,107.3,-87.478,78.035,-3.034
132.456,111.939,107.794,-28.442,106.917,-88.972,77.793,-7.057
131.191,113.131,107.67,-28.899,107.161,-88.71,78.222,-7.927
128.088,110.951,106.695,-29.497,106.559,-89.37,77.739,-8.35
123.561,106.581,105.457,-28.733,105.175,-90.899,77.492,-9.689
120.266,103.899,104.531,-25.916,103.352,-92.14,77.363,-11.329
119.245,101.882,103.756,-22.964,101.884,-93.108,76.574,-12.692
118.715,97.626,102.907,-22.689,101.31,-95.204,75.709,-14.966
116.795,93.454,101.478,-25.367,100.701,-99.681,75.037,-19.552
112.068,91.28,97.324,-30.075,97.318,-106.725,72.065,-26.782
104.024,86.341,89.285,-36.603,89.558,-115.114,64.6,-35.275
96.247,77.044,81.823,-42.423,81.445,-121.901,56.37,-41.188
93.116,70.781,80.188,-43.84,78.607,-124.263,53.605,-42.056
93.217,71.58,81.891,-42.256,79.867,-123.174,56.227,-40.482
92.769,73.834,81.257,-42.025,80.241,-122.377,58.821,-39.686
90.743,71.885,78.137,-43.67,78.466,-123.308,57.568,-39.966
86.478,66.031,74.793,-45.22,75.408,-124.891,52.173,-42.268
80.207,59.349,71.053,-46.374,71.202,-126.751,44.708,-48.072
74.714,53.027,66.583,-48.351,66.47,-129.639,37.535,-55.426
71.249,46.714,62.439,-51.126,62.344,-133.288,31.97,-60.817
69.257,43.042,59.763,-52.172,59.972,-135.171,28.901,-63.073
68.903,44.424,58.155,-50.581,59.293,-134.743,27.272,-64.383
68.666,46.757,54.814,-50.482,57.047,-136.889,23.072,-68.976
65.583,44.251,47.853,-55.289,50.158,-144.652,14.516,-77.7
60.031,36.774,40.403,-61.132,41.526,-152.478,6.535,-84.889
55.57,29.164,37.272,-61.796,37.079,-153.196,5.579,-85.137
53.614,25.005,37.855,-58.094,36.988,-148.448,10.454,-81.129
52.016,22.257,37.216,-56.607,36.037,-146.095,13.156,-79.957
49.676,19.443,34.598,-59.232,33.086,-147.697,10.503,-82.711
47.611,19.691,33.89,-61.36,31.966,-147.59,7.881,-84.667
44.846,20.748,34.826,-62.378,32.372,-145.881,8.293,-85.315
40.027,16.772,32.873,-67,29.582,-149.049,7.082,-88.914
35.353,11.654,27.578,-74.954,23.193,-156.53,0.79,-96.076
32.37,8.982,22.454,-80.882,17.362,-161.312,-6.945,-102.376
29.245,1.51,19.659,-82.45,14.469,-161.616,-10.143,-103.992
25.52,-10.651,19.91,-81.371,14.713,-160.496,-6.109,-101.365
22.353,-15.79,21.785,-80.809,16.983,-160.538,1.748,-98.358
18.882,-12.5,20.053,-83.583,16.528,-163.729,3.024,-99.137
14.901,-9.996,12.921,-88.323,10.325,-168.416,-7.955,-103.351
13.284,-10.5,7.192,-90.023,4.358,-169.904,-19.35,-105.828
14.353,-11.555,6.68,-88.552,3.884,-169.135,-19.734,-106.019
13.97,-15.284,6.019,-88.729,4.431,-170.468,-16.691,-108.582
11.009,-21.688,3.022,-89.783,2.702,-171.383,-17.66,-111.211
9.019,-24.339,1.816,-87.394,2.05,-167.904,-17.072,-108.071
8.797,-20.867,2.003,-84.463,2.481,-165.046,-14.198,-103.708
7.401,-17.868,-1.164,-86.971,-0.649,-169.152,-17.523,-106.917
4.809,-19.347,-7.147,-92.673,-6.97,-176.217,-26.964,-115.149
3.687,-20.046,-10.672,-94.233,-10.668,-178.231,-31.885,-119.035
3.219,-18.051,-11.293,-91.125,-10.414,-175.95,-29.245,-118.296
0.205,-21.088,-14.502,-89.68,-11.556,-176.514,-28.607,-120.984
-5.017,-30.396,-22.146,-92.716,-17.098,-181.603,-36.028,-129.093
-8.973,-35.833,-28.986,-95.723,-23.251,-185.667,-44.591,-135.373
-10.068,-34.826,-30.557,-93.565,-25.221,-184.544,-44.805,-134.343
-9.823,-34.703,-28.519,-86.266,-22.971,-180.399,-37.547,-129.076
-10.485,-35.471,-28.148,-77.681,-21.386,-178.519,-33.97,-127.122
-12.653,-32.294,-32.653,-71.948,-24.726,-180.751,-42.245,-131.828
-14.19,-28.26,-38.397,-69.278,-29.788,-183.051,-55.203,-137.886
-12.599,-27.523,-38.948,-66.04,-29.74,-181.669,-58.592,-138.912
-7.762,-25.79,-33.781,-61.162,-23.961,-177.455,-50.643,-135.474
-0.831,-18.486,-27.576,-57.069,-17.451,-172.018,-42.086,-130.63
6.585,-9.406,-23.725,-54.442,-13.633,-165.951,-39.309,-125.248
11.511,-4.853,-22.35,-51.18,-12.254,-160.671,-39.127,-120.855
12.112,-5.039,-22.087,-46.821,-11.746,-158.275,-37.75,-119.936
10.386,-5.445,-22.643,-45.245,-12.068,-159.609,-36.821,-122.36
9.375,-3.738,-24.422,-48.559,-13.923,-162.082,-38.967,-124.773
10.91,-2.052,-24.656,-50.763,-14.356,-161.015,-40.512,-123.111
15.026,-3.068,-20.416,-45.891,-10.01,-155.256,-36.508,-116.917
18.537,-5.201,-15.692,-38.272,-4.799,-148.971,-30.574,-110.983
18.958,-4.514,-15.849,-35.377,-4.273,-145.849,-28.384,-108.884
18.842,-0.882,-17.897,-35.969,-5.603,-144.566,-26.428,-108.231
21.8,3.866,-15.639,-34.297,-2.691,-142.267,-19.598,-105.92
26.725,9.138,-10.755,-31.172,2.464,-139.518,-15.054,-103.433
28.885,11.453,-10.005,-31.804,2.851,-138.764,-22.13,-103.852
27.417,8.312,-13.052,-35.202,-0.386,-139.256,-32.432,-105.583
26.666,5.461,-13.505,-35.832,-0.206,-138.21,-31.897,-104.378
27.48,7.076,-11.269,-34.038,2.377,-136.366,-24.276,-101.417
27.091,9.078,-10.699,-33.157,2.28,-135.724,-20.426,-100.729
28.048,10.764,-9.339,-31.051,3.009,-133.96,-18.564,-100.341
33.962,15.71,-2.94,-25.477,9.431,-128.605,-12.957,-95.995
39.828,21.257,3.88,-20.101,16.387,-122.616,-7.297,-90.036
40.355,24.304,5.378,-17.661,17.911,-118.83,-6.36,-87.157
39.946,27.596,4.72,-15.94,17.614,-115.641,-6.765,-86.572
42.498,29.654,5.809,-14.433,19.491,-113.347,-5.462,-86.274
43.75,25.874,6.261,-15.657,20.269,-114.689,-6.042,-87.44
41.518,20.58,4.617,-19.025,17.896,-117.63,-10.352,-89.892
39.858,20.774,3.569,-21.279,16.084,-117.569,-13.864,-90.77
41.398,25.285,5.266,-20.41,17.936,-113.757,-11.856,-88.184
45.657,30.22,9.854,-16.139,22.662,-107.965,-4.664,-82.481
51.136,34.638,15.363,-10.688,27.396,-102.088,2.555,-76.447
55.223,37.618,18.55,-7.217,30.004,-98.437,5.123,-73.452
56.919,37.671,19.323,-6.159,31.544,-97.882,4.975,-72.48
58.136,35.337,20.879,-5.575,34.509,-97.378,8.111,-69.088
60.163,33.074,24.385,-3.284,38.768,-93.011,15.823,-62.385
62.166,33.251,27.44,0.8,41.644,-86.242,23.406,-55.783
63.538,36.592,27.906,4.064,41.612,-82.299,27.457,-51.869
64.163,40.095,25.46,3.782,38.769,-83.24,26.781,-51.934
61.76,38.6,18.921,-1.598,31.885,-88.138,17.986,-57.913
55.2,32.315,8.962,-10.665,21.743,-94.802,3.231,-67.923
49.144,26.101,1.467,-18.059,14.133,-98.906,-6.603,-75.127
47.281,21.384,-1.18,-21.177,11.201,-99.165,-9.006,-77.509
46.586,18.922,-4.155,-24.065,8.615,-100.025,-11.477,-79.349
43.737,20.912,-9.022,-28.755,5.46,-103.17,-13.806,-80.985
39.871,23.182,-11.052,-30.992,5.209,-104.398,-11.369,-79.417
37.319,20.309,-9.657,-29.512,7.372,-102.385,-8.436,-76.856
37.831,18.12,-8.253,-28.012,8.879,-100.081,-9.49,-76.566
42.633,24.098,-5.863,-26.382,10.602,-97.113,-9.388,-75.535
48.929,31.834,-0.831,-22.588,13.832,-91.781,-4.607,-71.148
51.351,32.035,3.454,-19.346,16.351,-86.441,-0.283,-66.811
49.721,28.759,4.731,-20.113,17.378,-83.194,0.431,-64.797
48.426,28.977,5.683,-24.4,19.221,-80.317,1.103,-62.576
49.393,29.845,8.51,-29.746,22.711,-75.971,4.653,-58.58
51.586,29.126,11.833,-33.878,26.009,-71.269,9.451,-54.864
53.982,31.848,13.276,-35.576,26.901,-68.222,11.796,-53.73
55.217,38.497,11.558,-36.002,24.15,-67.427,9.174,-55.487
54.75,42.809,8.17,-36.292,19.644,-68.101,3.941,-57.87
55.138,43.14,7.646,-34.702,18.52,-67.526,2.734,-56.882
57.13,42.762,10.877,-30.998,21.791,-63.809,7.074,-52.277
57.364,42.897,12.752,-28.043,24.283,-59.606,10.737,-48.725
56.375,43.878,12.25,-25.323,24.651,-56.937,11.358,-47.354
59.858,47.731,14.839,-19.229,27.597,-52.469,13.617,-44.028
68.59,54.921,21.265,-11.157,33.788,-44.715,18.413,-38.437
75.259,61.198,25.267,-6.964,37.623,-39.286,21.122,-35.167
74.83,62.13,24.315,-7.648,36.648,-40.105,20.813,-35.14
71.696,59.637,23.371,-7.891,35.519,-42.219,20.98,-34.768
71.131,58.534,26.126,-4.29,38.006,-39.768,22.71,-32.571
71.838,59.641,29.535,2.087,41.274,-34.248,24.044,-30.203
71.965,60.645,29.193,10.41,41.02,-30.497,23.148,-29.263
72.375,59.952,25.12,18.928,37.198,-30.592,19.835,-30.231
72.365,58.215,20.673,23.068,33.04,-32.837,16.77,-31.864
69.728,56.446,17.995,21.887,30.513,-34.089,16.379,-32.378
64.081,54.012,15.911,19.226,28.007,-34.172,16.385,-32.202
58.329,51.678,13.391,17.094,24.46,-34.928,14.335,-31.876
55.911,51.096,11.298,14.855,21.649,-35.702,12.393,-30.481
54.541,48.759,8.532,11.545,19.335,-36.189,12.017,-29.701
48.705,40.303,3.652,7.092,15.753,-38.295,11.703,-31.952
40.348,30.416,-0.17,3.679,12.935,-40.53,12.23,-34.31
36.59,27.267,-0.007,2.585,13.031,-39.029,13.675,-33.405
37.864,30.821,1.314,1.008,13.471,-35.215,11.292,-31.578
39.194,35.617,0.752,-2.653,12.308,-33.507,4.967,-30.924
38.79,38.051,0.071,-4.103,11.771,-32.783,1.924,-29.421
37.98,36.909,1.637,-0.418,13.294,-29.081,4.775,-26.191
37.803,34.053,4.409,2.96,15.325,-23.822,9.608,-23.349
39.75,34.282,7.042,0.917,17.151,-20.364,14.422,-21.762
45.169,39.536,10.502,-2.182,19.919,-17.812,19.633,-19.563
51.296,45.687,14.348,-0.597,22.85,-15.113,23.24,-16.39
53.515,48.544,15.959,3.396,23.448,-13.834,23.021,-14.569
52.81,49.235,16.063,6.329,22.646,-13.284,21.707,-14.18
53.078,49.447,17.635,9.797,23.318,-10.756,22.653,-12.983
52.403,46.963,18.67,12.858,23.691,-7.893,23.258,-12.038
47.547,41.802,15.353,11.323,20.346,-8.572,20.438,-13.889
42.979,39.304,10.865,7.461,15.985,-10.824,17.73,-16.027
44.559,42.018,11.778,8.027,16.391,-9.225,19.946,-13.931
50.509,47.481,18.842,14.831,22.513,-3.064,26.508,-7.886
55.807,53.586,26.871,23.954,29.759,4.014,33.032,-1.693
58.237,57.093,30.387,30.141,32.633,8.503,34.973,1.484
57.493,54.005,27.888,30.288,29.57,8.355,31.165,0.591
53.938,47.283,21.851,25.137,23.32,3.964,24.667,-3.435
49.148,44.133,15.124,17.781,16.674,-1.96,18.386,-8.846
46.145,45.465,9.767,11.751,11.23,-6.701,13.619,-13.256
47.747,47.923,8.463,11.159,9.464,-7.646,12.794,-13.808
52.34,51.18,11.815,17.4,12.372,-3.491,17.28,-10.026
53.966,54.112,15.665,24.906,16.43,2.213,23.014,-5.365
50.955,52.819,16.578,27.863,18.265,4.96,24.987,-3.019
49.12,48.898,17.142,28.772,19.545,6.306,24.859,-1.513
51.751,48.145,20.706,32.614,22.742,10.299,27.006,2.045
54.47,50.201,24.826,37.883,26.045,15.86,30.292,6.36
53.915,50.971,25.704,40.699,27.041,19.163,31.566,8.211
53.09,50.848,25.027,42.329,27.307,20.426,32.224,8.084
55.099,52.233,25.941,45.677,28.738,22.485,34.188,9.095
58.371,54.025,27.485,49.614,30.085,25.72,35.482,12.246
60.167,53.287,28.496,51.608,30.753,28.562,35.469,15.989
60.184,51.055,30.432,51.54,32.31,30.295,37.135,18.845
59.996,52.593,33.561,51.496,34.755,31.881,40.569,20.73
60.944,58.824,36.484,53.621,36.926,35.066,43.058,22.981
63.01,63.866,39.416,57.848,39.785,39.959,45.619,26.917
65.684,64.993,42.889,61.698,44.277,44.21,49.795,31.117
67.966,64.967,44.728,62.777,47.989,45.334,52.364,32.367
67.765,64.45,43.374,61.67,48.477,43.5,51.425,30.96
63.715,61.332,40.449,60.57,46.181,41.293,49.096,29.753
56.841,54.493,36.411,59.285,41.584,39.79,45.122,27.912
50.894,47.358,30.974,56.925,35.994,38.167,38.965,23.911
50.161,46.28,27.422,55.394,33.461,37.448,35.005,21.441
53.768,50.216,28.111,56.034,35.173,38.742,36.483,23.814
56.357,52.2,30.194,56.755,37.335,40.24,40.274,27.703
55.935,51.524,31.135,56.743,37.889,41.021,42.616,28.898
54.344,50.762,31.866,58.48,38.417,42.532,44.056,28.658
52.387,49.08,32.89,62.572,39.253,44.596,45.827,29.967
50.602,46.569,33.449,66.512,39.215,46.238,47.307,33.103
50.429,45.19,33.955,68.964,39.166,48.836,48.993,36.924
52.027,46.244,35.397,71.164,40.854,53.115,52.056,40.591
54.407,50.116,37.947,73.95,43.781,56.649,55.48,44.067
56.61,54.187,41.152,76.128,46.39,57.977,58.285,47.314
57.256,54.456,43.653,76.675,47.772,58.703,60.564,48.827
55.479,51.328,43.078,75.263,46.24,59.19,59.317,46.643
51.961,48.486,38.138,70.709,40.307,56.803,51.29,41.041
48.126,46.528,31.557,63.551,33.162,51.365,41.998,35.956
45.787,43.074,28.36,58.428,30.6,47.855,40.53,35.669
46.141,38.973,29.399,59.008,32.753,49.613,45.706,39.153
48.687,39.121,31.564,63.897,35.102,54.178,49.636,42.208
51.871,43.842,34.035,69.569,36.417,58.475,50.297,43.978
52.93,46.32,36.742,72.78,37.386,61.827,49.93,45.589
50.14,44.33,37.132,72.625,36.481,64.36,48.497,46.018
