EEG 1,EEG 2,EEG 3,EEG 4,EEG 5,EEG 6,EEG 7,EEG 8
-24.049,-39.886,-8.148,5.318,-9.115,-22.19,-7.652,-13.659
-22.619,-36.783,-7.334,4.404,-8.15,-22.577,-7.464,-11.808
-18.152,-31.688,-3.869,5.898,-4.592,-21.94,-2.29,-7.753
-14.544,-28.226,1.525,10.257,0.817,-18.98,4.953,-2.61
-15.272,-31.667,5.58,16.007,5.255,-13.415,10.93,2.712
-19.401,-41.389,5.293,20.577,5.831,-7.655,13.626,6.143
-22.492,-47.641,1.259,21.606,2.926,-5.206,12.023,5.403
-21.975,-44.21,-3.239,19.2,-0.844,-6.144,7.152,2.318
-20.204,-38.998,-6.615,15.518,-4.557,-8.085,2.062,0.942
-19.879,-40.273,-9.317,12.608,-7.883,-9.936,-0.597,1.257
-19.429,-42.511,-10.784,11.664,-8.853,-10.921,-0.706,0.848
-17.049,-39.356,-10.641,12.395,-7.475,-10.359,-0.82,-0.237
-14.194,-34.219,-10.469,13.207,-6.71,-9.514,-3.671,-1.305
-11.14,-29.469,-10.089,13.971,-6.55,-9.225,-7.555,-2.415
-6.174,-24.053,-7.232,16.246,-4.196,-8.088,-7.9,-2.842
-1.008,-21.051,-3.109,19.927,-0.763,-5.672,-5.388,-2.647
1.189,-21.346,-0.958,23.483,0.52,-3.047,-4.135,-2.665
1.409,-19.253,-0.344,26.201,0.321,-0.604,-3.841,-2.414
0.869,-16.041,-0.145,26.737,-0.027,-0.292,-3.566,-2.428
-2.252,-20.922,-1.981,23.327,-1.954,-4.814,-5.464,-4.47
-7.266,-31.478,-5.756,18.266,-5.153,-10.89,-8.94,-7.089
-10.984,-35.402,-8.773,16.091,-6.934,-12.806,-11.055,-7.108
-13.05,-32.466,-10.048,16.293,-6.943,-12.027,-11.783,-5.289
-14.12,-30.2,-10.253,15.348,-6.785,-12.863,-12.377,-5.656
-13.352,-26.929,-9.639,13.726,-6.732,-14.279,-12.841,-8.848
-10.145,-21.426,-7.745,14.605,-5.315,-13.221,-12.153,-10.197
-4.854,-21.579,-4.523,18.042,-1.748,-10.41,-9.429,-7.518
-0.005,-28.818,-2.786,19.632,1.08,-9.509,-6.58,-5.46
0.894,-32.578,-5.906,16.417,-0.934,-11.772,-7.03,-7.757
-1.972,-27.497,-12.196,11.322,-7.029,-14.776,-10.725,-11.982
-5.506,-21.564,-16.933,8.068,-12.559,-17.488,-14.571,-14.955
-7.789,-21.928,-18.179,7.092,-14.663,-20.24,-16.479,-16.267
-8.031,-24.402,-16.491,8.713,-13.156,-20.087,-15.753,-15.468
-6.006,-22.861,-13.458,12.764,-9.836,-15.23,-13.364,-12.553
-2.995,-18.746,-11.916,15.949,-8.105,-10.481,-12.446,-10.27
-0.6,-16.081,-12.396,16.587,-8.638,-9.639,-13.513,-10.275
-0.023,-15.705,-12.771,16.617,-9.178,-10.614,-13.379,-11.035
-1.894,-16.938,-13.176,16.565,-9.792,-11.722,-11.712,-11.739
-3.548,-18.474,-14.123,16.611,-10.783,-12.56,-11.164,-12.332
-1.344,-18.401,-13.04,18.699,-9.425,-11.612,-11.516,-11.764
2.643,-16.455,-9.144,22.226,-5.371,-9.31,-10.338,-10.157
3.066,-14.853,-6.507,23.703,-3.032,-8.44,-8.005,-9.291
-0.483,-16.706,-8.181,21.913,-4.77,-10.319,-7.637,-10.204
-3.957,-22.319,-11.42,19.638,-7.168,-12.815,-9.899,-11.843
-5.595,-27.579,-12.388,19.306,-6.932,-12.689,-11.556,-12.307
-6.43,-28.712,-11.859,19.283,-5.691,-10.461,-10.889,-11.763
-6.239,-25.964,-12.139,17.152,-5.875,-10.218,-10.283,-12.266
-3.925,-20.71,-12.438,14.273,-6.561,-12.872,-11.035,-13.496
-0.043,-12.737,-11.147,14.132,-6.083,-14.092,-11.185,-12.752
3.245,-3.897,-9.048,17.443,-5.01,-11.363,-10.282,-10.197
4.73,-0.004,-6.929,21.754,-3.959,-7.061,-9.015,-7.845
5.937,-3.062,-4.126,24.722,-1.997,-3.927,-6.615,-5.472
7.321,-8.37,-2.081,24.843,-0.192,-3.502,-5.03,-3.795
5.972,-11.886,-3.378,22.554,-1.35,-5.355,-7.405,-4.842
2.246,-11.42,-6.52,21.513,-4.594,-5.782,-11.218,-6.851
1.078,-5.793,-8.477,23.22,-6.998,-3.617,-12.665,-7.314
3.024,1.501,-9.944,23.979,-8.814,-3.105,-12.975,-7.686
4.117,5.439,-11.995,22.455,-10.78,-5.582,-13.708,-8.953
3.803,4.549,-12.722,22.261,-11.188,-7.011,-13.477,-9.285
3.831,0.262,-11.406,24.065,-9.846,-5.941,-12.158,-8.479
3.488,-3.372,-9.949,24.492,-8.838,-5.03,-11.36,-8.475
2.051,-2.428,-8.736,23.237,-8.17,-4.944,-10.639,-9.003
1.673,0.52,-6.64,23.246,-6.178,-3.869,-8.569,-7.935
3.826,-0.363,-4.508,24.598,-3.504,-2.626,-6.246,-6.139
6.203,-2.851,-4.234,24.363,-2.48,-4.007,-5.868,-6.363
6.508,0.099,-5.514,21.99,-3.505,-7.428,-8.061,-8.401
5.786,5.973,-6.353,20.408,-4.709,-9.312,-11.391,-10.165
5.265,5.77,-5.972,21.411,-4.818,-8.13,-12.841,-10.866
3.985,-1.049,-6.066,22.517,-5.2,-6.53,-12.009,-11.314
1.798,-6.262,-8.245,20.917,-7.547,-7.491,-12.227,-12.539
1.133,-5.093,-10.612,18.621,-9.803,-9.277,-13.322,-13.496
3.315,-1.886,-10.069,19.415,-8.643,-7.652,-11.471,-11.842
5.805,-1.41,-7.431,23.136,-5.457,-2.588,-7.661,-8.303
6.018,-0.504,-5.915,26.482,-4.059,1.141,-6.258,-6.037
5.309,3.736,-5.894,27.386,-4.264,0.7,-6.87,-5.14
5.898,6.196,-6.086,26.204,-4.246,-1.671,-6.76,-4.109
6.826,3.474,-7.301,23.492,-5.526,-4.071,-7.327,-4.626
6.972,1.187,-9.585,20.135,-8.769,-6.767,-9.954,-7.605
8.087,4.546,-9.909,18.941,-10.217,-7.959,-11.116,-9.527
10.626,9.312,-7.264,21.017,-7.97,-6.041,-8.03,-7.973
11.515,8.444,-5.213,22.634,-5.72,-4.159,-4.037,-5.421
8.958,3.06,-6.537,20.542,-6.706,-5.744,-4.218,-5.359
5.217,-0.991,-8.943,17.231,-8.763,-8.574,-7.967,-7.762
3.409,-1.874,-8.515,16.737,-8.179,-8.45,-9.886,-9.393
4.22,-0.349,-5.14,18.514,-4.979,-6.006,-7.807,-8.217
6.487,3.096,-1.705,19.777,-1.615,-4.935,-4.697,-6.12
8.494,6.092,-0.661,19.662,-0.156,-6.251,-3.852,-6.534
7.958,5.542,-3.036,17.708,-1.896,-8.652,-6.67,-10.178
5.078,3.692,-6.606,14.562,-5.056,-10.539,-10.714,-13.283
4.452,7.091,-6.674,13.975,-4.91,-9.769,-10.34,-11.818
7.544,15.006,-3.324,17.114,-1.197,-6.286,-6.317,-7.531
8.524,16.802,-2.407,19.351,0.016,-3.781,-6.556,-5.631
4.211,7.566,-6.184,17.29,-4.035,-5.093,-11.69,-7.591
-0.304,-3.112,-10.688,12.879,-9.156,-8.802,-14.928,-10.772
-0.956,-5.404,-13.17,9.478,-11.964,-11.464,-15.511,-13.107
-0.603,-1.95,-14.164,8.999,-12.947,-11.042,-16.47,-13.961
-2.096,1.17,-13.643,11.568,-12.61,-8.363,-16.327,-12.833
-3.62,4.814,-12.063,14.66,-11.757,-6.326,-14.309,-11.316
-2.671,11.034,-11.614,15.334,-12.357,-6.484,-13.859,-12.212
0.689,16.037,-12.325,14.534,-13.919,-6.357,-15.706,-14.154
3.143,13.165,-12.553,14.569,-14.453,-4.323,-16.782,-13.522
1.443,2.705,-12.4,14.823,-14.193,-3.362,-15.759,-10.603
-1.768,-4.236,-11.587,15.436,-13.246,-3.723,-13.184,-7.866
-2.184,-1.062,-9.647,17.599,-11.288,-2.051,-10.42,-6.386
-1.646,3.92,-9.159,18.352,-10.737,-0.328,-10.127,-6.694
-3.041,3.504,-11.482,15.36,-12.766,-2.155,-12.346,-8.275
-3.288,2.951,-12.65,12.9,-13.416,-3.72,-12.624,-8.42
0.93,8.472,-9.295,15.061,-9.771,-0.117,-8.482,-5.127
6.743,17.729,-3.719,19.869,-4.65,5.775,-3.361,-0.251
9.753,23.968,0.009,23.79,-1.847,8.806,-1.36,2.219
9.505,22.162,0.504,25.642,-1.915,8.929,-2.768,0.764
7.962,14.748,-1.039,25.158,-3.371,7.92,-5.452,-2.281
6.637,11.234,-2.474,22.76,-4.481,5.759,-6.872,-4.019
5.515,13.434,-2.542,20.24,-4.484,2.787,-5.811,-3.917
3.656,12.193,-1.75,18.832,-3.909,0.222,-3.844,-3.203
1.36,6.456,-1.12,18.539,-3.317,-1.319,-3.434,-3.036
-0.071,5.416,-1.347,18.815,-3.259,-1.966,-4.941,-4.058
-1.088,9.929,-2.981,18.319,-4.617,-2.302,-6.99,-6.307
-2.848,11.209,-5.092,16.56,-6.605,-2.826,-8.074,-8.305
-4.641,5.285,-5.464,14.462,-7.161,-4.131,-7.248,-8.214
-5.712,-1.937,-4.184,12.435,-6.627,-6.48,-5.636,-7.082
-5.828,-2.515,-2.794,11.572,-6.147,-7.497,-5.14,-6.989
-3.378,4.211,-0.015,13.966,-3.731,-4.334,-4.354,-6.002
1.593,11.994,4.716,18.226,1.231,0.676,-1.609,-1.88
4.716,14.305,6.476,19.342,3.47,2.323,-0.349,1.387
2.643,9.169,1.832,15.61,-0.652,-0.1,-3.583,-0.677
-1.563,1.891,-3.895,11.503,-6.039,-2.834,-7.164,-4.804
-2.34,0.66,-4.225,11.081,-6.256,-3.581,-6.446,-5.751
0.718,5.487,-1.272,12.516,-3.208,-3.791,-4.457,-5.318
3.489,8.252,-0.547,12.821,-2.496,-4.518,-5.561,-7.633
4.224,7.616,-1.446,13.431,-3.776,-3.565,-7.004,-10.355
4.832,10.421,-0.195,16.268,-3.043,-0.246,-4.73,-8.768
6.348,15.276,2.637,19.322,-0.424,2.239,-1.021,-4.466
7.592,14.871,4.027,20.463,1,2.371,-0.001,-2.32
7.926,12.447,3.827,20.099,0.541,1.537,-1.948,-3.039
8.891,16.617,4.439,19.563,0.391,1.003,-3.726,-3.667
12.789,25.802,8.124,21.133,3.443,2.789,-0.897,-1.097
19.15,30.873,14.895,25.769,10.55,7.753,7.819,5.696
23.646,28.34,21.891,30.478,18.947,12.708,18.443,14.238
23.04,23.535,25.872,32.291,24.599,14.849,26.201,20.628
18.831,23.009,25.48,31.245,25.025,14.359,28.639,22.678
13.304,26.202,20.662,27.645,19.75,11.257,24.864,19.849
6.52,24.78,12.511,21.261,10.584,5.74,16.027,12.944
-0.356,13.824,4.469,14.011,1.877,0.532,6.572,5.519
-4.181,2.687,0.206,9.126,-2.464,-2.017,0.781,1.205
-4.77,2.79,-1.397,6.506,-3.951,-3.649,-2.839,-1.893
-5.847,7.156,-4.799,3.206,-7.754,-6.942,-8.471,-7.797
-9.118,2.874,-10.439,-0.923,-14.451,-10.916,-15.497,-14.571
-12.228,-4.04,-14.478,-2.885,-19.315,-13.33,-20.082,-17.485
-12.757,-0.526,-14.581,-1.333,-19.462,-13.019,-20.522,-16.462
-10.759,8.778,-11.796,1.365,-16.49,-10.324,-17.915,-14.724
-9.16,9.784,-9.833,0.984,-14.441,-9.295,-15.72,-14.865
-11.005,2.211,-12.027,-3.551,-16.315,-13.106,-17.283,-17.586
-14.536,-1.753,-16.257,-7.698,-20.163,-17.515,-21.29,-20.881
-15.271,1.887,-17.391,-7.828,-21.581,-17.916,-23.166,-21.85
-12.551,5.812,-14.528,-5.986,-19.61,-16.111,-20.686,-19.782
-9.43,7.297,-10.852,-4.733,-16.501,-14.302,-15.857,-16.392
-8.6,8.708,-9.478,-4.231,-15.079,-12.825,-13.185,-14.541
-10.102,8.889,-11.207,-4.926,-16.725,-13.231,-15.205,-15.719
-11.335,7.654,-13.074,-6.693,-18.38,-15.225,-18.427,-17.988
-10.997,7.091,-11.481,-7.249,-16,-15.41,-17.697,-18.407
-10.888,7.158,-7.722,-5.079,-11.753,-12.389,-14.237,-16.525
-11.703,7.233,-5.563,-1.756,-10.36,-8.39,-12.747,-13.719
-12.41,6.347,-5.177,0.052,-10.961,-6.113,-12.478,-10.827
-12.735,4.875,-4.309,-0.215,-9.978,-6.212,-9.767,-8.38
-11.583,6.703,-2.419,-0.541,-7.417,-7.041,-6.013,-7.457
-7.763,12.029,-0.75,0.388,-5.577,-6.818,-4.935,-8.313
-3.803,16.227,-0.597,0.669,-5.67,-6.27,-6.478,-9.971
-3.341,16.986,-2.474,-2.023,-7.653,-7.819,-9.123,-11.907
-5.695,13.195,-5.384,-6.392,-10.544,-11.453,-12.479,-13.922
-6.686,6.73,-6.39,-8.252,-11.699,-13.402,-14.455,-14.377
-4.201,4.887,-3.803,-5.975,-9.267,-11.372,-13.098,-11.963
-1.155,8.402,-0.718,-3.411,-6.267,-8.496,-11.477,-9.726
-1.159,10.175,-0.164,-3.573,-6.191,-7.831,-12.13,-11.341
-3.185,9.131,-0.093,-3.94,-6.746,-7.497,-11.283,-13.747
-4.104,8.776,1.042,-3.04,-5.478,-6.201,-7.253,-12.107
-3.43,9.442,1.22,-2.885,-4.708,-5.912,-4.87,-8.463
-2.533,10.93,0.343,-3.009,-5.469,-6.299,-5.702,-6.931
-2.341,12.852,-0.084,-2.283,-5.997,-6.19,-5.953,-7.073
-3.02,12.959,-0.989,-2.915,-6.661,-7.625,-4.669,-7.219
-3.722,11.622,-2.691,-5.376,-8.004,-10.576,-3.668,-7.253
-3.041,12.237,-3.123,-6.818,-8.006,-11.588,-3.299,-7.054
-0.616,14.329,-1.978,-6.748,-6.136,-10.608,-3.715,-6.884
2.325,13.435,-1.146,-7.012,-4.803,-10.743,-5.261,-7.909
4.217,9.602,-1.069,-7.526,-5.187,-12.008,-7.01,-9.893
4.878,8.743,0.002,-6.48,-5.213,-11.458,-6.959,-10.094
5.215,13.427,3.212,-3.419,-2.717,-8.316,-3.494,-6.692
5.496,20.182,6.921,-0.569,1.05,-5.039,1.831,-1.877
5.645,24.998,8.438,-0.246,3.013,-3.459,4.789,0.984
5.96,24.006,7.288,-1.438,2.438,-2.351,3.906,1.713
6.272,17.08,5.58,-1.582,1.417,-0.267,1.913,2.075
6.534,12.323,5.675,-0.795,1.994,1.289,1.309,2.055
8.014,14.898,8.449,0.274,4.851,1.69,3.406,1.971
11.096,19.37,12.874,3.802,9.343,4.338,9.01,4.606
13.077,21.247,15.736,9.185,12.223,9.384,14.161,8.856
11.263,21.942,13.641,10.294,9.675,10.544,11.975,8.284
7.456,20.963,7.923,5.057,3.686,5.414,3.99,1.741
6.811,18.034,4.981,0.071,1.553,0.623,0.449,-2.97
10.913,18.327,7.795,0.374,5.58,1.738,4.801,-0.57
14.936,23.537,11.516,2.647,9.765,5.655,8.73,4.265
15.643,26.432,12.633,3.57,10.769,7.752,7.938,6.201
15.315,22.224,13.491,3.83,11.715,7.351,8.011,6.853
14.495,16.204,14.22,1.821,12.686,4.035,10.099,7.68
12.274,16.593,12.917,-2.415,11.231,-0.214,9.525,6.78
11.593,23.46,12.008,-3.085,9.777,-0.022,7.618,4.982
13.782,27.535,13.471,0.579,10.957,4.166,8.196,4.816
15.172,23.972,14.447,2.109,12.316,6.194,9.215,5.778
13.616,18.933,12.978,-0.19,11.364,4.684,7.799,6.183
11.144,18.41,10.839,-1.798,9.408,3.128,5.845,5.777
10.846,22.263,10.44,-0.638,9.398,3.192,6.978,5.512
14.051,27.295,12.814,1.827,12.675,5.003,11.687,6.774
18.299,28.909,16.072,4.069,16.584,8.445,15.534,9.203
19.198,24.523,16.395,4.441,16.879,10.923,13.671,9.931
16.299,18.188,13.436,2.402,13.672,10.021,7.569,7.398
14.042,17.493,11.015,0.466,10.966,7.703,2.959,3.892
15.411,22.856,11.047,1.058,10.665,6.837,2.462,2.329
18.324,25.926,11.973,3.24,11.535,7.267,4.38,3.026
19.845,22.884,13.313,5.144,12.874,8.41,6.771,5.033
19.931,20.073,15.643,6.484,14.75,10.596,9.293,7.641
19.633,21.797,17.358,6.641,16.091,12.191,11.878,10.169
18.985,23.576,17.001,4.993,16.115,11.197,14.22,12.516
17.42,22.121,15.794,3.468,15.365,9.443,16.109,14.614
15.63,21.093,15.463,3.934,14.637,9.663,17.213,15.588
15.641,22.285,16.464,5.275,14.791,11.152,17.187,15.239
16.686,22.02,17.238,5.222,15.357,11.591,15.948,14.24
15.263,20.163,15.657,3.17,14.493,10.047,14.263,12.927
12.007,20.645,12.988,1.705,12.791,8.102,13.955,12.122
10.819,21.967,12.085,3.392,12.511,8.278,15.203,12.423
11.394,19.337,12.405,5.954,13.164,10.197,15.082,12.456
10.684,14.477,11.965,5.524,12.88,11.084,11.986,11.322
8.529,13.085,10.842,2.578,11.393,10.095,8.03,10.129
6.887,15.117,10.032,0.252,9.425,9.006,5.506,9.437
7.181,16.076,10.079,-0.089,8.286,9.385,5.05,8.894
9.627,14.623,10.857,0.611,9.195,10.482,6.041,8.705
12.019,11.91,11.238,0.378,10.864,9.997,6.142,8.405
10.698,8.783,10.007,-1.524,10.503,7.567,3.488,6.52
6.042,6.976,7.606,-3.193,8.185,5.755,-0.193,3.441
3.366,7.617,5.745,-3.523,6.608,5.582,-2.199,1.18
5.275,9.501,5.342,-4.104,6.9,4.613,-2.57,0.48
8.704,12.092,6.547,-4.722,8.358,2.624,-1.82,1.21
10.641,16.361,9.222,-3.167,10.305,3.091,0.413,3.051
10.741,21.322,11.684,-0.765,11.639,5.926,2.703,4.801
9.202,23.635,11.623,-0.855,10.984,7.181,3.213,5.497
5.924,19.966,8.667,-3.584,8.082,5.908,2.431,5.175
1.941,11.112,4.972,-6.685,4.494,4.183,1.548,4.219
0.062,4.931,3.218,-8.188,2.644,3.26,1.042,3.426
2.076,7.429,3.768,-7.674,3.31,3.079,1.356,3.587
5.949,12.971,4.905,-6.225,4.908,3.609,2.796,4.6
6.978,13.172,4.763,-5.153,4.869,4.741,4.135,5.094
3.033,9.679,2.445,-4.969,2.039,5.442,3.379,3.704
-1.832,8.681,-0.311,-4.898,-0.856,5.173,2.032,2.426
-2.941,10.003,-0.576,-4.314,-0.245,4.608,3.847,4.501
-1.323,10.486,1.596,-4.095,2.953,3.844,7.692,8.231
0.403,11.22,3.965,-4.208,5.469,2.603,8.893,9.599
2.86,14.024,5.773,-3.066,6.572,1.836,7.226,8.603
6.653,16.129,7.477,-0.735,7.461,2.573,6.689,7.916
9.806,14.548,8.64,1.023,8.437,4.344,8.225,8.211
10.619,12.863,8.26,1.297,8.411,5.679,8.321,7.749
9.64,15.598,6.332,0.199,6.415,4.781,5.798,6.312
8.437,18.093,4.047,-1.709,3.347,1.415,3.982,5.984
8.094,14.222,2.851,-3.047,1.798,-1.303,4.382,6.781
7.996,8.667,2.837,-3.058,2.63,-1.016,4.635,6.379
6.878,9.025,2.735,-2.743,3.588,0.319,3.692,4.489
6.584,14.627,2.839,-2.289,3.806,1.172,3.805,3.534
9.828,19.616,4.659,-0.688,5.212,2.914,6.186,4.844
14.074,19.629,7.463,1.639,8.169,5.435,8.638,6.764
15.205,15.447,9.523,3.454,10.998,6.654,9.485,7.475
13.601,12.13,9.67,3.418,11.954,5.296,8.928,6.403
11.041,13.062,6.245,-0.169,9.461,1.148,6.066,2.419
8.589,16.773,0.763,-5.52,5.247,-3.207,1.866,-3.507
8.29,19.382,-0.964,-7.222,4.417,-3.197,1.135,-5.989
9.622,17.595,2.184,-4.839,7.239,0.014,4.155,-2.879
8.26,11.805,4.405,-3.62,8.444,0.647,5.342,0.773
3.771,6.933,3.561,-4.161,7.325,-0.642,4.267,2.042
1.577,7.269,3.3,-2.614,7.722,0.904,5.525,3.428
4.325,11.97,3.633,-0.33,8.408,3.073,7.5,4.678
8.372,17.295,1.138,-1.418,5.284,1.089,4.917,2.873
10.413,21.631,-2.248,-3.457,0.812,-1.71,0.032,0.037
10.871,24.582,-1.78,-1.816,0.399,0.1,-1.163,0.13
10.104,23.226,1.183,0.806,2.908,3.246,0.536,1.407
8.438,18.223,2.135,0.032,3.617,2.532,0.533,0.505
7.926,16.151,1.25,-1.638,2.313,0.641,-0.649,-0.599
8.953,17.514,1.532,-0.924,2.19,1.754,1.525,1.823
9.883,17.416,3.584,0.667,4.393,4.325,7.6,6.865
10.391,17.288,5.864,2.118,7.181,6.219,12.661,10.513
9.972,18.867,6.657,4.501,8.188,8.32,13.181,11.168
7.039,18.787,5.059,6.907,6.387,10.377,10.797,10.177
3.037,18.626,2.419,7.763,3.583,10.607,8.759,8.791
1.615,20.065,1.276,7.591,2.78,9.247,8.262,7.585
2.376,16.272,1.516,6.863,3.618,7.878,8.117,6.728
1.864,8.291,1.116,5.297,3.163,6.718,6.547,5.625
0.752,7.786,1.098,4.209,2.21,5.655,4.546,4.811
2.637,13.6,4.184,5.4,4.377,6.033,5.686,6.026
5.973,14.586,8.671,7.733,8.581,7.798,10.071,8.231
5.692,11.572,9.786,8.086,9.833,7.989,12.704,8.601
1.817,11.103,6.663,5.635,6.963,5.669,10.681,7.079
-1.076,11.076,3.475,2.881,4.029,3.775,7.476,5.236
-0.746,9.419,4.09,2.594,4.854,4.414,7.84,4.362
0.982,10.252,7.616,4.94,8.476,6.615,11.569,5.583
1.712,13.905,10.253,7.701,10.718,8.797,14.094,7.924
1.354,15.421,10.68,8.989,10.111,10.352,12.207,8.69
1.553,14.764,10.658,9.403,9.299,11.266,8.09,7.219
3.254,16.742,11.396,11.269,10.187,12.439,6.93,6.203
4.591,19.793,11.901,14.909,11.118,14.557,9.819,8.161
3.106,17.232,10.524,17.158,9.707,16.41,11.789,11.134
0.916,10.317,7.929,16.299,6.81,17.066,9.583,11.177
1.923,7.065,6.581,14.459,5.328,16.556,6.506,8.58
4.986,8.9,6.9,13.288,5.761,14.319,6.401,7.416
6.68,9.537,7.933,13.022,6.968,12.08,8.839,9.689
6.774,6.325,10.215,14.2,9.493,13.47,12.515,13.855
7.088,4.329,14.234,16.468,14.249,17.796,18.252,18.839
9.315,8.19,19.489,19.722,20.873,21.976,27.218,25.58
13.966,16.531,25.789,25.184,28.364,26.611,37.208,33.338
18.827,25.411,31.367,31.219,34.143,31.954,42.371,38.303
20.431,29.982,32.621,32.978,35.037,33.558,40.077,38.29
18.017,25.164,29.113,28.985,31.407,28.843,34.163,34.659
13.185,12.651,23.65,22.354,25.804,21.378,27.085,28.001
6.025,0.557,16.71,15.069,18.269,14.487,16.639,17.61
-2.87,-5.699,8.061,7.866,8.959,8.231,3.833,6.131
-8.727,-4.566,1.627,3.727,1.976,3.598,-5.294,-1.243
-8.731,0.472,0.354,4.179,-0.001,1.949,-8.053,-3.333
-6.878,0.442,0.935,5.962,0.033,2.218,-7.861,-3.86
-6.272,-5.216,0.072,5.897,-0.813,2.712,-8.546,-5.659
-4.828,-6.532,-0.778,4.588,-1.243,2.897,-10.409,-7.897
-2.345,-1.523,0.018,4.061,0.016,3.495,-10.959,-8.309
-2.481,1.796,1.268,4.797,1.168,5.083,-9.2,-6.472
-5.716,0.298,1.419,5.315,0.246,5.934,-8.156,-4.619
-7.96,-3.014,0.613,4.047,-2.027,4.236,-10.131,-4.8
-6.826,-6.175,0.25,1.969,-3.466,1.662,-12.683,-6.481
-3.816,-6.318,1.643,2.069,-2.495,1.117,-11.938,-7.368
-1.269,-1.66,4.037,4.547,0.427,2.495,-7.794,-6.284
-0.966,1.077,4.014,5.444,1.67,3.498,-4.832,-5.037
-3.063,-3.187,-0.03,2.533,-1.716,2.936,-6.587,-5.786
-5.158,-6.33,-4.308,-0.909,-6.592,1.671,-9.915,-7.478
-5.608,-2.088,-4.592,-0.549,-7.605,1.829,-9.451,-7.473
-5.915,1.552,-2.03,2.835,-4.969,3.975,-6.327,-5.89
-7.75,-2.092,-0.599,4.338,-3.201,5.412,-6.007,-5.172
-10.379,-7.452,-1.295,2.478,-4.203,4.644,-8.469,-5.674
-11.8,-8.151,-2.159,0.688,-6.093,3.298,-9.167,-6.064
-11.152,-5.293,-2.71,-0.08,-7.535,1.482,-8.072,-6.563
-9.822,-2.86,-4.217,-1.928,-8.956,-1.344,-8.278,-7.211
-9.747,-3.447,-6.134,-3.381,-10.039,-2.341,-9.141,-6.897
-11.25,-7.48,-6.683,-1.957,-9.788,0.343,-8.408,-6.135
-13.139,-12.61,-5.91,-0.027,-8.528,3.58,-6.662,-5.884
-14.092,-15.488,-5.354,-0.769,-7.944,3.637,-5.974,-5.659
-14.549,-15.696,-6.42,-4.187,-9.669,-0.522,-7.399,-6.141
-16.195,-15.304,-8.925,-8.6,-13.061,-6.906,-9.807,-8.465
-17.881,-14.583,-10.434,-10.754,-14.861,-10.474,-11.058,-10.735
-16.825,-13.082,-9.731,-8.769,-13.601,-8.692,-11.387,-11.081
-15.011,-12.722,-9.551,-6.324,-12.337,-5.729,-12.505,-11.307
-16.357,-13.924,-11.783,-7.431,-13.531,-5.697,-13.515,-12.826
-18.391,-12.898,-13.189,-9.76,-14.482,-6.463,-11.912,-13.246
-16.369,-8.62,-11.257,-9.434,-12.745,-4.879,-8.7,-11.006
-12.854,-7.45,-9.63,-8.022,-11.567,-3.055,-8.324,-9.117
-13.221,-13.511,-11.462,-8.897,-13.616,-4.196,-11.313,-9.921
-15.432,-19.336,-13.56,-10.723,-15.659,-6.245,-12.876,-10.985
-13.846,-16.014,-12.357,-9.783,-14.746,-5.077,-11.02,-10.009
-9.757,-7.768,-9.801,-6.45,-13.062,-1.427,-9.154,-8.418
-9.061,-5.001,-9.522,-4.732,-13.455,0.315,-9.91,-7.975
-11.474,-8.595,-10.514,-5.574,-14.36,-0.459,-11.178,-8.233
-11.328,-11.149,-9.064,-5.804,-12.454,-0.131,-10.077,-8.469
-7.646,-8.628,-5.156,-4.175,-8.172,2.111,-7.46,-8.62
-4.836,-4.686,-2.149,-3.024,-4.899,3.108,-5.742,-8.345
-5.149,-5,-2.262,-4.142,-4.707,0.985,-6.202,-8.223
-6.698,-10.128,-4.658,-6.507,-6.566,-2.326,-8.539,-9.587
-7.243,-15.099,-6.475,-7.85,-7.552,-3.59,-9.965,-11.255
-6.533,-15.064,-6.266,-7.502,-6.506,-2.054,-8.19,-10.787
-5.994,-11.103,-5.853,-7.252,-5.568,-0.214,-5.859,-9.094
-6.347,-9.052,-6.808,-8.454,-6.313,-0.439,-6.515,-8.511
-5.562,-10.781,-7.45,-9.482,-6.994,-1.387,-8.161,-8.261
-2.782,-11.827,-6.613,-9.073,-6.435,-1.089,-7.609,-7.123
-2.192,-10.683,-7.422,-9.829,-7.347,-1.934,-7.174,-6.97
-6.668,-12.659,-12.447,-13.642,-11.754,-5.896,-10.019,-9.528
-11.94,-20.377,-18.178,-17.379,-16.407,-9.062,-13.89,-12.867
-13.034,-25.922,-20.039,-17.736,-17.625,-7.985,-15.502,-14.281
-11.433,-20.239,-19.625,-16.254,-17.437,-5.789,-16.143,-14.682
-11.7,-11.059,-21.167,-16.136,-19.589,-6.49,-18.373,-16.411
-14.545,-14.66,-23.86,-17.248,-22.694,-8.553,-20.941,-18.181
-17.254,-27.492,-23.894,-17.44,-22.925,-8.673,-20.8,-17.602
-19.249,-32.521,-22.14,-17.134,-21.177,-7.736,-18.9,-16.719
-21.729,-29.197,-22.817,-18.599,-21.742,-8.524,-19.629,-18.759
-24.056,-28.804,-26.126,-21.694,-25.099,-10.802,-23.364,-22.171
-25.38,-31.403,-28.744,-24.294,-27.584,-12.519,-25.385,-23.276
-25.741,-29.706,-28.92,-25.255,-26.879,-13.161,-23.405,-21.635
-24.601,-24.461,-27.483,-24.846,-24.325,-13.118,-20.264,-19.554
-22.846,-21.952,-26.722,-24.387,-23.226,-12.685,-19.59,-19.221
-22.874,-24.431,-27.813,-24.964,-24.959,-12.958,-21.972,-21.149
-24.525,-30.11,-28.987,-26.102,-27.124,-15,-24.94,-24.043
-25.745,-36.022,-28.252,-26.768,-26.925,-17.857,-25.763,-25.957
-26.038,-38.67,-25.212,-25.551,-23.74,-18.239,-22.918,-24.648
-26.701,-38.292,-21.343,-22.177,-19.438,-14.863,-17.606,-20.04
-29.836,-39.671,-21.499,-21.209,-18.903,-13.269,-15.696,-17.823
-35.677,-44.076,-29.501,-27.411,-25.763,-19.017,-22.024,-23.514
-40.77,-48.019,-40.744,-37.03,-36.352,-27.62,-32.267,-33.143
-42.215,-50.405,-46.778,-42.096,-43.203,-31.043,-38.225,-38.567
-41.299,-52.561,-46.487,-41.437,-44.112,-29.935,-39.387,-38.866
-40.377,-54.636,-45,-39.939,-42.553,-29.817,-40.023,-38.045
-39.721,-56.534,-44.361,-40.156,-40.804,-31.159,-39.373,-37.1
-38.944,-58.417,-43.086,-40.788,-38.648,-31.449,-35.948,-35.645
-38.852,-60.345,-41.975,-41.211,-37.326,-31.583,-34.445,-35.528
-40.273,-62.781,-42.78,-41.883,-38.163,-33.276,-37.242,-37.365
-42.435,-65.494,-44.108,-41.775,-39.422,-34.713,-39.097,-38.657
-43.896,-67.324,-44.346,-40.621,-39.518,-34.519,-37.614,-38.585
-43.711,-67.926,-44.029,-40.233,-38.916,-34.404,-35.87,-38.794
-42.322,-67.765,-43.65,-40.629,-37.999,-34.711,-34.383,-39.14
-41.818,-66.911,-43.42,-40.219,-37.379,-34.179,-32.321,-38.344
-42.721,-65.333,-42.928,-39.277,-37.157,-33.458,-30.836,-36.476
-42.744,-63.527,-40.501,-38.782,-35.557,-33.396,-29.629,-34.214
-40.691,-61.996,-36.269,-38.367,-32.256,-33.101,-27.397,-32.466
-38.469,-61.886,-33.542,-38.314,-30.322,-32.677,-25.96,-32.267
-38.495,-64.596,-34.653,-40.03,-31.989,-33.535,-27.916,-33.627
-40.106,-67.103,-37.409,-41.982,-34.826,-34.536,-31.124,-35.031
-40.591,-64.233,-38.374,-41.042,-35.28,-33.599,-31.676,-35.025
-39.747,-58.693,-38.318,-39.144,-34.708,-32.638,-31.17,-34.624
-39.219,-57.169,-40.099,-40.457,-36.715,-34.169,-33.732,-35.781
-39.121,-58.506,-42.802,-43.625,-40.031,-36.236,-37.503,-37.277
-38.093,-57.987,-42.492,-43.677,-39.953,-35.182,-36.411,-35.756
-35.019,-56.389,-38.175,-39.006,-35.896,-29.999,-29.622,-30.926
-31.917,-56.597,-34.12,-33.666,-32.994,-24.092,-23.896,-26.618
-32.793,-57.818,-33.952,-32.722,-34.743,-22.716,-24.753,-25.802
-36.356,-57.326,-35.047,-35.58,-37.5,-25.959,-28.672,-26.995
-36.866,-54.764,-33.765,-37.356,-36.776,-28.496,-29.722,-27.59
-34.002,-52.271,-31.613,-36.214,-34.489,-27.831,-29.311,-27.521
-33.129,-51.399,-31.486,-34.762,-34.258,-26.98,-30.73,-27.802
-36.029,-51.919,-33.393,-35.449,-35.512,-28.677,-31.913,-29.048
-38.731,-52.889,-35.375,-37.529,-35.841,-31.442,-31.087,-31.057
-38.128,-53.447,-35.3,-38.574,-34.104,-32.197,-30.355,-31.955
-36.184,-53.33,-33.298,-38.187,-31.063,-30.483,-30.355,-30.329
-36.403,-52.672,-32.303,-37.898,-29.296,-28.642,-29.236,-27.711
-38.556,-51.892,-34.15,-37.626,-30.716,-28.313,-27.447,-26.407
-39.435,-51.811,-37.025,-35.869,-33.776,-28.316,-27.709,-27.017
-37.726,-51.411,-38.665,-32.994,-35.599,-26.984,-30.497,-28.785
-35.874,-48.069,-39.971,-31.256,-36.54,-25.171,-33.406,-30.132
-36.358,-42.47,-42.619,-31.348,-38.69,-24.355,-34.598,-29.6
-37.694,-39.453,-45.342,-31.477,-41.173,-23.625,-34.611,-27.616
-36.95,-41.945,-46.069,-30.601,-41.884,-22.07,-34.895,-26.253
-34.182,-45.722,-45.013,-29.613,-41.165,-21.061,-35.809,-26.362
-31.386,-44.184,-43.623,-29.166,-40.409,-21.372,-36.948,-26.764
-29.475,-37.887,-43.026,-29.151,-40.209,-21.778,-38.417,-27.38
-27.697,-33.208,-42.855,-29.513,-40.121,-21.671,-40.002,-29.542
-25.631,-33.59,-41.315,-29.798,-38.892,-21.578,-40.486,-32.247
-24.875,-36.278,-38.397,-29.599,-36.502,-21.49,-39.887,-32.994
-26.194,-36.294,-36.22,-29.402,-34.481,-21.164,-40.015,-32.375
-27.524,-33.042,-35.674,-29.504,-33.69,-21.162,-41.399,-33.17
-28.275,-30.526,-36.693,-29.968,-34.696,-22.345,-42.751,-35.592
-29.931,-30.524,-38.897,-30.885,-37.617,-24.203,-43.042,-36.95
-30.588,-30.453,-39.767,-31.046,-39.664,-24.719,-41.422,-35.434
-27.558,-28.297,-37.666,-29.43,-38.294,-23.15,-37.866,-32.564
-24.116,-25.575,-35.512,-27.84,-36.193,-21.49,-35.288,-31.634
-24.401,-24.767,-36.246,-28.581,-37.039,-21.731,-36.493,-33.536
-26.083,-25.159,-38.243,-30.553,-39.374,-22.746,-39.317,-35.638
-25.488,-23.606,-38.837,-31.211,-39.971,-22.299,-40.151,-35.811
-23.665,-20.806,-38.096,-30.52,-38.782,-21.049,-39.467,-34.702
-22.768,-20.538,-36.678,-28.982,-36.749,-20.144,-38.703,-33.169
-22.444,-21.845,-34.22,-25.659,-33.773,-17.974,-36.706,-31.084
-22.761,-21.531,-31.846,-21.681,-31.167,-14.555,-33.042,-29.217
-25.473,-20.91,-32.365,-20.612,-31.612,-13.531,-30.521,-29.021
-29.878,-22.179,-36.47,-23.233,-35.744,-15.756,-32.233,-30.247
-32.716,-24.132,-41.508,-26.135,-41.303,-17.437,-37.403,-31.275
-33.106,-24.842,-44.439,-26.793,-45.087,-16.931,-41.312,-30.935
-33.349,-25.196,-45.232,-27.171,-46.176,-17.314,-40.929,-29.477
-35.536,-27.417,-46.435,-29.809,-47.062,-20.478,-39.233,-29.138
-38.195,-28.91,-47.977,-32.055,-48.587,-23.203,-39.832,-30.693
-37.443,-24.233,-46.758,-29.618,-47.947,-22.1,-41.167,-30.988
-33.097,-16.57,-42.83,-24.254,-44.392,-18.612,-40.736,-28.363
-29.215,-15.348,-39.328,-20.669,-40.36,-15.415,-39.108,-25.429
-28.116,-20.351,-37.745,-19.693,-37.755,-13.08,-37.63,-24.66
-29.056,-23.663,-37.684,-20.242,-37.037,-12.441,-36.542,-25.855
-30.957,-24.896,-37.983,-22.058,-37.204,-14.275,-35.331,-27.207
-32.357,-27.021,-37.265,-23.704,-36.433,-16.72,-33.762,-27.283
-31.474,-26.26,-35.227,-22.448,-34.245,-16.872,-32.191,-26.097
-29.051,-21.686,-32.615,-17.919,-31.83,-14.265,-30.632,-24.394
-27.934,-19.879,-29.803,-13.398,-30.048,-11.05,-28.378,-22.638
-28.719,-22.494,-26.615,-11.663,-28.318,-9.136,-25.06,-20.592
-29.42,-24.615,-23.879,-12.439,-26.176,-9.021,-21.958,-18.402
-29.386,-23.98,-23.506,-14.752,-25,-10.75,-21.531,-17.975
-29.557,-22.34,-25.584,-17.47,-26.157,-13.483,-24.292,-20.408
-29.298,-21.001,-27.33,-18.435,-27.982,-15,-27.079,-23.185
-26.929,-18.74,-26.655,-17.026,-27.638,-14.205,-26.84,-23.594
-23.209,-15.593,-24.835,-15.525,-25.517,-13.012,-24.936,-22.373
-20.966,-14.761,-24.043,-15.696,-24.403,-13.175,-24.778,-21.719
-21.398,-16.474,-24.295,-16.816,-25.012,-13.727,-26.579,-22.424
-23.255,-17.547,-24.668,-18.142,-25.748,-14.141,-27.5,-23.634
-24.77,-17.907,-25.143,-19.713,-25.845,-15.716,-26.305,-24.447
-24.353,-17.92,-25.375,-20.182,-25.67,-17.603,-24.858,-24.765
-21.719,-15.176,-24.373,-17.82,-25.029,-16.954,-24.184,-24.257
-19.559,-11.504,-22.91,-14.181,-24.12,-14.542,-23.23,-22.763
-19.554,-11.639,-22.024,-11.776,-23.302,-13.23,-21.19,-20.454
-17.815,-12.712,-18.534,-8.352,-19.425,-10.759,-15.804,-15.434
-11.042,-7.795,-9.466,-0.705,-9.512,-3.277,-5.086,-5.837
-3.069,2.01,0.721,7.832,1.684,5.935,6.543,5.338
0.833,8.543,5.366,11.148,6.712,10.132,12.392,12.431
0.036,7.758,3.772,8.431,4.763,8.215,11.416,12.778
-3.918,3.474,-0.986,3.178,-0.47,3.89,6.078,7.368
-9.983,-0.467,-7.277,-2.96,-7.017,-1.299,-2.704,-1.777
-16.442,-4.802,-14.299,-10.074,-14.088,-8.213,-13.325,-11.579
-20.567,-9.51,-19.4,-15.647,-19.111,-14.711,-20.34,-17.777
-20.621,-11.131,-19.458,-16.185,-19.171,-16.403,-19.81,-18.19
-17.557,-7.776,-14.482,-11.832,-14.501,-12.678,-14.435,-14.127
-14.72,-2.953,-8.528,-6.225,-9.123,-7.542,-9.561,-9.008
-15.075,-2.687,-7.592,-4.285,-8.443,-5.992,-9.094,-7.773
-18.39,-8.366,-14.801,-9.434,-14.909,-11.071,-14.653,-13.58
-22.569,-15.294,-25.226,-19.015,-24.09,-20.293,-22.701,-22.395
-26.975,-20.224,-30.63,-25.869,-29.071,-26.312,-27.078,-26.932
-31.577,-24.211,-30.651,-27.593,-29.82,-26.179,-27.427,-26.814
-33.823,-26.628,-29.693,-27.147,-29.82,-24.084,-26.935,-26.16
-31.662,-24.93,-27.452,-25.528,-27.859,-22.793,-24.942,-24.956
-28.62,-20.769,-24.01,-23.247,-24.003,-21.916,-21.306,-22.726
-28.542,-18.113,-23.503,-22.561,-23.107,-21.901,-20.242,-22.566
-29.536,-17.916,-25.93,-23.134,-25.728,-22.704,-22.913,-24.754
-29.277,-19.58,-26.522,-22.922,-26.941,-22.981,-24.28,-24.941
-28.516,-21.844,-23.323,-21.614,-24.362,-21.87,-21.026,-21.157
-27.987,-22.702,-19.28,-20.259,-20.664,-20.123,-16.573,-17.294
-28.042,-22.81,-18.566,-20.66,-19.66,-20.154,-15.489,-17.835
-28.267,-23.821,-21.133,-22.988,-21.23,-22.493,-17.117,-21.212
-26.887,-23.321,-21.621,-23.852,-20.865,-23.565,-16.927,-21.888
-23.91,-18.794,-16.561,-20.52,-15.851,-20.56,-12.273,-17.683
-21.037,-13.288,-9.248,-14.613,-9.045,-15.115,-5.403,-11.23
-18.459,-10.866,-4.988,-10.161,-5.118,-10.855,-0.942,-6.418
-16.734,-11.591,-5.907,-10.458,-6.325,-10.648,-1.679,-5.638
-17.83,-13.361,-9.996,-13.982,-10.947,-13.478,-6.156,-7.621
-19.901,-13.341,-11.957,-13.929,-13.517,-13.722,-9.01,-7.735
-17.714,-9.313,-8.22,-7.483,-10.027,-8.898,-6.216,-3.706
-12.062,-4.098,-2.166,-0.956,-3.642,-4.437,-0.598,0.677
-10.386,-3.789,0.18,-0.612,-0.721,-5.598,2.25,1.215
-13.839,-7.693,-0.563,-3.74,-1.289,-9.111,2.567,-0.232
-14.183,-8.264,1.764,-3.31,0.484,-8.104,4.505,0.901
-8.718,-4.932,7.826,1.267,5.546,-2.956,7.592,4.513
-5.314,-4.937,11.49,4.604,8.228,0.117,8.41,6.427
-7.692,-7.543,11.129,5.421,7.056,0.061,8.279,5.747
-9.557,-4.666,11.778,6.905,7.181,0.885,10.9,6.22
-7.059,2.346,14.556,8.456,10.244,2.442,14.912,8.945
-4.491,3.95,14.977,6.766,11.925,1.357,15.975,10.311
-4.541,-0.779,12.803,3.427,11.174,-1.362,14.525,9.363
-3.878,-2.896,13.061,3.102,12.322,-1.698,15.146,9.599
-1.105,1.162,16.568,5.889,16.364,0.962,18.901,12.1
0.787,4.753,18.525,7.987,18.625,3.879,21.613,13.976
1.029,3.625,16.91,7.934,16.754,5.57,20.052,13.871
1.387,1.792,14.498,7.415,13.794,6.828,15.724,13.269
1.373,1.4,12.761,7.282,12.313,7.701,11.518,12.401
-0.278,-0.728,10.71,6.832,11.571,7.197,8.305,10.031
-2.679,-4.648,8.42,6.192,10.396,5.896,5.738,6.738
-4.062,-6.117,7.149,5.99,9.271,5.238,3.961,4.57
-3.811,-3.809,6.75,5.341,8.769,4.775,3.1,4.236
-3.187,-1.223,5.389,3.378,7.644,3.5,1.908,4.546
-3.535,-1.14,3.131,2.2,5.442,3.202,-0.275,4.669
-4.474,-2.631,2.245,3.784,3.984,5.51,-2.301,4.816
-4.947,-3.358,2.985,6.046,4.054,7.876,-3.524,4.753
-4.691,-2.198,3.851,6.577,4.832,7.771,-3.433,4.726
-4.465,-0.702,4.438,5.778,5.659,6.395,-1.386,5.696
-4.896,-0.782,4.443,4.383,5.416,5.22,0.002,6.439
-5.451,-1.645,2.496,1.845,2.759,3.272,-3.273,4.266
-5.039,-1.065,-0.549,-1.235,-0.515,0.562,-8.806,0.412
-2.741,2.428,-0.252,-1.451,0.17,0.306,-9.598,-0.189
0.783,7.255,4.513,2.214,4.864,3.383,-5.538,3.217
2.966,9.639,8.501,5.535,8.086,5.908,-2.767,6.145
2.698,9.099,8.163,5.651,7.412,5.6,-2.888,6.374
1.513,7.891,5.581,4.156,5.253,4.033,-3.712,5.265
1.131,6.676,3.906,3.382,3.833,3.085,-4.601,4.457
2.673,6.438,4.735,4.404,4.453,4.018,-3.97,5.39
5.275,8.604,6.836,6.023,6.544,6.245,-0.923,7.447
5.589,11.356,6.387,5.644,6.504,6.571,0.491,7.578
3.496,12.84,3.073,3.645,3.457,4.367,-2.091,5.43
3.666,14.601,1.945,3.208,2.166,3.513,-3.834,4.59
7.879,17.416,5.592,5.379,5.584,5.949,-0.703,6.973
12.926,19.872,11.031,8.781,10.804,9.125,4.482,10.535
16.396,21.873,15.456,12.235,14.674,11.236,8.117,12.818
18.092,24.629,18.104,14.615,16.833,13.378,10.229,13.408
18.117,27.737,17.888,14.912,17.016,15.278,10.827,13
17.66,29.194,15.127,13.313,15.234,14.418,9.227,11.885
19.005,28.83,13.299,11.569,14.078,11.507,7.941,10.661
22.539,28.377,15.079,11.574,16.158,10.323,10.486,11.145
25.829,27.954,18.43,13.035,19.609,11.242,14.993,13.476
27.458,27.543,19.486,14.733,20.373,12.052,15.986,14.817
29.271,29.708,18.282,16.61,18.627,12.896,12.282,13.761
32.757,35.671,18.657,18.703,18.736,14.855,9.208,12.74
36.25,41.971,22.526,20.75,22.855,17.049,12.292,14.458
37.471,44.246,27.094,22.369,27.821,17.87,19.513,17.825
36.668,42.263,28.897,22.807,29.393,17.355,23.633,19.449
36.095,39.718,28.931,22.718,28.435,17.685,23.572,19.559
37.243,39.405,31.718,24.865,30.374,21.026,26.042,22.453
39.074,39.857,37.653,29.423,36.16,25.732,32.45,28.247
38.905,38.663,39.178,30.583,37.717,25.928,33.752,29.689
36.012,37.174,31.598,24.456,30.005,19.411,25.837,23.404
33.36,37.233,22.715,16.845,21.295,13.01,18.555,17.146
33.098,36.951,20.313,14.187,19.528,12.318,18.9,17.104
33.388,35.638,19.996,13.89,19.657,13.525,20.089,18.272
32.797,36.188,17.177,12.11,16.68,12.687,16.746,16.006
33.077,39.082,16.162,11.283,15.316,12.238,14.151,14.519
34.86,41.758,18.936,13.277,18.134,13.766,16.553,16.968
35.558,43.279,20.547,15.02,20.204,14.687,20.173,19.414
33.902,43.577,19.156,14.822,19.013,14.108,20.937,19.545
31.652,41.09,18.334,14.488,17.613,13.931,20.359,20.224
29.719,35.85,19.6,15.109,18.134,14.572,21.136,22.344
27.731,32.031,20.857,16.419,19.397,15.43,22.145,23.313
26.238,32.403,20.8,17.75,19.863,16.648,21.245,22.146
26.079,34.011,20.814,18.223,20.174,17.715,19.87,20.763
28.196,34.651,23.593,18.992,23.22,18.619,22.03,21.603
32.943,36.565,29.74,22.665,30.138,21.146,28.717,25.169
37.364,39.516,35.431,27.525,36.446,24.461,34.602,28.796
37.526,39.255,36.31,27.856,36.896,23.995,34.445,29.314
34.315,35.218,33.19,23.008,33.087,19.035,30.86,27.237
32.461,32.484,31.06,19.597,31.231,15.19,30.366,26.157
33.833,34.192,32.809,21.801,33.664,15.993,34.604,27.717
36.097,37.78,36.095,25.83,36.896,18.586,39.208,29.397
38.177,40.734,37.699,26.981,37.965,19.582,39.805,28.679
41.297,43.279,37.884,26.053,37.976,19.309,36.433,26.576
44.303,44.38,38.178,25.765,38.489,19.203,32.55,25.548
44.318,41.905,38.269,25.997,38.751,19.095,31.319,26.249
42.482,37.524,37.448,25.956,37.861,18.847,32.675,27.335
43.308,36.482,37.087,27.3,37.314,20.146,34.914,28.422
47.443,40.885,38.889,31.151,38.868,23.702,37.853,31.053
50.704,46.811,42.006,35.084,41.477,27.143,41.312,34.885
51.333,49.882,44.642,36.296,43.29,28.196,42.849,36.506
51.238,49.959,45.81,34.727,43.739,27.092,40.601,34.401
49.852,48.184,44.431,31.975,42.374,25.233,36.558,31.253
45.8,45.296,41.403,30.501,40.121,24.652,34.453,30.262
42.635,44.209,40.68,32.461,40.125,27.285,35.648,31.947
43.269,45.878,43.039,35.839,42.705,31.208,38.133,33.781
44.513,46.211,44.374,35.571,44.192,31.393,39.037,33.071
44.542,44.393,43.588,31.771,43.537,27.791,38.024,31.224
46.768,45.534,44.143,30.659,43.649,26.445,37.381,31.845
52.014,51.172,46.674,34.377,45.459,29.469,38.394,34.866
56.322,56.386,47.943,38.09,46.743,32.163,39.77,37.229
58.133,58.07,47.136,38.864,46.647,31.987,39.824,37.746
59.226,58.453,46.578,38.678,46.406,31.508,38.247,37.234
59.882,59.142,46.935,38.94,46.348,32.14,35.901,35.877
59.504,58.411,46.949,38.814,45.718,32.484,33.473,33.221
59.025,55.742,46.648,38.007,44.647,32.095,31.476,30.476
59.727,53.884,47.563,37.877,44.714,31.843,31.882,30.961
61.356,54.549,49.869,39.409,46.666,31.651,35.154,35.025
61.761,55.232,50.98,40.766,48.012,30.478,36.822,37.387
59.346,53.217,49.337,39.661,46.657,28.259,34.464,35.169
55.617,50.131,47.821,38.001,45.394,26.96,33.122,32.849
53.046,48.729,49.143,39.004,47.042,28.212,36.185,34.13
52.072,48.658,51.415,41.447,49.287,30.704,39.57,36.728
52.234,48.638,52.615,42.656,49.945,32.239,40.4,38.279
52.88,48.435,53.665,42.591,50.705,32.143,41.189,39.428
51.961,47.48,54.364,41.266,51.793,30.468,42.537,39.961
48.85,45.452,53.061,38.68,51.032,28.205,42.137,38.896
47.085,43.611,51.093,37.249,49.573,27.563,41.275,37.762
49.338,43.458,51.53,38.166,50.637,28.76,42.912,38.394
52.551,44.423,53.917,38.686,53.251,29.164,45.676,39.796
52.005,43.848,54.563,36.586,53.28,27.449,46.066,39.955
47.967,40.897,52.009,33.095,49.936,25.089,43.846,38.232
45.221,38.119,48.823,30.067,46.901,23.235,41.959,35.449
45.971,36.95,47.217,27.696,46.343,21.247,41.817,33.061
47.881,36.976,47.806,27.136,47.553,19.867,42.858,33.228
49.827,38.862,51.924,31.059,51.215,22.243,46.465,37.895
51.715,41.169,56.68,36.28,55.374,26.703,51.53,43.305
50.625,39.312,54.119,34.436,52.964,25.404,50.628,41.316
47.081,34.293,45.836,27.152,45.132,18.065,43.298,33.93
48.003,33.503,43.692,25.579,42.89,14.582,40.525,33.076
54.13,37.147,48.489,30.168,47.208,16.955,45.021,39.331
57.105,36.91,49.607,30.906,48.296,16.544,47.087,41.376
54.477,30.926,46.062,26.541,45.075,11.687,44.072,37.335
52.547,25.326,45.744,24.109,44.383,8.987,42.896,35.292
53.668,22.492,48.785,24.495,46.391,9.214,45.014,36.807
54.316,19.979,49.339,23.177,46.802,7.695,45.714,36.801
54.011,17.415,48.62,20.656,47.142,5.016,45.089,35.068
55.662,16.828,52.305,21.537,51.271,5.538,47.084,35.802
59.419,18.709,58.906,25.701,57.061,9.091,51.316,39.302
62.113,20.325,60.904,27.406,58.97,10.992,53.72,41.322
61.223,18.305,55.652,23.19,55.381,8.092,52.02,39.034
58.027,13.781,49.525,17.275,50.832,3.252,48.634,35.415
55.087,10.621,48.188,14.899,49.521,0.93,47.061,34.644
52.305,9.637,48.252,14.331,48.875,0.226,46.054,34.928
50.648,10.999,46.679,13.733,46.718,-0.063,44.242,33.972
53.648,15.793,48.339,16.799,47.624,2.925,45.34,35.488
60.667,21.957,55.667,24.119,54.023,9.003,51.413,41.635
66.487,27.016,63.29,30.914,61.214,13.945,58.903,48.12
67.98,30.97,66.556,34.263,64.893,16.002,63.522,50.912
66.407,33.073,65.949,34.089,65.357,16.1,64.214,50.455
66.062,33.864,65.341,32.988,65.93,16.337,64.788,50.719
70.719,36.809,69.49,35.956,70.697,19.967,70.604,56.053
78.043,41.902,77.982,42.817,79.162,26.954,80.533,64.962
80.95,43.653,83.506,46.717,84.494,32.033,86.829,69.679
76.935,38.449,81.305,43.767,82.081,30.175,85.02,65.926
71.123,30.981,75.253,36.78,75.585,21.604,78.735,58.451
68.365,29.23,70.933,30.553,70.62,12.392,72.828,52.84
67.575,32.781,69.092,27.944,68.062,8.363,67.892,48.902
65.644,33.856,67.954,27.837,66.041,7.696,62.862,44.846
62.369,30.539,66.761,27.097,63.679,5.834,57.203,40.185
59.514,29.029,66.291,26.087,61.943,4.325,51.768,36.324
57.938,32.302,67.315,27.582,62.018,6.419,49.227,36.545
57.252,35.913,68.715,30.22,63.003,9.506,51.089,40.525
56.6,36.36,68.485,29.799,62.691,9.468,55.121,43.448
55.368,35.792,66.081,26.237,60.276,7.428,57.116,43.428
54.277,36.967,62.988,23.721,57.33,7.448,55.843,43.421
54.345,39.124,60.75,24.375,55.625,10.271,53.935,45.283
54.851,39.975,58.653,25.725,54.485,12.238,52.823,46.612
54.792,39.202,55.621,25.193,52.608,11.137,51.86,44.916
54.484,38.437,52.547,22.965,50.531,9.339,51.249,42.154
54.156,38.824,50.161,19.941,48.905,8.898,50.995,41.541
53.624,40.39,48.158,17.235,47.671,8.775,50.39,42.319
53.321,42.633,47.36,16.708,47.759,8.206,50.517,42.491
54.015,44.939,49.342,19.327,50.668,8.497,53.445,43.321
56.418,47.718,54.279,24.315,56.388,11.344,58.734,46.515
60.462,51.888,60.353,29.89,62.543,16.386,63.123,50.048
63.942,56.186,64.736,33.789,65.892,20.431,63.883,50.555
64.06,57.957,65.76,34.384,65.544,20.804,61.829,48.552
60.677,56.809,64.422,32.324,63.831,18.659,60.403,47.644
56.097,55.048,63.127,30.043,63.28,16.695,61.718,48.721
52.88,55.308,63.054,29.025,63.832,15.372,64.01,48.727
52.871,58.077,63.679,28.95,63.982,14.141,64.247,46.23
55.806,61.267,64.517,29.149,63.511,13.798,62.975,44.368
59.519,63.833,66.097,29.486,63.861,14.854,64.434,46.413
63.123,67.515,68.808,30.33,65.896,16.442,69.857,51.048
65.693,71.57,70.304,30.927,66.715,17.19,72.114,52.909
64.063,71.872,67.751,29.509,63.002,16.117,66.276,49.391
58.866,69.075,64.12,26.942,58.53,14.211,60.687,45.914
56.124,68.587,64.175,25.373,58.61,12.85,61.459,47.074
58.143,71.359,65.976,24.232,60.417,11.365,61.07,48.05
61.186,73.957,65.667,22.883,59.64,9.578,56.673,45.022
62.975,75.466,64.998,22.631,58.838,9.1,56.498,43.198
64.804,77.304,66.685,23.34,61.006,10.251,61.87,45.342
67.408,80.218,69.022,23.951,63.715,12.232,65.183,46.621
70.157,84.634,69.707,25.467,64.521,15.415,63.965,45.723
72.036,88.717,68.911,27.329,64.122,18.21,61.03,45.522
72.144,88.801,67.467,26.181,63.343,17.067,58.276,45.252
71.607,86.314,66.254,22.819,62.827,13.932,57.829,44.341
72.619,86.275,66.535,21.948,63.897,14.502,61.399,45.866
74.524,88.314,68.662,23.694,66.683,18.199,67.852,50.335
74.672,89.058,70.291,23.168,68.43,18.987,72.945,53.09
73.92,90.369,69.561,18.939,67.364,15.412,72.932,51.28
76.108,95.516,69.663,15.675,67.148,12.487,71.083,49.148
80.962,101.524,73.338,16.293,70.624,13.214,72.554,50.938
83.992,103.409,76.345,17.358,73.29,14.333,73.96,53.275
83.967,101.791,74.622,15.892,71.343,12.855,70.894,51.796
84.502,100.969,71.613,14.193,68.663,11.306,67.876,49.226
87.338,102.229,70.849,13.375,68.41,11.688,68.385,48.938
89.977,103.641,70.001,10.845,67.984,11.426,68.306,48.525
91.262,104.789,68.033,7.522,66.988,10.177,67.116,46.77
92.893,106.495,67.841,6.722,68.432,10.47,69.417,46.622
95.688,108.146,69.603,6.994,71.468,11.208,74.051,48.349
98.488,108.682,70.093,5.224,72.385,9.789,75.442,48.976
99.596,108.014,67.876,2.302,70.28,7.064,72.532,47.214
98.979,106.995,65.044,0.909,67.49,5.685,69.118,44.758
98.725,106.436,65.003,2.103,67.393,7.204,69.217,44.397
99.722,106.043,68.087,4.754,70.741,10.469,72.802,46.193
100.666,106.109,69.992,5.977,73.394,11.806,75.159,46.987
101.536,108.4,68.639,4.525,72.621,10.21,74.714,46.426
102.615,111.354,67.277,2.345,71.201,8.37,74.804,46.518
100.927,109.394,66.086,-0.362,69.69,5.866,72.92,44.55
94.697,101.729,61.542,-5.043,65.206,0.821,64.611,38.184
87.652,94.372,55.494,-9.175,59.82,-3.544,56.11,32.556
82.753,90.334,52.341,-10.075,57.606,-4.473,54.555,31.397
77.412,85.988,50.861,-10.48,56.899,-5.149,56.863,31.835
69.588,79.103,48.607,-12.62,55.029,-7.561,59.164,32.68
62.427,73.081,46.849,-14.442,53.235,-9.046,61.511,34.31
58.317,70.238,45.591,-15.362,51.693,-9,60.388,32.483
54.763,67.646,42.517,-17.197,48.253,-10.021,52.384,25.477
49.892,63.169,38.505,-19.706,44.021,-12.389,44.484,19.929
45.38,58.578,36.01,-21.294,41.862,-14.208,44.737,20.078
42.44,55.058,33.622,-22.235,40.044,-15.279,46.958,21.191
40.089,52.26,29.134,-23.778,35.385,-16.853,41.782,18.828
37.087,50.346,24.608,-25.547,30.197,-18.805,33.967,15.315
33.825,48.947,23.466,-25.961,29.102,-19.139,32.817,13.757
32.554,47.553,25.787,-24.472,32.062,-16.754,37.166,13.39
33.887,46.897,28.841,-22.303,35.315,-13.539,40.543,13.336
34.484,46.44,30.112,-20.876,36.32,-12.183,40.444,13.869
32.45,44.599,29.403,-20.258,35.291,-12.957,37.668,13.721
31.384,43.006,28.721,-19.866,34.034,-13.507,33.543,12.413
33.702,43.569,29.224,-19.996,33.822,-12.061,30.027,12.201
35.621,43.776,29.63,-21.67,34.133,-10.61,29.563,13.902
34.073,41.621,29.241,-24.016,34.301,-11.276,32.612,15.712
31.448,39.127,28.593,-24.504,33.813,-12.412,35.311,15.66
30.433,38.425,27.132,-23.389,31.318,-12.829,32.706,12.48
31.484,40.33,25.666,-22.31,28.198,-12.902,26.92,7.889
34.329,44.436,27.217,-20.142,29.062,-11.046,26.359,6.293
37.632,48.133,31.815,-16.062,34.54,-6.411,32.379,8.993
39.782,49.512,36.317,-12.209,40.219,-1.737,36.987,13.012
39.434,48.998,38.75,-10.931,43.185,0.044,36.929,15.699
35.661,46.617,38.991,-12.018,43.925,-0.821,37.397,16.824
29.977,42.09,37.298,-12.97,42.755,-1.587,40.255,16.637
24.968,36.331,32.975,-12.937,37.881,-1.133,38.266,13.361
21.478,30.536,26.152,-14.548,29.539,-2.428,27.013,6.445
19.714,25.866,20.771,-18.79,23.301,-7.522,16.752,0.854
20.117,24.205,20.754,-21.736,23.71,-11.939,18.966,1.061
21.814,26.852,24.679,-19.829,28.242,-10.164,28.806,5.064
22.373,31.486,28.024,-14.702,31.589,-4.168,35.031,8.735
20.862,33.757,28.48,-10.211,31.927,0.345,35.799,10.688
19.492,33.262,27.282,-7.824,30.89,2.308,35.313,11.869
19.667,33.189,25.964,-6.985,29.686,3.865,34.467,12.712
19.24,33.736,24.24,-7.55,27.91,4.592,32.077,12.497
16.553,32.192,22.172,-9.423,25.891,2.909,30.963,11.911
13.63,28.98,20.936,-11.033,24.927,0.735,34.756,12.426
13.156,27.473,21.179,-9.76,25.795,2.07,41.086,13.907
14.66,28.732,22.307,-4.873,27.859,7.273,44.161,15.549
14.59,30.016,21.57,-0.263,27.579,11.492,40.005,15.64
11.009,28.655,16.723,-0.282,22.126,10.723,29.108,11.859
6.853,25.609,10.966,-3.244,15.665,7.195,18.886,5.658
5.039,23.18,8.72,-4.472,13.658,5.426,16.825,1.306
4.489,21.875,9.226,-2.592,14.434,6.538,20.343,-0.209
4.39,21.732,10.634,0.821,14.999,8.783,22.771,-0.566
5.251,21.71,12.614,2.58,15.906,9.313,22.702,-0.227
5.123,18.766,12.682,0.073,15.97,7.155,21.668,0.31
3.736,14.321,10.328,-3.509,14.223,5.887,21.851,-0.258
5.432,14.611,9.402,-3.308,13.072,7.419,21.799,-2.593
10.528,18.999,9.037,-2.062,11.283,7.844,13.556,-7.215
14.04,20.727,5.852,-3.939,6.756,5.573,-1.458,-12.76
14.406,20.062,3.317,-5.553,3.856,4.519,-8.704,-15.976
13.239,21.647,3.316,-4.224,3.639,5.704,-5.976,-17.46
11.186,23.457,0.499,-4.41,0.404,4.992,-5.312,-20.58
9.72,22.063,-5.081,-8.022,-4.737,1.533,-7.842,-24.199
11.422,21.832,-5.888,-9.131,-4.317,0.898,-4.792,-23.973
17.079,28.319,-0.327,-3.79,1.832,6.872,3.027,-19.776
24.166,37.7,4.633,2.73,6.494,14.923,5.679,-16.506
27.532,40.819,3.398,3.215,5.321,17.458,-0.349,-17.158
24.181,35.942,-2.606,-1.767,0.48,13.721,-6.77,-19.305
18.963,31.445,-7.276,-4.973,-2.888,10.932,-5.358,-19.518
19.198,33.841,-6.863,-2.181,-2.47,14.215,0.45,-17.626
23.267,38.887,-5.251,2.276,-2.099,19.35,0.91,-16.253
24.176,40.132,-7.631,2.986,-5.877,20.506,-6.167,-17.247
19.997,37.604,-12.866,0.848,-12.168,18.821,-14.179,-20.397
13.305,33.841,-17.363,-0.944,-17.389,18.077,-18.243,-25.149
8.086,31.323,-19.404,-0.871,-19.614,19.5,-19.23,-29.38
7.248,32.127,-18.779,1.194,-18.679,22.423,-20.002,-29.931
8.954,34.698,-17.001,3.851,-16.721,25.511,-21.301,-27.847
9.68,35.592,-16.442,5.615,-16.452,27.796,-21.469,-27.26
8.754,34.291,-18.085,6.559,-18.496,29.297,-20.857,-28.4
5.647,31.133,-21.963,5.969,-22.6,29.374,-23.216,-29.713
-1.379,23.522,-28.424,1.644,-29.365,25.796,-30.659,-33.22
-9.679,12.664,-34.619,-4.118,-35.971,19.772,-38.307,-37.952
-13.594,6.685,-35.546,-5.39,-36.812,17.058,-38.684,-38.474
-14.078,7.41,-32.908,-2.393,-33.648,19.041,-33.345,-35.667
-17.41,6.68,-33.081,-0.329,-34.031,21.365,-31.058,-34.713
-25.633,0.571,-37.8,-1.597,-39.99,21.236,-35.826,-36.516
-34.791,-5.636,-44.222,-4.888,-47.454,19.61,-44.664,-40.478
-39.744,-6.842,-48.309,-6.051,-51.899,20.004,-51.045,-44.616
-39.314,-4.75,-47.97,-2.378,-52.08,24.27,-50.332,-44.004
-37.786,-5.645,-46.79,1.486,-51.646,28.435,-47.42,-39.998
-40.38,-12.003,-50.203,-0.821,-54.992,27.755,-51.639,-41.654
-47.467,-18.918,-56.953,-6.732,-60.764,23.727,-61.277,-50.312
-55.137,-24.344,-60.85,-8.978,-63.919,21.038,-65.678,-56.582
-61.29,-31.969,-62.188,-8.68,-65.253,19.776,-64.914,-57.344
-66.93,-38.815,-67.073,-11.894,-70.143,17.248,-69.368,-59.265
-71.571,-37.826,-74.272,-16.279,-76.976,15.509,-79.067,-64.064
-73.972,-33.415,-76.835,-15.61,-79.589,18.002,-84.748,-66.824
-75.896,-35.998,-75.251,-12.343,-78.915,21.743,-85.637,-67.178
-78.248,-44.207,-74.864,-12.517,-79.375,21.933,-86.928,-68.438
-79.254,-48.976,-76.191,-15.094,-80.583,19.634,-87.981,-69.887
-79.501,-47.795,-77.636,-15.546,-81.447,18.827,-86.323,-69.221
-80.249,-44.081,-78.959,-12.552,-82.849,21.229,-83.843,-66.987
-80.273,-41.178,-79.498,-8.192,-84.307,25.139,-83.476,-64.853
-79.983,-40.878,-79.752,-6.259,-85.532,26.747,-86.232,-64.357
-81.416,-46.232,-81.26,-8.231,-87.43,24.799,-90.451,-66.149
-84.209,-59.551,-83.2,-10.786,-89.295,22.357,-92.523,-68.165
-87.4,-73.281,-84.025,-10.126,-90.069,22.252,-91.661,-68.044
-90.904,-76.483,-84.633,-6.702,-90.649,24.05,-91.441,-67.471
-93.24,-69.059,-86.735,-4.097,-92.365,25.45,-94.382,-69.883
-93.072,-59.389,-89.956,-4.242,-95.051,25.109,-98.925,-74.341
-91.969,-56.701,-92.416,-5.296,-97.371,24.373,-102.727,-76.628
-92.705,-64.223,-94.337,-5.508,-99.519,24.81,-105.625,-76.025
-96.582,-75.342,-98.221,-6.485,-103.554,25.018,-108.926,-75.439
-101.598,-82.027,-102.846,-8.263,-107.924,24.659,-111.58,-74.658
-103.222,-82.343,-101.765,-5.614,-106.354,28.016,-107.536,-68.853
-100.126,-80.017,-92.68,3.261,-97.005,35.981,-93.279,-56.314
-96.305,-80.486,-82.525,11.447,-86.774,42.247,-76.294,-43.267
-95.402,-84.127,-78.422,13.431,-82.437,43.38,-67.106,-37.147
-97.986,-87.881,-80,11.32,-83.769,41.515,-67.296,-39.13
-103.606,-92.726,-83.298,8.739,-87.22,37.615,-71.384,-45.11
-110.252,-99.925,-86.041,7.057,-90.437,32.777,-74.683,-50.1
-115.022,-105.807,-88.351,6.05,-92.806,29.909,-76.854,-52.475
-117.825,-109.385,-91.542,3.979,-95.162,28.63,-80.876,-55.129
-120.311,-114.506,-95.205,0.848,-97.854,26.999,-87.46,-59.707
-122.728,-120.485,-97.097,0.153,-99.724,26.841,-92.379,-63.073
-125.616,-124.278,-98.035,2.584,-101.288,28.975,-93.636,-63.361
-130.491,-127.883,-101.305,3.476,-104.754,29.22,-95.278,-63.425
-136.562,-133.339,-106.068,0.653,-109.315,26.215,-99.049,-64.816
-141.058,-138.873,-108.409,-1.888,-111.932,24.947,-100.926,-65.005
-142.876,-142.461,-107.872,-0.81,-112.282,27.56,-99.373,-63.148
-142.386,-141.685,-106.367,2.325,-111.729,30.198,-97.667,-61.801
-139.928,-134.855,-104.055,5.079,-110.159,31.124,-97.225,-61.606
-137.538,-128.009,-101.7,6.879,-108.161,32.305,-96.659,-60.915
-138.791,-130.746,-102.271,7.404,-108.321,33.724,-96.179,-60.187
-144.469,-140.624,-106.588,6.269,-111.655,33.562,-97.523,-61.658
-150.923,-146.196,-111.517,4.032,-115.813,31.815,-100.311,-65.233
-154.405,-146.981,-114.097,2.14,-118.016,30.299,-101.793,-67.605
-155.626,-151.677,-115.312,1.133,-118.935,29.649,-101.938,-67.067
-157.996,-159.399,-118.047,-0.033,-121.245,28.385,-104.24,-66.239
-162.357,-161.606,-122.329,-1.514,-124.602,26.571,-108.752,-66.997
-166.566,-157.542,-126.443,-3.063,-127.218,25.782,-112.327,-68.132
-169.538,-154.819,-130.875,-5.876,-130.354,25.159,-115.867,-69.756
-172.538,-158.774,-136.291,-9.498,-135.471,23.293,-121.254,-73.017
-176.533,-167.986,-140.717,-11.389,-140.469,21.196,-125.078,-75.938
-180.623,-178.298,-142.735,-12.017,-143.208,19.491,-125.699,-76.872
-183.108,-185.861,-143.787,-14.264,-144.904,17.244,-128.549,-78.483
-182.234,-186.567,-144.481,-17.296,-146.358,15.229,-135.038,-81.358
-177.466,-180.086,-142.961,-17.42,-145.327,15.659,-137.708,-81.566
-171.511,-174.188,-139.214,-14.492,-141.274,18.512,-133.697,-79.203
-167.932,-174.808,-136.352,-11.838,-137.67,21.252,-130.018,-78.768
-166.559,-175.729,-135.808,-10.936,-136.588,21.815,-130.682,-79.615
-164.822,-170.382,-135.514,-10.252,-135.979,21.12,-131.028,-77.08
-162.338,-164.721,-134.023,-8.84,-134.321,21.661,-127.978,-71.931
-160.7,-166.371,-132.581,-8.218,-133.191,23.128,-125.314,-69.04
-159.811,-171.492,-132.098,-9.509,-133.631,23.182,-126.366,-69.464
-157.493,-172.086,-131.384,-10.392,-133.877,22.906,-128.564,-70.318
-153.675,-169.598,-129.711,-8.342,-132.277,25.043,-127.536,-69.878
-151.688,-170.674,-127.746,-5.381,-129.364,28.026,-122.974,-68.796
-153.391,-173.346,-125.363,-4.63,-126.147,28.796,-118.288,-67.417
-156.974,-172.041,-122.596,-5.461,-123.384,27.891,-116.665,-65.465
-160.577,-170.64,-121.488,-6.078,-122.513,27.01,-118.514,-64.227
-163.941,-175.637,-123.464,-6.729,-124.473,25.949,-121.815,-65.763
-165.906,-183.104,-126.742,-7.914,-127.685,24.31,-124.922,-69.164
-164.443,-184.074,-128.315,-8.415,-129.251,23.5,-126.998,-70.442
-160.65,-178.92,-127.482,-7.177,-128.344,24.876,-126.278,-67.851
-159.658,-176.644,-126.809,-5.837,-127.488,26.621,-123.023,-64.986
-164.682,-180.605,-128.985,-7.139,-129.617,25.418,-121.891,-66.359
-171.242,-184.55,-132.395,-10.737,-133.4,21.567,-125.42,-70.786
-171.822,-184.065,-132.913,-13.104,-134.282,18.833,-129.486,-72.554
-166.154,-182.802,-130.455,-12.946,-131.284,18.81,-129.542,-69.744
-161.759,-185.049,-129.125,-13.609,-128.695,18.866,-126.591,-66.553
-163.722,-188.953,-131.005,-17.236,-129.777,16.813,-124.59,-66.333
-168.438,-189.48,-134.162,-20.457,-132.838,14.734,-125.225,-67.585
-170.172,-185.397,-136.545,-20.414,-134.934,14.669,-127.014,-67.879
-169.465,-181.604,-138.306,-19.719,-136.051,14.513,-127.989,-67.325
-170.3,-183.492,-140.129,-20.811,-137.621,12.632,-128.01,-67.127
-172.794,-189.376,-141.577,-22.078,-139.211,10.659,-128.219,-67.263
-174.317,-193.106,-142.569,-22.922,-140.066,9.043,-129.305,-67.161
-174.699,-193.291,-144.638,-25.05,-141.709,6.429,-131.587,-67.402
-174.492,-192.456,-147.535,-27.374,-144.23,3.72,-134.171,-68.242
-172.132,-191.304,-147.624,-26.919,-144.064,3.618,-133.726,-67.942
-167.884,-189.516,-143.132,-23.512,-139.686,6.938,-128.345,-64.856
-164.976,-187.794,-137.4,-19.733,-134.641,10.789,-121.508,-60.028
-164.867,-187.633,-135.082,-18.89,-133.111,10.641,-118.809,-57.13
-166.296,-188.993,-137.577,-22.348,-135.791,5.776,-122.197,-58.834
-167.234,-190.129,-142.046,-26.892,-139.717,0.767,-128.225,-62.947
-166.04,-190.77,-144.097,-27.88,-140.986,-0.39,-131.506,-65.018
-163.372,-190.21,-142.352,-25.436,-138.736,1.21,-130.477,-64.358
-161.439,-185.606,-139.666,-23.725,-136.037,1.938,-128.105,-64.044
-160.816,-177.874,-138.879,-24.663,-135.712,0.359,-126.443,-65.069
-160.175,-173.44,-139.113,-25.452,-136.612,-1.423,-124.458,-64.518
-158.113,-175.396,-138.187,-23.292,-136.019,-1.165,-121.947,-61.137
-154.288,-177.593,-135.91,-19.517,-133.424,0.656,-120.057,-57.29
-149.826,-173.66,-132.64,-15.967,-129.352,3.148,-117.56,-53.974
-147.003,-167.709,-128.891,-12.517,-124.676,5.639,-113.264,-50.735
-147.325,-167.152,-127.279,-10.65,-122.5,5.734,-110.573,-49.399
-148.994,-170.054,-129.136,-11.97,-124.52,2.805,-111.894,-50.569
-148.623,-169.438,-131.08,-14.208,-127.071,0.036,-113.538,-51.1
-145.801,-164.308,-129.883,-14.791,-126.419,-1.157,-112.749,-49.789
-142.437,-159.819,-126.429,-14.019,-123.304,-2.268,-111.219,-48.28
-139.696,-160.431,-123.374,-13.21,-120.354,-3.616,-110.293,-47.426
-138.627,-163.344,-122.742,-13.824,-119.716,-5.101,-110.398,-48.132
-139.807,-162.235,-124.351,-16.235,-121.455,-7.18,-111.448,-50.563
-141.631,-159.3,-126.345,-18.77,-123.51,-9.521,-112.3,-52.677
-142.552,-161.205,-128.273,-20.205,-125.066,-11.712,-113.174,-53.761
-142.857,-165.204,-130.088,-20.833,-126.243,-13.612,-114.279,-54.766
-142.187,-163.528,-130.092,-21.006,-125.764,-15.217,-113.929,-55.004
-139.498,-156.47,-128.273,-20.956,-123.771,-17.015,-112.561,-53.818
-136.811,-152.406,-127.532,-21.162,-122.918,-19.159,-112.603,-53.046
-138.331,-157.256,-129.436,-22.411,-124.414,-21.643,-114.062,-54.471
-143.326,-165.506,-131.82,-24.437,-126.255,-23.981,-114.717,-56.642
-145.1,-166.366,-131.385,-24.471,-125.666,-23.898,-112.801,-56.445
-141.779,-160.71,-128.897,-21.947,-123.42,-21.954,-110.022,-54.121
-139.495,-158.553,-128.161,-21.084,-122.815,-22.841,-109.777,-52.734
-139.488,-159.303,-128.136,-22.757,-122.808,-25.879,-109.986,-52.047
-135.212,-153.574,-124.471,-22.787,-119.334,-25.598,-105.74,-49.193
-125.601,-142.604,-118.126,-20.262,-112.862,-22.258,-98.318,-44.268
-118.348,-137.229,-114.082,-18.318,-107.973,-20.455,-93.396,-40.833
-118.65,-140.049,-114.588,-19.086,-107.743,-22.453,-94.292,-41.946
-123.003,-143.005,-117.652,-21.919,-110.972,-27.285,-99.534,-45.975
-126.027,-141.885,-120.34,-25.502,-114.078,-32.548,-104.411,-48.661
-127.041,-140.897,-121.699,-30.128,-115.012,-36.98,-106.109,-49.4
-126.718,-141.4,-121.589,-34.956,-113.882,-39.907,-105.754,-50.377
-123.913,-139.668,-119.072,-36.158,-110.923,-39.298,-103.769,-50.81
-118.349,-136.409,-113.079,-31.803,-105.394,-34.327,-97.287,-47.158
-111.828,-133.991,-104.046,-25.342,-97.061,-28.102,-85.265,-39.149
-107.009,-130.77,-96.634,-22.667,-90.203,-25.854,-75.54,-32.698
-106.293,-127.948,-97.552,-26.496,-91.956,-30.072,-79.936,-33.592
-108.834,-128.311,-105.722,-32.801,-101.308,-36.628,-96.096,-39.342
-110.227,-127.916,-111.624,-35.336,-107.834,-39.514,-107.34,-43.225
-108.747,-122.296,-110.768,-33.764,-106.699,-39.201,-106.898,-43.676
-107.1,-116.285,-107.424,-31.882,-102.974,-39.623,-102.096,-42.198
-106.684,-118.49,-104.676,-30.823,-100.231,-40.793,-96.944,-38.777
-106.28,-127.716,-101.948,-29.92,-97.932,-40.902,-91.08,-35.174
-105.484,-133.397,-100.06,-30.288,-97.072,-40.698,-87.418,-34.346
-105.304,-130.762,-100.47,-33.236,-98.681,-42.276,-88.681,-36.065
-105.449,-125.286,-100.784,-36.32,-99.511,-45.38,-91.52,-37.731
-102.825,-120.425,-96.434,-34.277,-95.076,-46.244,-88.727,-36.118
-95.441,-112.529,-87.735,-25.987,-86.393,-42.337,-78.991,-30.029
-85.997,-100.455,-80.17,-17.314,-79.106,-36.911,-70.315,-23.658
-79.306,-91.685,-77.401,-14.493,-76.484,-35.45,-69.306,-22.136
-78.319,-93.399,-78.387,-17.385,-77.204,-38.961,-72.72,-24.244
-81.721,-100.601,-79.952,-21.091,-78.371,-43.207,-73.627,-25.128
-85.211,-103.269,-80.358,-22.793,-78.68,-44.69,-71.235,-24.015
-86.126,-101.001,-80.386,-23.943,-78.717,-44.658,-69.637,-23.496
-84.946,-98.887,-80.865,-26.06,-78.886,-45.7,-70.325,-24.288
-83.075,-96.83,-81.241,-28.284,-79.061,-47.955,-71.914,-25.725
-79.961,-91.072,-80.049,-28.768,-78.501,-49.563,-72.646,-27.133
-74.096,-83.237,-76.257,-27.226,-75.639,-49.563,-70.068,-26.762
-67.488,-80.462,-71.351,-25.421,-70.916,-49.482,-64.284,-23.952
-63.108,-82.783,-67.634,-23.555,-67.037,-49.814,-59.891,-20.648
-59.924,-82.762,-64.601,-19.969,-64.487,-48.474,-58.928,-17.838
-56.436,-78.596,-59.948,-15.139,-60.661,-44.939,-56.392,-13.957
-54.179,-73.794,-54.366,-11.884,-55.284,-41.974,-49.471,-9.395
-55.138,-70.435,-53.019,-13.114,-53.391,-43.263,-45.92,-9.173
-58.021,-69.264,-57.563,-18.475,-57.348,-48.856,-51.946,-15.222
-58.373,-68.387,-60.947,-22.685,-60.536,-53.365,-59.27,-20.69
-54.879,-64.922,-58.276,-22.533,-57.621,-53.275,-58.34,-20.479
-51.272,-60.267,-53.744,-21.217,-52.315,-52.215,-52.736,-18.488
-48.222,-56.192,-50.166,-20.353,-47.967,-53.116,-48.557,-17.133
-42.603,-50.945,-44.668,-16.712,-42.608,-52.734,-43.6,-12.789
-36.928,-45.955,-38.745,-11.085,-37.653,-50.015,-36.906,-6.725
-37.262,-46.197,-38.936,-9.572,-38.819,-49.799,-35.195,-5.859
-42.01,-50.983,-44.548,-13.014,-44.779,-53.398,-39.914,-9.592
-44.669,-54.68,-47.658,-15.881,-47.431,-56.258,-42.916,-10.763
-44.024,-54.302,-45.675,-15.835,-44.662,-56.405,-40.804,-8.453
-42.152,-50.231,-41.879,-14.567,-40.272,-55.667,-36.817,-6.145
-39.104,-44.291,-37.592,-12.66,-35.34,-54.542,-32.021,-4.29
-35.556,-39.499,-33.133,-10.987,-30.08,-53.04,-27.652,-3.226
-33.651,-38.438,-30.422,-11.472,-27.12,-52.75,-26.513,-3.74
-33.022,-40.211,-29.992,-13.245,-27.163,-53.928,-27.004,-3.791
-31.011,-40.637,-29.918,-13.609,-27.392,-54.871,-24.435,-1.556
-26.778,-36.779,-28.603,-12.292,-25.896,-55.102,-18.5,1.609
-23.087,-30.867,-26.768,-11.394,-24.306,-55.763,-14.649,3.427
-23.751,-28.724,-26.745,-12.371,-25.318,-57.23,-16.735,3.498
-27.961,-31.59,-28.733,-13.676,-28.14,-57.883,-20.86,3.411
-29.635,-32.869,-29.147,-12.544,-28.546,-56.197,-21.312,3.826
-25.719,-27.909,-25.409,-9.428,-24.602,-53.29,-18.488,3.962
-19.958,-20.015,-18.806,-6.081,-18.189,-50.582,-14.008,5.547
-16.616,-13.95,-11.52,-1.951,-11.174,-47.571,-6.58,11.028
-16.629,-11.931,-5.839,1.888,-5.436,-45.587,1.393,17.09
-18.772,-14.465,-4.093,1.979,-3.477,-47.869,4.071,18.069
-20.189,-18.577,-4.86,-1.176,-4.214,-52.806,2.303,15.225
-17.933,-19.374,-3.209,-3.514,-2.766,-54.829,3.599,14.996
-11.502,-15.111,2.885,-3.152,2.879,-52.719,10.185,18.609
-3.179,-7.923,10.202,-1.01,9.366,-49.899,15.449,21.009
3.823,-1.34,15.022,1.557,13.28,-48.023,14.865,20.629
8.229,2.777,17.413,3.924,15.4,-45.754,13.248,21.911
11.672,5.65,19.894,6.212,18.254,-42.494,16.77,26.674
15.708,9.216,23.246,8.555,21.796,-39.535,23.321,30.802
19.22,13.571,25.796,10.711,23.915,-37.884,26.467,31.056
20.798,17.419,26.973,12.512,24.477,-36.994,25.296,29.508
21.989,20.255,28.398,13.523,25.591,-36.18,23.997,29.366
25.467,23.396,30.959,13.302,28.164,-35.652,24.887,30.506
30.833,27.496,34.047,12.771,31.483,-35.494,27.516,31.588
33.797,29.406,36.465,12.272,34.361,-36.438,30.604,32.017
31.039,26.378,36.463,10.017,34.87,-39.856,31.833,30.554
25.968,22.827,33.841,6.146,32.521,-43.991,29.824,27.367
24.858,24.746,31.543,4.213,30.243,-44.798,26.866,25.81
28.046,30.231,32.522,6.022,31.14,-41.938,27.209,28.111
31.736,34.224,36.495,9.499,34.903,-38.513,31.848,32.631
34.307,36.12,40.422,12.188,38.363,-36.189,35.943,36.27
36.159,37.39,42.56,13.778,40.237,-34.383,37.043,38.65
39.312,39.789,46.231,16.303,44.627,-31.327,42.382,43.804
45.823,45.357,54.641,21.475,54.301,-25.897,56.059,53.504
52.959,52.821,64.217,27.346,64.335,-19.769,69.087,62.762
54.932,57.3,69.333,29.96,68.897,-16.229,73.651,67.091
50.375,55.642,69.318,28.033,68.302,-17.147,72.851,67.005
44.602,50.388,67.555,24.775,66.48,-20.792,71.478,64.331
42.765,46.394,65.361,22.666,64.444,-24.357,68.395,59.37
43.162,44.756,59.498,18.442,58.692,-28.826,60.427,51.437
41.483,43.164,49.639,9.526,48.991,-35.97,50.169,42.225
38.339,39.827,42.117,0.345,41.516,-43.242,43.745,35.668
37.314,35.474,40.527,-4.209,39.624,-47.459,41.16,32.312
38.983,33.067,41.893,-4.84,40.7,-48.75,39.003,30.045
41.666,34.3,44.669,-3.824,43.581,-48.235,39.433,29.818
44.734,36.598,50.03,-1.585,49.23,-46.892,45.454,33.206
47.202,36.314,55.421,0.635,54.725,-46.794,52.527,36.882
46.998,33.478,55.847,-0.244,55.08,-50.08,53.575,35.466
44.919,31.152,51.835,-4.656,51.187,-55.796,48.997,29.006
45.6,32.141,50.108,-7.784,49.781,-59.179,46.374,23.917
51.741,37.17,54.635,-5.328,54.567,-57.191,50.655,24.856
60.102,44.088,61.128,-0.169,61.532,-53.375,57.535,28.967
64.392,48.243,62.676,0.673,63.825,-53.5,58.652,30.337
61.739,46.974,58.532,-4.601,60.131,-57.798,53.646,27.878
57.235,44.856,55.298,-9.048,57.023,-59.921,52.074,27.021
58.609,48.164,58.051,-5.871,59.8,-54.961,58.713,31.55
65.106,54.577,63.006,1.211,64.442,-47.189,65.373,36.445
69.207,57.423,64.075,3.869,65.069,-44.428,64.479,35.9
68.882,56.977,62.214,1.508,63.253,-46.735,59.973,33.051
68.405,58.109,61.674,-1.558,63.157,-48.839,58.442,32.906
69.064,60.886,62.223,-4.656,63.988,-49.822,59.427,33.847
68.547,62.025,61.429,-8.456,63.032,-51.49,59.437,33.275
67.227,61.914,60.343,-10.792,61.095,-52.551,58.79,33.148
67.534,63.065,61.209,-10.497,60.354,-51.895,59.596,35.24
69.811,65.384,63.375,-10.06,61.034,-51.635,61.266,37.159
72.92,67.403,65.39,-11.329,62.603,-53.037,62.271,36.218
76.384,69.117,67.718,-12.64,65.061,-54.283,63.515,34.12
80.624,71.991,71.607,-10.902,68.99,-52.863,67.215,34.78
85.538,76.277,76.719,-5.19,74.43,-48.511,73.312,38.507
89.77,79.578,80.733,1.059,79.138,-44.211,78.146,41.518
92.217,80.566,81.822,2.832,80.336,-43.405,77.608,41.383
93.117,81.557,80.847,-0.228,78.618,-45.529,72.663,39.802
93.557,84.403,80.023,-3.471,77.341,-46.887,69.122,38.981
93.889,87.158,79.862,-4.307,77.772,-46.576,69.921,38.668
94.016,88.034,79.971,-3.896,78.991,-46.241,73.052,38.737
95.312,88.662,81.211,-2.85,81.225,-45.558,76.663,40.051
97.828,89.937,82.662,-2.616,83.508,-44.974,78.929,40.561
98.865,90.593,81.515,-5.544,83.097,-46.992,77.406,37.244
98.699,91.818,79.352,-9.036,81.389,-49.677,74.145,32.701
100.088,95.308,79.918,-8.903,82.27,-48.594,73.805,31.497
101.66,98.774,81.791,-6.835,85.06,-45.546,76.473,32.627
100.924,100.253,82.278,-5.724,86.972,-44.54,79.684,33.347
100.269,101.114,82.83,-4.555,88.089,-44.238,81.957,34.291
102.637,102.61,84.769,-2.71,89.164,-42.619,81.71,35.878
106.679,105.141,86.761,-1.221,89.998,-40.592,79.823,36.933
109.95,108.339,88.002,0.308,90.91,-38.471,80.024,37.733
110.771,109.325,88.098,1.665,91.388,-36.697,81.978,38.277
108.174,106.503,86.398,0.88,89.993,-36.991,81.482,36.931
104.826,104.197,84.512,-1.669,87.912,-39.007,78.772,34.788
104.267,106.449,84.316,-3.983,87.277,-41.108,77.088,34.885
105.351,110.13,84.504,-6.002,87.326,-43.23,75.917,36.179
105.98,110.475,84.42,-7.563,87.569,-44.725,74.611,35.947
107.233,108.813,87.132,-6.177,90.358,-42.673,76.807,36.365
109.528,109.116,93.643,-0.797,96.101,-36.223,83.865,40.632
110.277,109.547,97.994,3.377,99.706,-31.016,89.154,44.707
108.071,106.038,94.713,0.292,96.692,-33.056,86.344,42.352
106.003,101.758,88.147,-6.743,90.931,-39.211,79.88,36.611
107.197,101.207,85.55,-10.463,88.908,-42.817,77.699,34.376
109.726,101.636,86.309,-11.113,90.138,-43.612,79.027,34.454
110.928,100.274,87.254,-11.383,91.783,-43.231,79.823,33.666
112.434,99.779,89.256,-9.463,94.408,-40.657,80.579,34.434
116.389,102.192,92.43,-5.076,97.7,-36.935,82.16,37.944
120.603,105.519,93.989,-2.341,99.236,-35.102,83.453,40.875
120.852,106.28,92.414,-3.993,98.003,-36.098,83.549,40.248
117.351,103.668,89.569,-8.06,95.595,-38.136,82.487,36.51
115.366,102.029,89.681,-9.402,95.543,-37.488,82.148,34.051
117.74,105.974,94.729,-5.563,99.592,-32.705,84.825,36.734
121.477,113.337,100.727,-1.129,104.752,-28.366,89.833,42.193
123.318,117.832,102.77,-1.33,107.232,-28.921,93.945,45.204
123.536,117.398,101.134,-4.394,106.596,-31.823,94.797,44.444
123.082,115.602,98.824,-5.713,104.404,-32.28,93.517,42.737
121.226,115.694,96.993,-5.272,101.865,-30.531,92.847,42.689
117.67,117.165,95.027,-5.84,99.286,-29.77,92.249,43.222
114.633,119.27,92.934,-6.976,96.933,-30.338,89.919,42.113
114.96,122.626,92.484,-5.994,96.283,-29.798,88.461,40.904
118.512,124.825,94.988,-3.327,98.368,-27.225,90.744,42.324
121.856,122.563,98.217,-2.667,100.996,-24.96,93.618,44.751
122.574,119.246,98.998,-5.145,101.393,-24.921,93.12,44.781
121.979,120.428,97.997,-7.255,100.216,-25.447,90.39,42.71
122.198,124.323,98.142,-6.463,100.035,-24.773,88.646,41.523
124.132,127.345,101.115,-3.287,102.939,-22.9,90.525,43.482
128.075,131.588,106.541,1.835,108.937,-19.062,96.613,48.209
131.841,136.412,111.193,7.097,113.926,-14.584,102.694,52.201
131.591,135.314,111.721,8.864,113.728,-13.718,104.078,52.857
127.916,129.647,110.021,7.368,110.7,-16.037,102.918,52.245
126.215,129.395,110.995,7.42,110.637,-16.08,104.923,53.47
129.404,136.286,115.242,11.359,114.605,-12.012,110.248,56.098
134.015,141.618,118.578,15.529,118.508,-7.955,114.095,57.837
135.253,141.086,118.516,15.962,119.521,-7.15,115.069,58.082
133.409,139.268,117.416,14.131,119.336,-7.448,116.035,58.236
131.633,139.278,117.554,13.052,120.039,-6.706,117.354,59.317
130.087,138.378,116.958,12.164,119.955,-7.195,115.96,60.004
128.126,136.302,114.06,10.917,117.517,-9.803,111.64,58.778
128.471,137.741,111.839,11.278,115.723,-10.831,108.647,57.009
132.098,142.743,112.201,12.55,116.65,-9.146,108.73,56.087
134.23,144.834,111.846,11.064,116.546,-8.854,107.596,54.065
131.822,141.613,108.772,7.299,113.045,-10.998,102.666,50.011
129.005,138.362,106.68,6,110.444,-10.968,98.749,47.333
130.672,139.547,109.049,9.02,112.723,-7.012,100.546,48.604
135.308,143.037,114.193,13.643,117.868,-2.898,105.245,51.361
136.976,143.795,117.841,16.483,121.237,-1.478,106.914,51.272
133.513,140.971,118.013,16.473,121.09,-2.157,104.489,47.693
129.873,138.841,116.952,15.617,119.878,-3.443,101.676,44.666
130.463,139.59,117.538,16.461,119.963,-4.126,100.43,45.36
132.788,141.29,119.207,18.837,120.459,-3.518,99.494,48.117
133.354,143.639,120.019,20.898,120.165,-2.087,98.879,49.896
133.368,147.122,120.118,21.567,119.966,-1.006,100.153,49.887
134.14,149.355,120.235,20.656,120.376,-1.054,102.296,48.568
134.507,148.968,120.256,19.643,120.682,-1.291,102.672,46.984
134.853,147.19,120.831,21.095,121.303,0.299,101.786,46.459
135.302,143.137,121.67,23.832,122.045,2.244,101.526,46.145
132.985,135.835,120.275,23.595,120.46,1.024,101.117,44.175
128.539,130.282,117.195,20.913,117.151,-1.025,100.136,42.484
127.163,131.587,116.066,20.356,116.107,0.774,100.246,44.061
129.44,136.924,116.487,22.071,117.201,3.987,100.781,46.501
130.989,140.944,115.569,22.603,117.194,3.633,99.891,46.252
130.335,142.143,114.402,21.815,116.674,1.097,99.585,45.407
129.431,142.238,115.305,22.459,117.898,1.204,101.991,46.878
128.771,142.977,116.428,24.649,119.063,4.267,104.124,48.697
126.364,141.677,114.474,24.722,116.681,5.78,102.867,48.366
121.276,135.387,110.303,20.901,111.543,3.793,100.543,47.04
116.194,129.367,107.964,17.296,108.285,2.287,100.875,46.924
114.77,130.132,109.089,18.332,109.131,4.701,103.167,48.087
116.397,133.228,110.743,21.698,110.699,8.113,103.528,48.509
116.876,131.214,109.401,21.861,108.88,7.739,100.647,46.821
115.702,128.566,106.202,18.998,105.396,4.693,98.191,44.67
116.66,133.044,105.419,18.382,105.204,4.222,99.48,44.488
119.799,139.015,107.569,21.145,108.336,6.774,101.777,45.381
120.253,135.207,108.482,22.613,109.875,7.442,100.304,44.53
116.228,124.017,106.108,20.997,107.736,5.146,96.459,42.203
112.706,119.082,103.756,20.566,105.408,4.73,95.467,40.936
114.532,124.681,103.952,23.318,105.459,8.011,96.905,40.642
118.861,131.707,103.702,24.424,105.041,9.728,95.531,39.238
119.269,133.631,99.955,20.104,101.233,5.448,90.23,36.284
115.735,131.516,95.642,14.729,96.881,-0.553,85.762,33.707
113.845,127.636,95.569,14.914,96.644,-0.666,85.998,34.289
114.993,125.623,99.017,19.552,99.647,4.372,88.67,37.818
115.23,127.226,101.508,22.605,101.248,7.658,89.471,40.219
112.57,127.485,101.297,22.833,99.981,7.679,88.777,39.274
109.124,124.48,99.524,22.903,97.757,7.744,89.098,36.855
108.158,124.385,97.205,23.118,95.765,8.102,89.303,34.784
111.237,129.857,94.959,22.517,93.734,7.319,86.632,32.863
115.856,134.583,93.585,22.327,91.804,7.045,81.965,30.795
117.985,133.343,94.411,24.271,91.867,9.396,80.131,29.921
119.438,132.298,98.719,28.036,95.849,13.655,84.117,32.234
125.046,138.721,104.826,32.072,101.747,17.92,90.084,37.177
131.426,144.972,108.177,35.063,104.778,20.682,92.375,41.168
132.603,143.455,107.599,36.892,104.3,21.809,91.789,42.04
132.331,142.72,107.241,38.964,104.587,23.202,92.84,41.877
134.54,147.937,108.978,41.718,106.75,25.79,95.003,43.074
135.666,151.824,109.502,43.313,106.969,27.698,93.75,44.329
136.929,152.76,108.857,43.964,105.634,28.697,90.568,44.63
143.031,155.65,111.685,46.823,107.714,31.224,92.129,46.128
149.566,160.469,116.313,50.947,111.487,34.09,97.422,48.352
150.584,163.849,115.896,51.245,110.444,33.191,98.583,47.416
148.931,164.16,111.203,47.561,105.689,29.418,94.465,43.519
149.192,163.838,109.165,45.57,103.687,28.205,91.185,41.384
150.801,165.431,111.445,48.506,105.626,31.75,92.109,43.275
150.855,163.388,114.123,53.527,107.859,36.527,95.048,46.5
148.274,153.437,114.652,56.138,108.321,38.528,96.265,47.235
144.93,145.88,113.371,55.362,107.295,37.622,94.381,44.89
143.385,150.117,110.975,53.015,104.978,35.368,91.087,41.742
142.868,157.478,107.309,49.824,101.092,32.28,87.819,38.9
140.726,156.663,102.791,46.138,96.447,29.398,84.392,35.921
138.833,153.101,100.174,44.685,93.955,28.896,81.835,34.223
140.677,156.842,101.694,47.639,95.591,31.662,81.754,35.913
142.248,161.549,104.365,52.494,98.419,36.153,82.963,39.383
137.478,155.053,103.408,54.94,98.017,39.216,82.887,41.074
130.467,143.012,99.593,54.435,94.833,39.047,80.807,40.646
129.172,139.479,96.8,53.214,92.249,37.555,77.577,39.822
130.747,141.7,94.753,51.344,90.381,36.481,73.625,37.584
127.318,137.63,91.408,47.877,87.386,34.591,69.603,32.41
121.797,130.181,89.2,44.74,85.157,32.059,68.464,28.069
122.658,131.654,91.157,43.663,86.612,31.033,71.657,29.283
127.999,140.59,94.975,43.93,89.865,32.036,75.967,34.453
128.398,143.226,97.474,46.698,92.045,35.548,80.124,40.081
122.049,135.054,99.861,53.624,94.529,42.492,86.926,46.193
116.651,126.588,104.363,61.941,99.453,51.361,95.54,52.824
115.645,124.69,108.705,67.373,104.08,58.63,100.176,57.153
112.632,121.669,107.21,67.467,102.329,59.856,96.823,56.09
103.722,110.922,98.036,61.186,92.429,52.365,86.45,49.186
93.626,97.239,86.142,50.666,79.712,40.143,72.958,38.98
85.909,86.71,77.279,40.954,70.137,30.798,60.567,29.264
78.526,80.605,72.075,34.958,64.372,26.874,51.674,22.094
70.092,78.229,68.157,31.858,60.194,25.884,46.547,17.02
62.539,77.211,65.338,30.379,57.338,25.841,45.185,13.919
57.343,72.9,64.594,29.523,56.374,25.307,46.873,13.417
53.905,63.529,64.139,27.894,55.641,23.169,48.24,13.933
51.626,54.829,61.485,25.276,53.187,20.841,45.423,12.286
49.871,52.222,57.077,22.51,49.319,19.462,38.357,8.055
47.289,50.988,53.011,20.038,45.616,17.409,31.362,4.505
43.811,45.018,50.373,18.427,43.183,14.534,28.225,3.776
39.99,39.246,48.173,17.75,41.206,12.724,27.173,3.532
35.635,40.376,45.322,16.621,38.515,11.446,25.132,1.115
32.965,44.977,43.786,14.706,37.236,9.818,24.246,-2.023
35.497,46.19,45.812,13.507,39.889,9.499,26.776,-3.457
40.972,42.658,48.746,12.711,43.337,10.302,28.825,-3.906
42.434,37.799,47.742,10.348,42.029,9.494,26.27,-5.172
38.143,35.389,42.964,7.307,36.471,7.494,21.921,-6.272
32.329,34.583,38.588,6.138,31.728,7.183,20.599,-5.239
25.772,29.747,35.347,5.732,28.65,7.946,20.519,-3.955
17.333,20.32,31.566,3.655,25.021,7.196,17.369,-5.681
12.088,14.943,29.439,1.994,22.862,5.814,13.587,-8.695
14.622,18.023,31.78,4.134,25.472,6.396,14.347,-8.688
20.194,22.784,36.291,8.425,30.686,9.157,18.625,-5.756
21.375,22.748,38.555,10.521,33.25,12.348,21.297,-4.147
17.306,19.144,37.166,9.369,31.161,14.107,20.321,-6.024
13.301,16.738,34.774,7.736,27.711,14.422,18.846,-8.452
13.785,17.924,35.506,8.625,28.008,15.78,21.669,-6.917
17.126,20.432,39.986,12.257,32.78,19.446,29.028,-0.685
19.159,21.736,43.716,15.891,36.836,22.869,34.863,5.892
18.936,22.841,42.627,16.653,35.79,23.215,34.946,8.536
17.864,24.202,38.331,14.448,31.709,21.123,33.022,8.051
16.561,23.394,34.856,11.185,28.774,19.1,33.283,7.13
15.681,20.617,32.893,8.331,27.346,18.323,33.908,5.907
17.625,20.973,31.57,7.239,26.605,19.115,33.345,4.718
22.832,26.588,32.206,9.218,28.023,22.414,34.618,6.38
26.524,32.007,34.588,12.62,31.153,27.502,38.542,11.172
25.193,33.022,34.352,13.63,31.363,30.85,40.053,14.378
22.881,33.291,30.205,12.037,27.241,30.937,36.18,13.274
25.132,37.415,26.84,11.146,23.594,30.494,30.756,10.928
31.107,44.782,26.875,12.005,23.437,31.884,27.98,10.196
36.3,51.345,28.168,13.681,24.794,34.723,27.755,10.613
37.715,52.174,28.33,15.802,25.047,37.295,27.724,11.244
34.789,47.063,26.679,17.228,23.222,38.222,26.547,11.512
30.448,43.42,24.621,17.193,20.489,38.318,25.3,11.103
28.138,45.159,23.429,16.274,18.236,38.544,24.325,10.31
27.178,46.893,22.128,14.518,16.229,37.688,21.86,9.147
25.583,44.118,20.299,12.12,14.777,35.517,18.506,7.281
22.309,37.365,18.1,9.387,13.639,33.33,16.093,4.36
16.418,28.786,14.464,5.734,10.534,31.228,13.399,0.733
9.272,22.049,9.457,1.336,5.214,28.758,9.183,-2.114
3.809,19.681,4.221,-2.94,-0.191,25.724,4.163,-4.062
0.967,19.683,0.09,-6.198,-3.864,22.913,-0.121,-6.301
-0.09,18.672,0.113,-6.19,-3.756,23.461,-0.553,-7.346
-1.108,15.121,4.07,-3.098,-0.667,27.664,2.904,-5.7
-4.306,9.039,5.14,-2.796,-0.225,28.977,4.078,-5.061
-9.482,2.541,0.419,-8.733,-4.468,23.611,0.023,-8.659
-14.032,-2.065,-4.356,-16.892,-8.78,16.553,-4.92,-13.48
-17.029,-5.69,-6.236,-23.087,-11.158,12.611,-8.087,-16.248
-19.677,-9.535,-8.996,-26.797,-14.192,11.436,-10.707,-17.704
-22.239,-12.254,-13.543,-27.851,-17.671,12.001,-12.46,-18.557
-23.531,-13.063,-15.8,-25.817,-18.623,14.254,-12.291,-17.96
-24.215,-13.687,-15.708,-22.699,-18.373,16.62,-12.475,-17.143
-27.031,-16.151,-18.037,-22.076,-21.329,16.61,-16.555,-19.193
-31.188,-19.488,-22.208,-23.312,-25.879,15.314,-22.922,-23.023
-33.248,-21.05,-22.827,-22.35,-26.361,16.204,-26.18,-23.958
-34.137,-22.218,-20.64,-19.479,-23.907,18.852,-26.072,-22.114
-36.448,-26.359,-20.633,-18.066,-24.097,20.615,-26.769,-21.807
-38.925,-32.131,-22.607,-18.31,-26.785,21.122,-28.47,-23.632
-40.277,-36.339,-23.659,-19.517,-28.072,19.727,-28.355,-25.125
-41.673,-38.548,-24.548,-22.735,-28.057,15.644,-26.651,-25.562
-43.204,-39.468,-27.065,-27.002,-29.549,11.819,-26.032,-25.404
-43.266,-40.094,-29.959,-29.159,-32.224,11.393,-27.558,-24.934
-41.427,-41.036,-31.137,-28.73,-33.101,12.939,-29.362,-24.367
-39.56,-41.266,-30.933,-28.041,-31.776,13.914,-29.904,-23.947
-39.303,-39.885,-30.344,-27.873,-30.347,14.645,-30.402,-24.122
-39.004,-37.017,-27.636,-26.15,-28.112,16.972,-30.512,-24.123
-36.401,-33.371,-21.461,-21.714,-22.973,21.189,-27.319,-22.044
-33.368,-30.892,-15.735,-17.933,-17.469,24.492,-21.793,-18.416
-33.2,-31.601,-15.074,-18.716,-16.106,23.951,-18.804,-16.134
-35.707,-35.862,-18.541,-22.444,-18.972,20.722,-19.902,-16.187
-39.529,-42.695,-22.751,-25.38,-23.16,17.662,-21.852,-17.153
-44.74,-49.508,-26.255,-27.263,-26.802,15.266,-21.666,-18.004
-50.111,-52.7,-28.403,-28.865,-28.911,13.663,-19.345,-18.278
-53.029,-51.719,-28.595,-29.133,-28.993,14.213,-16.73,-17.266
-52.629,-49.775,-27.214,-26.854,-27.739,17.206,-15.084,-14.827
-50.262,-49.103,-25.649,-22.699,-26.397,20.941,-13.706,-11.736
-48.976,-49.736,-26.39,-20.152,-26.756,22.517,-13.191,-9.912
-50.824,-51.116,-30.126,-21.176,-29.477,21.416,-15.571,-10.648
-53.355,-51.42,-32.962,-21.853,-31.482,22.002,-18.14,-11.582
-53.94,-49.935,-32.82,-20.006,-30.746,26,-17.192,-10.726
-54.683,-50.481,-33.696,-19.909,-30.677,28.262,-16.116,-10.719
-58.086,-55.787,-38.07,-23.108,-34.161,26.065,-18.942,-13.111
-62.627,-61.497,-42.975,-26.177,-39.004,22.691,-22.787,-15.03
-64.062,-62.44,-44.689,-27.169,-41.11,21.48,-23.473,-14.325
-60.213,-59.741,-42.358,-25.88,-38.932,23.474,-21.894,-12.135
-55.489,-57.635,-39.049,-23.272,-35.734,26.586,-21.908,-10.755
-54.653,-57.016,-38.221,-21.604,-35.156,27.585,-24.481,-10.847
-54.222,-54.694,-38.5,-21.15,-35.348,27.178,-26.298,-10.972
-50.445,-49.542,-37.065,-20.681,-33.306,27.371,-25.222,-10.897
-47.593,-45.696,-35.356,-20.947,-30.928,26.994,-23.884,-12.336
-48.969,-46.125,-36.143,-23.16,-31.467,25.017,-25.991,-15.149
-50.694,-48.044,-38.959,-26.111,-34.619,22.844,-31.386,-17.219
-49.773,-48.56,-41.659,-27.764,-38.072,21.505,-36.326,-18.162
-48.363,-48.534,-42.975,-27.273,-40.308,21.069,-37.983,-18.855
-48.072,-48.377,-42.703,-24.722,-40.912,22.072,-36.817,-18.85
-47.507,-47.297,-41.737,-21.684,-40.656,24.221,-34.672,-17.974
-45.556,-46.215,-40.878,-20.187,-40.349,26.041,-32.85,-17.417
-43.385,-46.378,-39.887,-19.819,-39.583,26.943,-32.241,-17.607
-43.677,-48.287,-39.314,-19.183,-38.91,26.839,-33.386,-18.291
-47.174,-51.368,-40.085,-18.686,-39.761,25.657,-35.561,-19.371
-49.949,-51.996,-40.337,-18.341,-40.239,25.324,-36.215,-19.629
-47.843,-47.759,-37.416,-16.34,-37.024,28.371,-33.343,-17.537
-42.741,-43.432,-33.117,-12.986,-32.113,33.051,-29.282,-14.25
-40.255,-44.928,-31.969,-11.82,-30.928,34.092,-28.175,-13.018
-42.122,-49.913,-34.4,-14.024,-33.808,30.346,-29.527,-14.827
-44.642,-51.818,-36.46,-16.223,-35.908,26.707,-29.655,-16.856
-45.274,-50.234,-36.492,-16.613,-35.253,25.838,-28.072,-16.569
-46.143,-50.426,-36.728,-17.483,-34.45,25.245,-26.962,-14.885
-48.549,-54.409,-38.335,-19.799,-35.094,23.904,-27,-13.727
-49.726,-58.437,-39.982,-21.925,-36.169,23.477,-27.712,-13.461
-47.936,-59.087,-40.837,-22.974,-36.876,24.204,-28.758,-13.737
-45.3,-56.948,-41.377,-22.772,-37.306,25.414,-29.384,-14.37
-44.582,-54.689,-41.997,-21.916,-37.873,26.312,-29.521,-15.069
-47.213,-55.988,-43.391,-23.098,-39.822,24.489,-30.308,-15.379
-52.26,-62.728,-46.403,-27.528,-43.529,19.511,-31.704,-15.218
-55.736,-70.036,-49.345,-31.499,-46.226,15.901,-32.218,-15.414
-54.74,-71.111,-49.242,-31.3,-45.392,16.648,-31.587,-16.525
-51.04,-66.45,-46.407,-28.01,-42.5,19.362,-31.09,-16.973
-48.06,-61.168,-43.548,-24.071,-40.096,21.94,-31.681,-14.926
-47.303,-57.857,-41.75,-20.496,-38.471,24.384,-32.656,-11.871
-48.198,-56.736,-40.414,-18.308,-37.194,25.76,-32.135,-10.853
-49.089,-57.116,-38.983,-17.182,-36.435,26.135,-29.654,-11.325
-48.646,-57.266,-36.857,-14.569,-35.574,27.985,-26.734,-10.086
-46.563,-56.118,-33.9,-10.003,-33.817,31.428,-25.227,-7.729
-43.334,-54.218,-31.851,-7.099,-32.513,32.678,-26.66,-8.315
-40.395,-52.676,-31.772,-8.126,-32.763,30.29,-29.846,-11.635
-38.851,-51.739,-31.333,-9.721,-32.453,28.374,-30.613,-12.954
-37.82,-49.686,-29.095,-8.405,-30.406,29.921,-28.279,-11.343
-35.694,-45.214,-27.32,-5.994,-28.906,32.506,-26.808,-10.636
-32.04,-40.589,-26.847,-4.556,-28.46,34.176,-27.221,-11.756
-28.238,-38.997,-25.806,-2.82,-27.091,35.709,-26.864,-11.727
-26.141,-39.727,-24.63,-0.591,-25.501,36.393,-25.867,-10.075
-25.237,-38.966,-24.968,0.781,-25.505,35.772,-26.288,-9.135
-24.41,-35.648,-26.048,1.497,-26.355,35.857,-27.52,-9.402
-25.305,-33.235,-27.389,1.554,-27.644,36.57,-28.412,-9.97
-28.462,-34.03,-29.807,-0.279,-30.303,35.355,-29.826,-10.807
-29.82,-35.967,-32.036,-3.3,-32.866,32.791,-31.782,-11.509
-26.949,-36.917,-31.894,-4.806,-32.66,32.229,-31.742,-10.924
-23.558,-37.056,-29.629,-3.297,-29.947,34.598,-27.875,-9.053
-23.231,-36.733,-26.94,0.156,-26.968,37.749,-22.759,-7.103
-25.624,-37.312,-25.761,2.232,-25.91,38.538,-21.928,-6.38
-29.459,-40.044,-27.281,0.319,-27.811,35.648,-26.567,-7.554
-31.761,-41.612,-28.936,-3.233,-29.892,32.2,-30.326,-9.16
-28.457,-38.325,-26.867,-3.578,-28.125,32.167,-28.238,-8.584
-21.166,-33.064,-22.534,-0.517,-23.862,34.833,-23.975,-6.02
-16.895,-31.652,-21.19,1.297,-22.394,36.226,-23.691,-4.774
-18.875,-34.556,-24.563,-0.881,-25.771,34.605,-28.299,-7
-23.716,-36.738,-29.464,-4.801,-31.005,32.14,-34.167,-11.139
-27.853,-36.451,-32.946,-7.146,-34.704,31.142,-38.165,-14.169
-31.107,-37.57,-35.187,-7.334,-36.489,31.323,-39.663,-14.783
-33.744,-40.979,-36.786,-6.35,-37.198,31.806,-38.572,-13.506
-35.081,-43.255,-37.121,-4.966,-37.067,32.072,-35.73,-11.791
-35.052,-43.578,-36.168,-4.108,-36.325,31.127,-33.743,-11.272
-34.174,-42.57,-34.502,-3.841,-34.862,29.953,-33.379,-11.607
-32.225,-39,-31.269,-2.274,-31.481,31.797,-31.617,-10.061
-28.74,-34.341,-25.95,1.343,-26.067,36.318,-26.575,-5.818
-26.466,-34.459,-23.282,2.69,-23.309,37.486,-23.144,-3.594
-30.194,-42.008,-29.553,-3.553,-28.945,31.125,-27.968,-8.249
-37.952,-51.628,-41.296,-14.486,-39.908,21.648,-38.185,-16.315
-42.174,-57.097,-48.1,-21.374,-46.903,16.329,-44.479,-20.18
-42.24,-58.683,-47.306,-21.3,-47.258,16.244,-44.501,-18.799
-43.556,-59.422,-44.734,-18.446,-45.759,17.887,-43.114,-16.648
-46.232,-60.631,-43.959,-16.619,-45.436,18.881,-42.916,-16.096
-46.41,-62.853,-43.911,-16.524,-45.254,18.628,-42.732,-16.469
-44.252,-65.37,-43.364,-17.819,-44.183,17.172,-41.472,-16.824
-42.683,-66.164,-41.996,-19.227,-42.213,15.794,-38.305,-15.808
-42.224,-65.269,-39.267,-17.966,-39.139,16.741,-32.456,-11.496
-41.545,-65.407,-35.396,-13.406,-35.352,20.313,-25.095,-4.009
-40.148,-67.328,-31.776,-8.133,-31.813,24.854,-18.19,4.257
-38.222,-67.694,-29.7,-3.748,-29.256,29.509,-12.964,10.938
-36.934,-65.67,-30.239,-1.637,-28.994,32.459,-11.664,13.425
-38.215,-66.237,-33.408,-4.118,-31.637,30.706,-16.019,9.867
-41.617,-72.087,-37.261,-9.705,-35.631,25.312,-24.15,2.42
-44.89,-79.474,-40.847,-14.893,-40.101,19.614,-32.873,-5.005
-46.765,-83.479,-45.125,-20.126,-45.371,13.586,-40.087,-11.295
-46.084,-82.239,-48.925,-25.699,-49.491,7.47,-44.111,-16.482
-42.87,-78.154,-49.051,-27.318,-49.432,5.375,-44.143,-18.557
-40.13,-75.174,-45.197,-22.759,-45.472,9.027,-41.304,-16.387
-40.216,-73.737,-40.969,-16.89,-41.305,13.32,-38.5,-13.677
-41.931,-72.229,-39.892,-15.491,-40.721,12.504,-39.275,-15.262
-42.974,-71.112,-41.885,-18.136,-44.148,7.866,-44.298,-20.041
-42.404,-70.689,-43.5,-19.907,-47.35,5.784,-48.374,-21.749
-40.518,-69.48,-41.678,-18.148,-45.752,9.035,-45.858,-17.356
-38.599,-67.773,-37.766,-15.304,-41.015,13.474,-39.481,-11.333
-39.123,-67.91,-36.474,-15.464,-39.336,13.966,-36.869,-9.745
-44.073,-70.635,-39.95,-19.336,-42.995,10.591,-39.349,-12.965
-50.839,-73.905,-44.554,-23.032,-47.7,7.496,-41.479,-16.412
-53.123,-74.768,-45.263,-22.882,-48.33,7.261,-39.669,-16.605
-49.873,-72.677,-42.207,-20.335,-45.013,8.113,-36.146,-14.717
-47.473,-70.504,-39.917,-19.322,-42.428,7.32,-35.27,-14.1
-48.927,-69.972,-40.484,-20.179,-43.185,5.742,-37.907,-15.162
-49.177,-68.787,-41.084,-19.67,-44.409,6.069,-40.487,-15.508
-45.638,-66.007,-39.391,-17.259,-43.202,7.487,-40.451,-15.155
-43.47,-64.695,-37.177,-16.122,-41.144,7.335,-38.798,-15.718
-44.799,-64.675,-35.668,-15.83,-39.502,7.339,-35.813,-15.158
-44.281,-61.529,-33.489,-12.409,-36.981,10.718,-31.368,-11.248
-40.588,-56.533,-31.551,-7.633,-34.706,14.632,-28.025,-7.128
-39.309,-55.493,-32.265,-7.462,-35.166,13.996,-27.183,-6.548
-40.979,-56.773,-33.868,-10.685,-36.778,10.467,-27.505,-8.217
-39.54,-54.082,-32.472,-10.101,-35.891,10.062,-28.66,-8.76
-34.438,-47.658,-28.242,-4.319,-31.923,14.113,-29.856,-7.046
-31.266,-41.453,-24.3,1.487,-27.023,19.171,-28.189,-3.611
-31.011,-37.437,-22.079,4.393,-23.432,22.645,-24.133,0.265
-30.844,-37.932,-22.422,4.54,-23.398,22.888,-23.108,1.464
-31.016,-43.283,-26.252,1.929,-27.5,19.315,-27.255,-1.752
-31.616,-47.841,-30.582,-1.103,-31.692,15.482,-31.351,-5.518
-30.517,-46.399,-31.72,-1.29,-32.562,15.29,-31.808,-6.059
-28.105,-41.322,-32.14,-0.211,-33.447,16.745,-32.797,-6.128
-26.549,-38.529,-35.263,-1.168,-37.484,15.827,-36.782,-8.751
-27.231,-40.136,-38.689,-3.107,-41.116,13.561,-38.527,-11.129
-31.592,-44.25,-40.027,-4.263,-41.626,12.483,-36.3,-11.22
-38.258,-47.873,-41.385,-6.188,-42.188,10.702,-37.034,-12.134
-41.95,-48.32,-43.603,-9.142,-44.529,6.723,-42.734,-15.176
-40.383,-45.318,-44.152,-10.158,-45.731,4.058,-45.86,-16.885
-36.705,-41.078,-41.799,-7.786,-43.731,6.025,-42.561,-15
-33.785,-37.949,-38,-3.914,-39.691,10.523,-37.074,-11.484
-31.645,-36.915,-35.006,-1.343,-36.271,12.554,-33.735,-9.413
-29.027,-35.829,-33.604,-0.668,-34.709,11.392,-32.827,-8.879
-25.737,-32.368,-32.65,-0.145,-33.714,11.159,-32.925,-7.992
-23.144,-29.191,-31.51,0.81,-32.54,13.046,-33.531,-7.124
-20.339,-28.324,-29.591,1.707,-30.951,14.423,-32.822,-7.179
-16.584,-26.589,-25.871,2.935,-27.836,14.845,-28.642,-6.753
-16.715,-23.809,-23.055,3.669,-25.107,15.132,-25.48,-5.894
-22.638,-23.887,-25.361,2.177,-26.729,14.206,-29.157,-6.87
-26.524,-25.124,-29.897,-0.06,-30.523,12.49,-34.619,-8.504
-21.538,-22.26,-28.984,0.982,-29.266,13.603,-31.873,-6.29
-10.999,-16.784,-22.111,5.398,-22.041,18.143,-21.592,-0.431
-3.811,-14.606,-17.464,7.518,-16.705,20.83,-15.248,2.466
-4.398,-16.425,-19.733,4.76,-18.31,18.681,-18.853,-0.396
-7.278,-17.104,-23.204,2.866,-21.542,16.515,-24.519,-3.073
-5.278,-13.491,-21.3,6.24,-19.66,18.753,-24.291,-1.243
-0.461,-8.803,-16.342,10.756,-14.649,22.132,-21.189,1.358
1.881,-6.537,-13.126,12.129,-11.225,22.736,-19.153,1.703
2.838,-4.687,-11.045,12.681,-8.915,22.747,-16.364,2.465
5.826,-0.79,-9.459,14.23,-7.301,23.883,-13.822,4.123
10.853,3.41,-10.876,13.689,-8.929,22.87,-16.495,2.642
15.386,6.531,-14.278,10.946,-12.514,19.42,-22.54,-1.684
17.49,10.18,-15.22,10.534,-13.469,18.566,-24.077,-3.307
17.95,14.061,-13.456,12.558,-11.796,20.848,-20.152,-0.945
18.049,15.141,-12.443,12.71,-11.083,21.157,-17.543,1.079
16.996,12.77,-13.744,10.156,-12.515,17.997,-19.483,0.28
14.119,8.985,-16.761,7.123,-15.281,14.373,-22.637,-1.669
11.677,6.492,-19.359,5.505,-17.421,12.78,-22.791,-2.039
12.862,7.818,-18.041,7.098,-15.482,14.34,-18.528,0.428
16.311,11.336,-13.119,10.962,-10.009,17.678,-12.483,4.114
16.553,12.264,-10.385,12.92,-7.27,19.26,-10.02,5.679
12.06,9.997,-13.257,11.341,-10.486,17.791,-13.781,3.474
7.898,8.184,-18,8.835,-15.116,15.333,-19.596,-0.355
8.023,8.487,-18.875,8.607,-15.235,14.81,-20.414,-1.452
9.711,8.818,-15.568,11.039,-11.377,16.917,-15.763,1.11
9.277,7.573,-13.004,13.242,-9.192,18.864,-12.757,2.948
8.255,6.124,-13.409,13.563,-10.503,18.546,-15.271,1.465
9.183,5.845,-14.051,13.927,-11.583,17.462,-18.976,-0.345
10.4,5.978,-13.612,15.807,-10.842,17.48,-19.326,-0.081
8.938,4.903,-13.945,17.639,-10.775,17.927,-17.759,0.54
4.894,1.722,-15.967,16.906,-12.673,16.762,-17.76,0.011
0.706,-3.533,-18.614,13.191,-15.191,13.369,-19.321,-0.785
-2.136,-9.756,-20.658,8.976,-16.985,9.461,-20.276,-1.165
-4.171,-13.694,-21.724,7.023,-17.957,7.019,-20.563,-1.548
-5.899,-12.787,-21.934,7.676,-18.324,6.426,-20.76,-1.771
-6.42,-9.433,-21.267,9.512,-17.874,6.873,-19.302,-0.957
-5.851,-7.773,-20.576,11.116,-17.368,7.601,-16.4,0.4
-7.017,-9.012,-21.886,11.103,-18.852,7.859,-16.155,-0.024
-11.613,-12.417,-25.815,8.36,-22.709,6.406,-20.639,-3.487
-17.025,-16.835,-30.107,4.359,-26.348,3.592,-26.043,-7.419
-20.885,-21.316,-31.95,2.578,-27.137,2.193,-27.002,-7.849
-24.802,-25.444,-31.672,2.99,-26.068,2.286,-24.031,-5.632
-28.624,-27.372,-31.967,1.993,-26.354,0.484,-23.719,-5.471
-28.473,-24.961,-32.51,0,-27.698,-2.285,-28.268,-7.469
-26.672,-21.951,-31.404,0.555,-27.633,-1.949,-32.123,-8.05
-30.803,-25.028,-30.667,2.436,-27.493,-0.052,-32.474,-7.948
-38.406,-31.684,-31.472,3.092,-28.383,0.466,-31.133,-8.988
-39.277,-33.242,-30.127,4.599,-26.955,2.047,-27.456,-8.304
-33.472,-30.608,-26.817,6.944,-23.475,4.523,-22.443,-5.201
-31.911,-32.01,-28.3,4.718,-24.62,1.902,-23.038,-5.316
-39.627,-37.124,-35.809,-2.384,-31.779,-5.355,-31.316,-10.63
-48.802,-38.765,-41.375,-6.76,-37.286,-9.11,-38.949,-15.313
-50.007,-36.132,-39.942,-4.798,-36.115,-7.17,-39.353,-15.613
-44.168,-33.432,-35.001,-0.612,-31.328,-4.713,-35.333,-14.092
-39.513,-31.524,-31.402,2.182,-27.347,-4.419,-32.268,-13.393
-39.695,-29.943,-30.25,3.446,-25.512,-4.933,-32.074,-13.399
-41.161,-30.43,-30.634,3.169,-25.668,-5.515,-33.942,-13.784
-41.362,-33.043,-31.329,1.556,-26.962,-6.184,-35.247,-14.311
-41.707,-34.205,-30.451,0.869,-27.271,-5.898,-32.86,-13.397
-41.65,-31.26,-26.753,2.943,-24.948,-4.218,-26.877,-9.792
-38.157,-25.473,-21.914,6.523,-21.156,-2.193,-20.793,-4.869
-33.3,-20.677,-19.793,8.965,-19.223,-0.611,-17.899,-1.499
-32.984,-20.043,-21.732,9.151,-20.637,0.141,-18.658,-0.881
-36.111,-22.315,-23.661,8.689,-22.147,0.078,-19.68,-1.15
-35.971,-23.255,-21.427,9.685,-19.948,0.275,-17.217,-0.149
-31.808,-22.07,-17.212,11.107,-15.591,0.838,-12.763,1.336
-29.172,-22.167,-16.318,10.314,-13.923,-0.065,-11.224,1.218
-31.869,-25.584,-19.63,7.787,-16.375,-2.436,-13.423,0.116
-39.118,-30.498,-23.512,5.966,-19.806,-3.724,-15.192,0.435
-47.202,-34.203,-25.834,4.874,-21.894,-3.859,-15.035,1.471
-52.571,-36.209,-27.924,3.01,-23.685,-5.477,-16.227,0.111
-54.874,-37.241,-31.099,0.19,-26.242,-8.908,-19.262,-3.492
-56.533,-37.458,-34.979,-2.744,-29.074,-12.335,-20.973,-6.457
-59.693,-37.828,-38.837,-5.105,-31.844,-14.993,-21.548,-8.169
-63.059,-39.433,-41.446,-6.435,-33.802,-16.302,-22.86,-9.239
-62.909,-40.544,-40.948,-6.395,-33.293,-15.653,-23.315,-9.039
-59.8,-39.883,-37.947,-5.89,-30.903,-14.933,-21.991,-8.339
-58.99,-40.007,-36.151,-7.133,-29.926,-16.853,-21.72,-9.468
-61.672,-42.386,-37.775,-10.82,-32.075,-20.957,-24.355,-12.573
-62.926,-44.41,-40.989,-15.002,-35.495,-24.689,-28.112,-15.746
-59.486,-43.577,-42.614,-17.262,-37.272,-26.259,-30.007,-17.34
-54.069,-40.421,-41.931,-16.671,-36.684,-25.241,-29.074,-16.673
-50.924,-37.005,-40.681,-14.099,-35.355,-22.918,-27.406,-14.927
-49.694,-34.156,-38.857,-10.471,-33.55,-20.487,-26.849,-13.747
-46.775,-31.231,-34.379,-5.864,-29.59,-17.144,-26.272,-12.212
-42.326,-28.249,-28.937,-1.846,-24.995,-13.778,-24.923,-9.852
-40.463,-26.079,-27.709,-1.498,-24.483,-14.1,-24.978,-10.112
-41.45,-24.936,-30.817,-4.826,-28.173,-17.904,-27.102,-14.325
-39.974,-24.468,-32.873,-7.895,-30.865,-20.282,-28.272,-17.823
-34.585,-24.886,-33.185,-9.301,-31.609,-20.406,-28.435,-18.264
-32.206,-26.64,-35.968,-11.388,-34.268,-22.093,-31.05,-19.094
-35.348,-28.055,-38.63,-12.269,-36.632,-24.078,-33.305,-20.258
-34.647,-25.35,-33.456,-6.79,-31.734,-20.483,-28.143,-16.79
-26.408,-19.297,-22.483,2.262,-21.377,-12.55,-17.414,-9.536
-21.979,-17.78,-16.56,5.638,-15.441,-9.052,-10.441,-5.77
-27.35,-23.842,-18.568,1.752,-17.035,-12.867,-10.503,-7.794
-32.5,-28.569,-20.811,-1.704,-19.462,-17.171,-12.883,-10.417
-29.726,-24.899,-19.165,-0.526,-18.285,-16.871,-13.972,-9.882
-24.86,-17.825,-18.216,1.55,-17.204,-15.036,-14.687,-8.483
-24.133,-13.858,-21.7,1.055,-20.192,-15.996,-16.543,-9.452
-24.978,-13.093,-26.534,-0.953,-24.857,-18.839,-19.388,-11.853
-25.582,-15.406,-28.813,-3.134,-27.386,-20.839,-22.579,-13.047
-29.537,-21.963,-29.997,-6.106,-28.705,-22.607,-26.079,-13.377
-36.636,-29.635,-33.605,-10.609,-31.751,-26.451,-30.886,-16.275
-40.779,-32.505,-38.335,-15.581,-35.426,-31.275,-36.536,-22.841
-38.61,-28.173,-38.07,-16.835,-34.537,-31.75,-37.563,-27.049
-33.367,-20.081,-30.409,-11.364,-26.965,-25.465,-29.802,-23.05
-30.264,-15.154,-21.816,-3.621,-18.446,-18.078,-19.342,-15.662
-31.103,-16.961,-19.298,0.134,-15.747,-15.521,-14.95,-13.127
-33.609,-21.357,-21.366,0.504,-18.092,-16.082,-16.107,-14.619
-35.159,-22.908,-23.118,0.201,-20.982,-16.297,-17.613,-15.148
-35.449,-22.151,-23.519,-1.359,-22.714,-16.944,-17.602,-14.394
-35.561,-21.939,-22.879,-3.308,-22.606,-18.303,-15.694,-13.29
-36.731,-21.523,-20.713,-2.679,-20.393,-18.062,-11.925,-10.559
-38.839,-19.299,-18.277,0.012,-18.223,-16.006,-7.995,-6.404
-39.448,-17.714,-17.538,1.996,-17.774,-13.946,-5.55,-3.368
-37.508,-19.718,-18.113,2.842,-18.275,-12.614,-5.511,-2.873
-36.067,-23.017,-18.426,3.249,-18.778,-12.394,-7.636,-3.981
-37.501,-23.418,-18.235,2.847,-19.098,-13.782,-9.938,-5.318
-39.514,-21.124,-17.808,1.865,-18.741,-15.645,-10.93,-6.257
-38.84,-18.737,-16.227,2.435,-16.718,-15.555,-10.205,-5.977
-35.345,-16.365,-13.414,5.511,-13.541,-13.05,-8.015,-4.192
-31.303,-13.734,-11.981,7.808,-11.961,-11.175,-6.741,-3.321
-29.162,-12.59,-13.556,6.077,-13.327,-12.49,-8.986,-6.057
-29.356,-12.855,-15.821,2.732,-15.433,-15.159,-14.023,-11.043
-29.444,-11.71,-15.718,2.06,-15.356,-16.015,-18.15,-14.421
-26.857,-7.739,-12.795,4.086,-12.308,-14.68,-17.887,-14.204
-22.191,-2.487,-9.303,6.297,-8.548,-12.539,-14.435,-11.619
-18.719,0.927,-8.256,7.437,-7.549,-11.042,-12.778,-9.597
-18.584,1.326,-8.92,8.379,-8.355,-10.115,-12.828,-8.63
-19.752,1.295,-6.518,11.358,-5.54,-7.366,-8.665,-5.331
-18.641,2.293,0.112,16.352,1.73,-2.568,0.484,1.441
-15.276,3.079,6.814,20.314,8.424,1.085,9.583,8.189
-12.278,4.087,11.247,22.222,12.374,2.663,16.904,12.871
-10.154,6.288,13.823,23.379,14.632,3.524,22.152,16.453
-8.34,8.181,13.278,22.976,13.717,2.698,22.123,18.224
-8.51,8.319,8.407,19.408,8.157,-1.356,16.439,15.564
-11.258,7.664,2.167,14.437,1.452,-6.533,9.551,8.899
-14.285,7.048,-1.913,10.627,-2.489,-10.208,4.346,1.911
-17.428,5.079,-5.484,6.272,-5.776,-14.222,-0.446,-4.342
-22.176,1.723,-11.535,-0.568,-11.657,-20.283,-6.594,-11.63
-27.211,0.009,-17.935,-5.934,-17.817,-24.736,-13.479,-18.583
-30.732,0.743,-20.837,-5.912,-20.779,-24.746,-18.72,-21.312
-32.813,0.786,-20.661,-3.508,-21.26,-23.185,-20.475,-19.769
-33.853,-2.41,-20.833,-3.468,-21.897,-23.354,-19.781,-18.103
-35.024,-7.968,-23.455,-6.355,-24.191,-25.395,-19.909,-19.211
-37.117,-11.589,-27.237,-10.023,-27.553,-27.981,-22.19,-22.166
-37.823,-10.141,-29.422,-12.477,-29.968,-29.422,-24.868,-24.521
-36.04,-7.002,-29.613,-12.969,-30.7,-28.973,-26.382,-25.266
-35.019,-6.404,-28.857,-11.673,-30.097,-27.532,-26.186,-24.64
-35.733,-6.189,-26.422,-8.788,-27.387,-25.654,-23.467,-22.435
-35.713,-4.523,-22.923,-6.001,-23.685,-24.044,-19.674,-19.726
-35.614,-5,-22.735,-6.667,-23.613,-25.143,-19.94,-20.095
-36.275,-7.495,-26.606,-10.295,-27.803,-28.734,-25.941,-24.276
-34.374,-6.35,-28.983,-12.392,-30.653,-30.615,-31.564,-27.957
-29.468,-1.523,-27.689,-12.292,-29.933,-29.887,-32.012,-28.52
-26.638,1.215,-26.432,-12.676,-29.057,-29.629,-29.773,-27.537
-28.436,-0.233,-27.192,-13.765,-29.549,-30.67,-28.214,-26.777
-31.492,-3.132,-28.49,-14.686,-30.029,-31.577,-27.545,-26.897
-31.004,-3.524,-28.401,-14.986,-29.474,-31.372,-27.01,-27.262
-26.196,0.583,-26.464,-13.947,-27.731,-30.266,-26.369,-26.534
-22.376,5.041,-24.792,-12.863,-26.21,-30.186,-26.183,-25.62
-24.285,3.069,-25.173,-13.885,-26.316,-32.32,-26.861,-26.309
-27.702,-4.247,-25.289,-15.058,-25.954,-33.996,-26.565,-26.834
-26.337,-9.152,-22.344,-13.075,-22.75,-32.227,-23.101,-24.655
-23.88,-9.894,-19,-10.455,-19.659,-29.644,-19.33,-22.424
-26.44,-11.594,-19.812,-12.069,-20.799,-31.172,-20.834,-24.205
-29.872,-14.517,-23.499,-16.374,-24.204,-35.71,-26.294,-28.097
-27.858,-13.761,-25.136,-18.056,-25.021,-37.719,-28.423,-29.292
-23.857,-9.912,-23.932,-16.593,-23.098,-35.568,-25.071,-27.141
-24.576,-8.848,-23.369,-15.821,-22.379,-33.01,-21.103,-24.667
-28.764,-12.173,-25.332,-17.433,-24.606,-33.437,-20.705,-24.211
-30.219,-15.436,-27.951,-19.429,-27.352,-35.813,-23.279,-25.669
-27.16,-14.848,-28.55,-19.569,-27.754,-36.801,-25.413,-26.999
-22.661,-11.439,-26.813,-17.551,-25.854,-35.168,-25.084,-26.248
-18.667,-8.204,-24.795,-14.929,-23.845,-32.783,-23.516,-24.171
-14.013,-5.688,-23.807,-13.813,-22.72,-31.688,-22.206,-22.951
-8.197,-2.439,-22.509,-14.533,-21.078,-31.653,-20.316,-22.281
-3.376,1.447,-19.125,-14.937,-17.622,-31.204,-16.803,-20.131
-0.467,3.452,-13.667,-12.833,-12.612,-29.375,-12.539,-16.415
2.203,2.206,-7.494,-8.316,-6.97,-26.01,-8.845,-12.802
4.206,0.508,-3.478,-4.015,-3.122,-22.562,-6.741,-10.923
2.788,1.621,-4.611,-3.296,-4.294,-21.801,-7.197,-11.89
-1.227,4.612,-9.491,-6.882,-9.649,-24.371,-9.518,-15.003
-3.623,6.734,-14.114,-12.41,-15.153,-28.317,-12.523,-18.29
-3.071,7.446,-17.282,-16.916,-18.865,-31.882,-16.299,-20.813
-1.441,7.712,-18.526,-17.972,-19.866,-33.196,-18.859,-21.803
-0.28,7.546,-17.032,-16.123,-17.74,-31.248,-17.859,-20.72
-0.832,6.707,-15.23,-15.52,-15.576,-29.065,-16.27,-19.584
-3.259,6.713,-15.695,-17.74,-16.199,-29.81,-17.75,-20.592
-5.108,8.691,-17.129,-19.546,-17.833,-31.499,-20.816,-22.746
-4.085,10.861,-17.634,-19.027,-17.936,-31.18,-22.235,-23.77
-0.848,12.2,-16.53,-17.313,-16.112,-29.39,-20.683,-22.486
2.408,14.522,-13.073,-14.328,-12.251,-26.765,-16.274,-18.564
4.551,17.133,-7.992,-9.893,-6.93,-23.017,-10.182,-13.01
5.988,16.524,-4.185,-6.682,-2.901,-19.845,-5.354,-8.615
6.318,13.453,-3.393,-6.511,-2.281,-18.968,-4.107,-7.365
3.829,11.541,-4.32,-7.951,-3.735,-19.739,-4.664,-8.114
-0.518,10.534,-5.139,-9.723,-4.855,-21.196,-4.047,-8.513
-2.468,9.286,-5.602,-11.559,-5.144,-22.711,-2.338,-7.95
0.053,10.543,-5.726,-11.894,-4.972,-22.594,-0.687,-6.881
4.905,15.984,-4.588,-9.06,-3.862,-19.633,1.166,-5.115
9.841,21.852,-1.657,-4.301,-1.329,-15.358,3.165,-2.748
14.005,24.119,1.791,-0.72,1.632,-12.254,3.94,-0.942
15.664,22.929,3.7,0.022,3.32,-10.979,3.205,-0.387
13.639,19.792,3.676,-1.531,3.658,-10.976,2.926,-0.428
10.393,15.799,3.284,-3.589,4.121,-11.822,4.598,-0.226
9.608,12.996,3.779,-3.956,5.14,-12.553,7.099,0.372
11.009,12.607,4.566,-2.181,5.549,-12.415,8.274,0.989
11.471,13.351,4.81,-0.337,5.203,-12.339,7.915,1.227
11,13.989,5.116,0.113,5.538,-12.993,7.946,1.202
12.455,14.381,5.901,-0.404,6.57,-13.666,9.109,1.202
16.283,14.283,6.413,-1.538,6.942,-13.893,9.98,1.369
19.612,13.403,5.957,-3.406,6.471,-14.116,9.861,1.565
19.013,11.875,4.269,-5.538,5.666,-15.168,9.919,1.297
13.784,10.435,1.892,-6.796,4.816,-16.896,11.16,0.807
7.632,9.878,-0.211,-6.806,3.891,-17.845,11.803,0.8
5.026,10.486,-2.596,-6.501,1.964,-17.286,8.71,0.821
6.46,12.048,-6.172,-6.587,-1.423,-16.158,2.773,-0.093
9.328,13.552,-9.905,-7.249,-4.981,-15.993,-1.996,-2.101
11.612,14.16,-12.374,-8.456,-7.422,-17.177,-4.814,-4.726
13.49,15.073,-12.952,-8.964,-8.114,-17.918,-6.978,-6.863
15.976,17.866,-11.313,-7.694,-6.586,-16.742,-7.594,-7.566
19.24,21.695,-8.135,-5.514,-3.626,-14.717,-6.466,-7.514
22.576,24.944,-5.048,-3.62,-1.101,-12.962,-6.095,-7.884
24.166,26.781,-3.917,-3.127,-0.576,-12.036,-7.707,-9.011
22.21,26.228,-5.615,-5.143,-2.418,-13.478,-9.669,-11.039
17.627,23.234,-8.729,-8.645,-5.561,-17.239,-10.816,-13.753
13.746,19.583,-11.326,-11.049,-8.674,-20.49,-11.886,-15.993
13.577,17.618,-12.162,-10.834,-10.26,-20.924,-12.368,-15.902
17.433,19.071,-9.626,-8.084,-8.286,-18.234,-9.794,-12.247
22.685,23.387,-3.978,-4.337,-3.168,-13.593,-4.545,-6.415
26.209,26.721,0.531,-1.836,0.672,-9.69,-1.265,-2.077
25.819,25.219,0.066,-1.96,-0.344,-9.452,-2.981,-2.052
21.579,20.094,-3.477,-4.411,-3.99,-12.941,-6.897,-5.192
18.606,16.822,-3.698,-6.344,-4.077,-16.04,-7.405,-6.842
22.934,18.122,3.425,-3.885,2.779,-14.301,-1.623,-3.686
32.094,21.53,14.238,2.364,13.003,-8.577,7.416,2.46
36.511,24.753,20.244,6.256,19.029,-4.882,12.568,5.986
32.165,27.999,17.049,3.744,16.561,-7.182,9.918,3.046
26.511,31.053,9.897,-1.313,9.481,-12.05,3.815,-3.461
27.359,32.865,6.857,-3.065,5.157,-14.163,0.766,-7.577
31.254,33.529,8.059,-1.763,5.047,-13.887,0.556,-8.37
31.405,33.806,8.794,-0.278,5.752,-13.735,-0.144,-8.445
28.801,33.188,8.225,1.086,5.804,-13.367,-0.626,-8.012
26.37,30.663,6.893,1.165,4.501,-12.927,-0.46,-7.139
22.117,26.775,2.772,-2.914,0.013,-14.785,-2.932,-8.497
14.986,23.281,-4.013,-9.746,-6.455,-18.758,-8.143,-12.38
9.242,21.796,-8.527,-13.093,-10.152,-20.316,-11.096,-14.477
7.725,22.339,-8.153,-10.854,-9.508,-17.452,-10.5,-12.986
7.033,22.278,-7.495,-8.788,-9.044,-14.863,-11.343,-11.989
3.936,20.095,-10.486,-10.679,-12.238,-16.001,-15.234,-13.86
0.296,18.84,-13.945,-12.592,-16.416,-17.768,-17.82,-15.725
-1.507,20.34,-14.314,-11.651,-18.171,-17.871,-17.635,-16.012
-1.486,21.028,-12.459,-10.801,-17.264,-18.219,-16.565,-16.112
-0.489,18.269,-9.544,-11.463,-14.1,-18.985,-14.277,-15.832
-0.677,14.093,-6.065,-11.187,-9.989,-18.333,-10.753,-14.243
-3.253,10.966,-2.866,-9.226,-6.846,-16.512,-7.152,-11.841
-4.232,9.842,0.86,-7.236,-3.582,-14.822,-2.217,-8.962
0.233,11.513,5.509,-5.938,1.063,-13.645,3.808,-6.025
6.517,15.223,8.283,-4.351,4.243,-12.609,6.481,-4.283
8.625,17.638,7.485,-1.603,3.745,-11.052,4.625,-4.04
6.578,16.429,5.591,1.137,1.977,-9.087,3.206,-3.818
4.631,13.55,5.66,2.478,1.964,-7.301,5.901,-1.752
5.061,12.641,8.608,3.846,4.445,-5.051,11.08,2.603
6.817,14.154,13.355,6.671,8.565,-1.902,15.461,7.4
7.718,15.332,16.992,8.401,11.826,-0.363,17.562,9.749
7.475,14.951,18.053,6.951,12.867,-2.286,18.794,9.34
8.726,15.022,19.352,5.852,14.279,-4.262,21.701,9.24
12.207,16.138,22.674,8.231,17.334,-3.143,25.356,10.805
14.417,16.607,25.254,11.403,19.079,-1.383,26.525,11.896
14.258,17.403,25.813,12.773,18.953,-1.327,25.787,11.76
15.419,20.177,26.883,13.484,20.123,-1.196,26.071,12.096
19.169,22.011,29.661,14.791,23.17,0.732,27.269,13.17
21.298,18.909,32.172,16.462,25.264,3.486,27.59,13.527
17.95,11.865,31.823,17.12,24.396,4.681,27.009,12.859
10.322,5.136,27.646,14.924,20.92,2.578,25.996,12.078
3.277,0.708,21.137,10.318,16.413,-1.697,23.291,11.298
1.215,-0.971,15.773,6.746,13.068,-4.572,19.04,10.542
4.142,1.418,14.296,6.511,12.696,-3.982,17.285,10.936
7.485,6.291,14.868,7.101,13.669,-2.317,18.845,11.919
7.864,8.87,13.509,4.833,12.401,-3.2,18.226,10.837
7.643,7.894,11.154,1.272,9.739,-5.302,13.918,7.93
10.104,5.981,11.248,0.099,9.156,-5.196,11.034,5.99
13.417,4.194,12.644,0.175,10.101,-4.536,11.318,5.129
14.627,2.266,13.013,-0.976,10.659,-6.126,12.034,3.955
15.031,0.939,14.294,-1.608,12.384,-7.826,13.26,3.349
16.45,0.341,18.418,0.252,16.764,-7.115,17.428,4.972
16.032,-0.948,21.916,1.789,20.506,-6.268,22.656,7.548
10.535,-3.581,19.886,-0.913,18.841,-8.766,22.851,7.194
3.9,-6.196,14.357,-5.695,13.361,-13.302,17.208,3.319
3.054,-7.527,12.788,-6.281,11.257,-14.878,13.231,0.608
7.228,-7.951,17.067,-1.77,14.801,-11.537,15.496,1.87
9.382,-8.575,21.001,2.206,18.315,-6.965,19.296,4.151
7.535,-9.364,20.572,2.485,18.035,-5.013,19.641,4.533
7.225,-7.881,19.689,2.502,17.578,-4.28,18.754,5.045
11.419,-2.71,22.426,5.323,20.352,-2.071,20.946,8.47
15.371,2.18,26.081,8.172,23.577,-0.229,25.232,12.33
14.7,1.928,26.68,7.852,23.779,-1.459,26.945,12.782
11.544,-1.907,25.44,6.281,22.501,-3.913,25.12,11.634
9.636,-5.064,25.192,6.229,22.707,-4.392,23.515,12.272
9.068,-7.432,25.624,6.241,23.784,-3.52,23.969,13.235
8.588,-9.557,25.64,4.604,23.773,-3.637,24.195,12.228
8.783,-9.52,26.256,3.884,23.407,-4.184,23.065,11.026
10.894,-7.094,28.515,6.576,24.477,-2.897,22.879,12.066
14.217,-4.314,30.626,10.204,25.86,-0.289,24.454,14.151
15.286,-3.084,29.838,10.691,24.793,0.56,25.037,14.552
11.984,-4.404,27.635,8.632,22.651,-0.519,24.362,13.897
8.227,-6.844,28.408,8.26,23.829,-0.247,25.916,15.109
8.431,-8.016,30.403,9.153,26.361,0.859,28.304,16.723
10.271,-8.71,26.863,6.041,23.146,-1.69,25.459,13.813
9.491,-11.594,18.511,-1.024,14.851,-7.471,17.99,7.228
6.64,-16.487,12.372,-6.212,9.051,-11.477,12.193,2.855
4.679,-20.711,9.954,-7.427,7.759,-12.52,9.789,2.091
4.858,-22.709,9.406,-6.596,8.552,-12.48,9.793,2.651
7.445,-22.231,12.6,-3.76,12.4,-10.55,13.626,5.066
11.962,-19.577,19.676,1.16,19.497,-5.701,20.215,9.986
15.367,-16.684,24.727,4.72,24.423,-1.275,23.629,13.713
15.046,-15.48,23.949,3.968,23.535,-1.033,21.177,12.845
12.887,-15.691,21.376,1.074,20.949,-3.368,18.085,9.833
11.716,-16.783,21.824,0.042,21.581,-4.27,19.508,9.132
11.66,-18.132,24.17,1.398,24.364,-2.904,23.693,11.028
12.536,-17.39,25.24,2.982,26.015,-0.82,26.34,12.891
14.055,-14.601,24.88,3.797,25.754,0.901,25.825,13.628
14.853,-13.556,25.547,5.055,25.65,2.447,24.588,14.886
16.101,-13.959,30.214,8.815,29.418,5.416,27.77,19.154
21.762,-10.19,39.592,16.146,38.57,11.591,37.468,27.241
31.904,-0.85,50.227,24.992,49.33,20.166,49.769,37.286
40.963,8.426,57.164,30.706,56.039,26.816,58.847,45.497
44.46,12.046,58.757,31.058,57.033,27.822,62,48.674
42.352,8.994,57.408,28.694,55.16,24.592,60.634,47.014
37.034,2.873,55.436,26.794,52.999,21.358,57.034,43.266
31.683,-1.402,52.214,25.035,49.787,19.272,51.614,38.853
27.788,-3.431,47.061,21.607,44.309,16.293,44.454,33.063
24.635,-5.845,42.439,17.586,38.654,12.897,37.376,26.816
22.234,-8.074,40.841,15.899,35.719,11.788,32.435,23.245
21.162,-8.325,40.725,15.98,34.615,11.626,29.585,22.659
20.974,-7.748,39.286,14.912,32.653,9.236,27.254,22.189
21.332,-7.61,37.164,13.349,30.307,6.481,25.384,21.403
21.908,-7.347,36.372,13.419,29.65,6.688,25.592,21.927
21.49,-7.122,35.834,13.824,29.545,8.067,26.803,22.673
19.95,-7.754,33.648,12.926,27.634,7.396,25.733,21.611
18.709,-9.261,30.856,11.501,24.944,5.204,22.916,19.51
18.041,-11.488,29.183,10.183,23.96,3.656,22.251,18.394
17.718,-13.076,28.548,9.286,24.796,4.041,24.563,19.085
19.056,-11.806,27.846,9.218,25.312,5.948,25.892,20.215
22.552,-8.636,25.856,8.663,23.67,6.94,22.485,19.03
26.183,-6.587,22.778,6.401,20.868,5.924,16.068,15.313
27.196,-6.067,20.206,3.542,19.202,4.342,11.763,11.677
24.894,-5.982,18.56,1.008,18.66,2.723,10.81,9.014
22.448,-6.401,17.257,-1.396,17.712,0.762,9.788,6.563
23.408,-7.068,16.453,-2.744,15.981,-0.782,6.833,4.509
27.15,-6.189,16.83,-1.608,14.708,-1.17,4.108,3.124
30.809,-2.752,18.428,1.437,15,-0.58,3.28,2.205
32.863,1.573,19.975,4.506,15.829,0.709,2.148,1.662
33.355,4.588,20.741,6.886,15.968,2.665,-0.712,1.221
33.321,6.109,22.265,9.004,16.838,4.992,-2.084,0.896
34.057,6.795,25.23,10.751,19.564,6.931,-0.145,1.321
35.396,6.585,27.027,11.353,21.786,7.555,1.287,2.142
35.952,5.675,25.725,10.403,21.146,6.428,-0.75,1.89
35.202,4.847,22.976,8.187,18.573,4.234,-4.158,0.189
33.128,4.206,20.824,5.888,16.054,2.483,-6.515,-1.647
30.2,3.617,19.793,5.277,14.865,2.138,-7.365,-2.172
29.095,3.611,20.611,6.839,16.059,3.024,-5.35,-0.88
31.416,3.958,23.047,8.781,19.061,4.656,0.183,1.765
34.136,2.976,24.26,9.049,20.834,5.953,4.228,3.89
34.538,0.395,23.073,8.302,19.888,5.711,1.463,3.588
34.507,-1.27,22.918,8.955,19.361,4.995,-3.44,2.286
36.735,-0.387,26.374,10.906,22.375,5.671,-2.489,3.051
40.764,1.843,30.746,11.722,27.025,7.132,2.727,5.851
43.268,3.775,31.806,10.582,29.097,7.438,5.853,8.139
41.263,4.304,28.885,8.313,27.213,6.096,5.719,8.397
35.856,2.655,24.81,5.555,23.587,4.427,4.8,7.318
31.458,-0.052,22.526,3.731,21.363,4.01,4.733,6.776
31.315,-0.848,23.304,5.083,22.313,5.543,6.335,8.147
34.444,0.865,26.228,8.799,25.32,8.176,9.164,10.793
36.442,1.583,28.017,10.221,26.684,9.158,10.454,12.35
34.627,-0.736,26.351,7.376,24.529,6.681,8.789,11.552
31.143,-3.368,23.037,3.797,21.227,2.715,6.645,9.516
28.894,-3.962,21.317,2.407,19.77,0.342,6.571,7.822
28.239,-3.732,22.397,2.685,21.183,0.521,9.236,7.926
28.733,-4.089,25.145,3.637,24.6,2.214,13.88,10.555
29.943,-4.894,27.166,4.679,27.371,3.636,17.155,13.404
31.382,-5.182,27.533,5.45,27.893,4.17,16.558,13.699
32.986,-3.696,27.859,6.052,27.837,4.724,15.161,13.068
34.306,-0.741,29.32,6.736,29.193,5.77,17.178,14.632
34.422,1.198,30.391,7.352,30.801,6.414,20.765,17.09
33.345,0.716,28.599,6.75,29.547,5.677,20.328,16.969
32.429,0.184,24.586,4.68,25.378,4.34,15.073,14.508
32.725,2.066,22.161,3.559,22.4,4.14,10.411,12.842
34.09,5.258,23.261,5.551,23.547,5.607,10.793,13.867
36.3,8.478,26.023,9.458,27.249,7.958,15.398,17.277
38.36,11.224,27.785,12.145,29.85,9.592,20.421,20.903
38.484,11.421,27.908,12.287,29.874,9.124,23.047,22.222
37.161,8.795,27.82,11.061,29.336,6.915,23.378,21.361
37.12,7.197,29.444,10.141,30.995,5.048,23.533,20.737
40.158,9.701,33.701,10.923,35.563,5.512,25.555,21.806
45.059,14.325,38.715,13.196,40.719,7.664,29.097,23.816
48.277,17.267,40.59,14.496,42.548,8.678,30.873,24.972
48.489,19.002,38.686,13.724,40.322,7.638,29.154,24.794
48.543,22.779,37.037,13.1,38.159,6.733,27.179,24.68
50.488,28.199,38.254,14.368,39.276,7.754,28.449,25.412
52.305,31.324,40.326,15.807,41.864,9.438,31.765,26.282
51.385,30.625,40.867,15.34,42.909,9.408,33.786,26.814
48.758,29.485,40.634,14.569,42.716,8.232,34.183,27.499
47.897,31.263,41.284,16.034,43.187,8.598,35.265,28.647
50.032,34.551,42.533,18.631,44.509,10.705,37.603,29.689
52.968,36.505,43.725,19.781,46.282,12.126,39.93,30.41
54.584,37.106,45.755,19.694,49.321,11.962,42.174,31.521
54.905,37.39,48.733,19.973,53.507,11.926,44.553,33.173
53.99,37.493,49.934,19.928,55.814,12.354,45.297,33.888
51.459,37.712,47.978,18.314,54.279,11.305,43.676,32.491
49.203,39.075,46.815,17.272,52.52,9.477,43.4,31.277
50.059,42.168,50.162,19.692,54.845,10.271,47.21,33.456
53.653,46.213,55.361,24.167,59.452,13.559,51.683,37.649
57.819,50.789,58.648,27.492,62.703,16.009,53.737,40.688
62.29,56.657,61.146,29.708,65.233,17.465,55.227,42.994
66.458,61.981,64.058,31.521,68,19.449,57.065,45.696
67.32,62.8,65.126,31.324,68.942,20.004,57.741,47.309
64.483,60.239,64.044,29.354,67.722,17.617,57.547,46.666
62.013,59.551,63.386,28.343,66.775,14.977,57.543,44.786
62.739,62.28,63.68,28.695,67.085,14.238,57.946,43.106
66.67,67.314,64.944,29.71,69.139,15.033,60.327,42.908
73.256,74.564,68.828,32.531,73.928,17.485,65.82,45.341
79.408,81.092,73.48,35.9,78.47,20.345,70.751,49.212
80.806,81.808,74.154,35.524,78.159,19.927,70.604,51.271
78.843,78.602,72.138,32.728,75.511,17.206,67.451,51.359
79.162,79.107,73.347,33.973,76.947,17.813,67.084,52.631
84.279,85.637,78.96,40.031,82.908,22.457,71.189,56.073
92.469,93.795,85.677,46.061,89.321,27.156,76.997,59.996
99.264,98.527,90.245,48.958,93.073,29.215,80.988,62.377
100.932,98.735,91.223,48.958,93.425,28.17,82.182,62.106
99.874,98.612,91.072,48.737,93.208,26.655,83.306,61.154
101.006,101.238,92.808,50.249,95.008,27.696,85.192,62.166
104.176,103.882,94.752,51.896,96.504,29.766,84.431,63.945
106.32,104.524,94.709,52.082,95.585,30.145,81.256,64.384
106.827,105.38,94.502,51.73,94.737,29.369,80.812,64.43
106.84,107.388,95.742,51.69,96.032,28.926,84.126,65.602
106.81,108.967,96.788,52.031,97.611,29.073,86.954,67.173
106.816,109.799,96.151,52.532,97.307,29.242,87.662,67.734
108.13,111.34,95.528,52.592,96.627,29.029,89.158,67.794
111.624,114.637,97.288,52.463,98.454,28.986,92.811,68.868
114.997,118.757,99.951,52.455,101.246,29.122,95.186,70.335
115.403,121.3,99.671,51.025,100.54,27.728,92.958,69.732
113.768,121.341,96.424,47.547,96.774,24.414,88.584,66.771
113.663,121.301,94.885,45.351,95.513,22.318,87.589,64.898
116.404,123.449,97.807,47.244,98.918,23.658,90.997,66.93
119.013,126.037,101.635,50.467,102.47,25.65,94.144,70.393
118.789,126.684,101.881,51.208,102.258,25.102,93.802,71.043
117.538,126.703,100.339,50.837,101.058,23.896,93.184,69.992
117.769,127.85,101.702,52.351,103.033,25.039,96.413,71.21
118.752,128.78,105.876,54.852,106.942,27.309,101.52,74.222
120.171,128.942,110.209,57.064,110.513,29.129,105.318,77.037
122.947,130.314,113.368,59.37,113.824,30.824,107.78,79.702
123.735,132,111.647,58.259,113.282,29.426,105.532,78.708
118.253,130.352,102.471,49.885,105.131,21.818,95.727,70.457
110.247,125.577,92.451,39.16,95.394,12.676,86.224,61.167
107.302,122.298,89.906,34.4,92.676,9.343,85.2,59.469
110.503,123.962,93.998,36.899,96.265,12.402,89.545,64.106
115.793,129.526,99.169,41.843,100.607,16.924,93.676,68.342
120.389,135.085,102.532,44.601,103.241,18.937,96.537,69.437
121.934,136.916,102.39,43.176,103.061,17.298,96.947,68.336
118.485,134.235,97.89,38.503,99.527,12.991,94.091,66.046
113.617,130.857,93.219,34.957,96.38,9.996,91.765,64.318
113.63,131.057,94.35,36.676,98.48,12.471,93.96,65.633
118.376,134.006,100.207,41.863,104.511,18.642,98.978,69.784
121.678,136.046,103.142,44.243,107.714,21.977,101.161,72.554
119.965,135.547,98.564,39.837,103.707,18.618,96.758,69.641
115.415,132.911,90.133,30.748,95.578,11.023,89.074,62.413
111.418,129.421,84.483,23.377,90.063,5.269,85.559,57.326
109.097,126.813,83.512,21.995,89.744,4.706,87.909,57.553
108.721,126.082,84.336,24.315,91.765,6.826,91.048,59.381
110.426,127.24,84.767,25.91,93.224,8.266,92.389,59.169
112.545,129.043,85.46,25.96,94.506,9.138,94.31,58.189
113.046,128.99,86.915,25.216,96.634,9.922,96.782,58.307
112.104,126.413,87.25,23.05,97.962,9.393,95.794,58.384
110.674,123.644,85.022,19.678,96.471,7.63,91.19,57.378
108.63,121.931,82.206,17.016,93.541,6.576,88.175,56.62
106.071,120.3,81.767,16.323,92.359,6.898,89.625,57.227
104.471,119.149,83.592,16.956,93.746,7.469,93.19,58.477
104.805,119.27,84.764,16.991,95.485,7.479,95.348,59.011
105.899,118.651,83.753,15.579,95.567,7.007,94.889,58.056
106.913,116.197,82.929,14.359,95.109,6.801,93.999,56.661
108.707,114.721,84.927,14.756,96.5,7.866,95.599,56.894
110.074,115.235,87.305,15.046,98.337,9.268,97.863,57.929
108.84,114.949,86.067,13.167,97.097,9.084,96.505,56.794
107.15,113.637,83.04,10.78,94.061,8.271,92.645,53.75
107.461,113.669,81.837,10.217,92.787,8.661,89.903,51.494
107.931,114.479,81.525,10.663,92.807,9.938,88.298,51.033
107.657,113.973,80.805,10.786,92.418,11.877,87.577,51.791
108.309,112.702,80.578,11.104,91.775,14.773,88.069,52.473
108.306,111.891,79.89,11.475,90.324,17.207,86.772,51.295
104.483,110.699,76.541,9.378,86.585,16.956,80.902,47.367
99.944,109.483,71.993,4.507,81.715,14.928,74.174,42.421
100.123,110.423,69.833,1.195,78.744,14.74,71.74,39.488
103.067,112.463,69.978,1.625,77.771,17.095,71.266,38.851
103.882,112.88,70.04,2.847,77.108,19.844,69.063,38.861
103.494,112.55,69.946,2.51,77.134,22.364,68.118,39.208
105.613,113.932,70.574,1.367,78.263,24.733,69.712,39.087
110.176,116.993,71.599,0.46,79.293,26.147,69.781,36.867
113.824,119.749,72.644,-0.252,79.681,26.785,68.406,33.692
115.164,121.122,73.665,-0.934,79.896,28.068,68.992,32.116
116.226,122.018,74.349,-1.549,80.008,30.517,69.811,32
117.8,123.146,74.435,-2.034,79.659,33.28,67.392,31.789
117.979,123.623,74.373,-2.276,79.055,35.582,64.195,31.471
116.945,123.128,75.357,-2.238,79.448,37.93,65.033,31.894
117.294,122.65,77.38,-2.646,80.875,40.764,68.296,32.328
118.927,122.83,77.883,-5.015,80.545,42.616,67.538,30.364
119.231,123.72,75.198,-9.116,76.995,42.805,62.078,25.883
117.066,124.427,71.336,-12.998,72.999,43.073,58.158,22.373
114.381,124.213,69.405,-16.07,71.696,44.519,58.869,22.105
115.066,125.184,70.707,-17.947,73.403,47.277,61.15,23.746
119.693,128.58,73.685,-17.758,76.289,51.209,61.873,24.838
123.499,131.037,74.847,-17.343,77.895,54.518,61.03,24.149
123.526,130.532,72.721,-19.393,77.134,56.016,59.94,22.801
121.724,129.453,69.322,-22.528,74.79,57.467,58.508,22.448
119.21,128.612,66.36,-23.885,71.647,59.826,55.719,22.189
114.577,125.314,63.011,-24.4,67.459,60.847,52.36,20.213
107.508,118.119,57.694,-26.904,61.557,58.842,49.265,16.75
100.117,109.841,50.721,-31.237,54.545,55.723,45.371,13.098
96.022,105.617,45.523,-33.985,49.806,55.39,41.793,10.649
97.305,107.223,45.025,-32.882,50.063,59.39,41.858,11.02
101.014,110.097,46.819,-30.027,52.559,64.725,44.842,14.024
101.369,108.821,46.191,-29.054,52.319,67.611,46.492,16.543
96.698,104.254,43.451,-29.69,49.652,68.694,46.752,17.444
92.632,102.377,44.15,-26.812,50.23,72.828,51.32,21.544
94.414,105.978,50.527,-17.824,56.363,82.135,61.775,31.311
97.968,110.601,56.991,-8.385,62.508,91.804,70.561,40.073
96.987,111.168,58.488,-4.201,63.819,97.255,72.488,42.488
92.313,107.384,55.756,-4.498,61.17,99.078,69.695,40.654
85.574,99.566,48.621,-8.782,53.982,97.372,61.686,35.227
75.073,87.309,36.226,-17.769,40.966,91.447,47.3,25.161
61.711,73.531,23.131,-28.022,26.914,84.35,32.741,14.065
49.183,62.491,14.633,-35.168,17.331,79.947,23.894,6.262
40.51,55.645,10.902,-37.661,12.226,79.447,19.49,2.283
36.727,52.258,9.539,-36.288,9.456,81.739,16.641,0.686
34.87,50.266,8.613,-34.441,7.749,84.052,14.891,-0.545
30.291,46.449,6.569,-35.629,5.904,84.343,13.497,-3.068
22.597,39.08,2.404,-39.605,2.663,83.2,9.972,-6.593
15.01,30.372,-3.151,-43.567,-1.884,82.016,3.951,-9.68
8.574,23.423,-8.83,-46.255,-7.138,80.704,-2.307,-12.757
1.989,17.992,-14.479,-48.729,-13.13,78.867,-7.869,-17.145
-3.506,12.908,-19.258,-51.466,-18.419,77.887,-12.24,-20.866
-5.981,8.893,-22.205,-53.545,-21.568,78.715,-14.546,-21.609
-8.638,5.701,-25.464,-54.999,-25.048,79.351,-16.623,-22.164
-15.65,1.312,-31.618,-56.774,-31.6,78.094,-21.31,-26.032
-25.316,-5.264,-39.771,-59.163,-39.883,75.977,-28.794,-32.073
-33.59,-13.138,-47.444,-62.076,-47.213,74.088,-36.694,-37.317
-39.616,-20.4,-52.894,-64.954,-52.104,72.578,-41.486,-40.131
-44.566,-26.237,-55.702,-67.209,-54.413,71.817,-42.338,-40.749
-48.051,-31.047,-56.772,-69.091,-55.103,72.013,-41.931,-40.72
-48.559,-33.792,-57.262,-70.413,-55.133,72.883,-41.254,-40.868
-48.16,-34.373,-58.582,-70.877,-55.954,73.826,-39.839,-41.249
-51.161,-36.109,-61.852,-71.43,-59.384,74.797,-40.274,-42.386
-56.879,-40.355,-66.085,-72.529,-64.814,76.772,-45.314,-44.336
-61.472,-44.627,-69.374,-73.396,-69.444,79.342,-51.918,-46.108
-64.535,-47.52,-71.051,-73.554,-71.649,80.896,-54.222,-46.588
-66.592,-48.805,-71.324,-72.696,-71.932,82.57,-51.853,-45.279
-65.938,-47.688,-70.897,-70.893,-71.76,86.064,-49.744,-43.328
-63.44,-45.699,-71.207,-70.138,-72.519,88.901,-50.488,-42.947
-63.421,-45.867,-72.643,-71.753,-74.151,89.1,-51.581,-43.548
-66.228,-47.624,-72.855,-72.212,-74.567,90.826,-49.538,-41.161
-67.41,-48.776,-70.205,-67.509,-72.637,97.707,-45.169,-35.118
-65.44,-50.097,-67.921,-60.77,-71.115,104.886,-43.431,-30.983
-63.393,-51.858,-69.68,-58.274,-72.718,106.07,-45.89,-32.17
-64.299,-52.13,-73.67,-59.945,-75.745,103.584,-48.768,-34.531
-68.831,-52.266,-77.183,-61.107,-78.586,102.738,-51.619,-34.382
-75.533,-55.428,-81.619,-60.108,-83.227,103.097,-57.812,-34.125
-82.176,-59.843,-87.047,-57.354,-89.249,103.28,-64.739,-35.006
-86.898,-61.808,-89.72,-51.93,-92.293,105.278,-65.837,-33.85
-88.961,-62.56,-89.398,-44.851,-92.011,108.374,-61.916,-30.529
-89.592,-65.249,-90.525,-39.436,-92.824,108.899,-59.619,-28.76
-90.268,-68.535,-94.482,-35.757,-96.168,107.662,-61.384,-29.128
-91.895,-70.103,-98.679,-31.584,-99.856,108.123,-65.011,-29.546
-96.438,-72.353,-101.974,-27.36,-102.889,109.72,-68.386,-29.693
-104.473,-78.051,-105.399,-24.426,-106.071,109.751,-70.43,-30.163
-112.863,-85.529,-109.749,-21.997,-110.287,108.054,-71.77,-31.049
-118.936,-91.636,-113.866,-18.407,-114.707,106.948,-73.786,-32.332
-123.429,-95.393,-115.646,-13.45,-117.206,107.412,-76.127,-33.623
-128.059,-98.569,-116.266,-9.586,-118.584,106.97,-78.941,-35.138
-134.311,-104.03,-120.082,-9.289,-122.951,103.5,-84.585,-38.551
-143.406,-112.587,-127.861,-11.212,-131.024,98.558,-92.839,-44.132
-153.308,-121.541,-134.369,-11.653,-137.479,95.014,-99.008,-48.813
-159.268,-127.636,-135.763,-9.039,-138.648,93.929,-100.412,-49.818
-160.899,-131.172,-135.093,-5.293,-137.811,94.033,-100.486,-48.779
-163.127,-134.902,-136.245,-2.642,-138.732,93.743,-103.134,-49.549
-168.321,-139.637,-137.589,-0.774,-140.18,93.141,-106.692,-52.432
-174.782,-144.257,-137.474,0.775,-141.234,91.676,-108.162,-55.007
-181.77,-148.813,-139.116,1.084,-144.45,87.418,-109.119,-57.117
-189.467,-154.662,-144.452,0.598,-150.442,81.601,-112.393,-59.951
-197.439,-162.365,-151.362,0.035,-157.03,77.235,-118.314,-63.855
-205.149,-170.241,-157.908,-1.728,-163.031,74.017,-124.971,-68.353
-211.552,-175.525,-162.742,-4.236,-167.574,70.969,-128.858,-71.333
-216.535,-178.472,-165.033,-4.796,-169.979,68.99,-129.163,-71.6
-222.123,-183.004,-166.706,-3.557,-172.051,67.648,-130.013,-71.89
-229.712,-191.168,-170.905,-3.989,-176.602,64.65,-134.656,-75.112
-238.012,-200.348,-177.888,-7.121,-183.596,59.412,-140.959,-80.024
-244.492,-207.504,-184.726,-10.331,-190.106,53.961,-145.81,-83.916
-248.305,-212.718,-189.287,-12.069,-194.211,50.017,-150.234,-86.749
-250.997,-217.094,-191.771,-12.598,-196.204,47.85,-155.009,-89.213
-254.308,-220.501,-193.006,-11.7,-197.096,47.268,-157.364,-90.308
-259.231,-223.437,-194.818,-10.191,-199.016,46.905,-157.309,-90.106
-266.02,-227.691,-199.242,-10.24,-203.717,44.715,-158.557,-90.737
-273.519,-234.13,-205.251,-12.234,-209.442,40.624,-161.847,-93.269
-279.875,-241.926,-209.854,-15.006,-213.234,35.851,-164.884,-96.829
-283.327,-248.45,-211.631,-17.33,-214.541,31.294,-166.807,-99.889
-283.002,-251.208,-210.958,-17.388,-214.109,28.717,-168.293,-101.046
-280.699,-251.6,-209.047,-14.679,-212.518,29.065,-169.067,-100.338
-279.272,-252.003,-207.118,-11.345,-210.467,30.074,-168.37,-99.463
-279.414,-251.508,-205.899,-9.276,-209.155,29.693,-167.873,-99.882
-280.702,-250.143,-206.053,-8.567,-209.756,28.666,-169.862,-101.347
