EEG 1,EEG 2,EEG 3,EEG 4,EEG 5,EEG 6,EEG 7,EEG 8
16.606,-31.603,14.829,26.171,-41.278,-15.46,-15.081,-55.491
12.851,-33.053,11.476,29.399,-50.001,-11.082,-10.194,-52.36
8.937,-25.678,9.919,30.47,-54.489,-10.35,-5.115,-46.676
6.152,-17.237,12.452,28.545,-48.476,-13.092,-3.598,-42.978
4.448,-20.03,14.2,25.829,-43.299,-15.817,-2.89,-41.587
4.983,-29.231,13.316,24.948,-45.162,-16.718,-0.223,-38.938
8.532,-30.788,13.266,26.807,-47.16,-14.752,1.576,-35.479
13.186,-24.525,15.038,30.076,-45.107,-9.546,0.648,-34.33
15.113,-22.04,14.88,30.762,-43.817,-5.938,-0.784,-35.79
13.058,-25.786,11.518,27.164,-46.245,-7.798,-1.439,-37.927
11.126,-25.871,10.219,24.441,-46.735,-10.53,-0.775,-37.686
13.317,-17.37,15.03,27.896,-40.33,-9.026,2.792,-32.907
17.31,-8.941,20.6,33.761,-33.465,-5.868,7.773,-27.405
19.371,-9.789,20.455,34.338,-34.545,-6.203,10.575,-26.417
22.148,-14.612,19.103,30.744,-37.929,-9.486,11.545,-27.267
29.565,-12.121,24,30.754,-32.095,-9.84,12.675,-24.966
39.149,-2.601,33.069,36.426,-18.036,-3.615,13.93,-20.688
46.089,6.403,40.121,43.577,-7.026,6.369,16.988,-17.128
47.839,11.108,42.119,48.154,-7.249,12.818,23.481,-14.605
43.449,9.185,38.461,47.666,-16.518,10.201,28.11,-13.875
35.809,0.282,32.317,42.922,-24.089,2.061,25.288,-15.029
31.497,-8.766,28.817,39.112,-23.607,-1.947,19.726,-15.325
33.759,-10.044,29.296,40.618,-19.699,2.255,19.747,-12.324
39.017,-3.807,32.22,45.528,-16.93,9.158,25.831,-6.927
42.079,4.918,36.439,49.056,-13.655,12.162,32.733,-1.817
42.177,12.575,41.196,51.294,-8.06,12.774,38.073,2.694
40.56,13.709,44.817,53.865,-1.971,14.676,42.264,7.063
36.237,4.251,44.59,53.308,0.383,13.9,43.394,7.445
30.639,-6.444,42.154,49.396,-1.024,8.55,41.228,2.281
28.96,-5.875,44.213,49.558,0.676,7.145,41.229,-0.55
30.654,1.437,51.297,55.818,7.684,13.984,46.334,5.118
30.141,4.126,56.35,61.72,13.237,21.634,52.455,14.232
28.912,3.341,57.508,64.934,14.55,25.231,56.265,20.577
32.405,5.374,58.741,68.694,15.648,28.402,58.512,24.994
38.179,8.669,59.567,72.589,16.514,32.41,59.326,28.767
39.975,8.783,56.024,71.887,12.954,31.98,57.366,28.648
37.228,6.16,48.733,64.788,5.242,24.396,53.031,22.989
34.153,4.66,43.399,57.155,-0.913,16.448,50.023,18.601
33.565,5.573,44.158,56.428,-0.208,16.518,51.547,23.856
34.445,6.001,48.573,61.27,6.494,22.597,54.724,34.996
34.483,3.97,50.468,63.632,12.088,25.654,53.52,38.528
31.056,0.096,46.688,59.343,10.866,21.533,47.467,28.972
24.444,-3.205,41.157,53.842,5.678,15.929,43.669,18.335
21.582,-1.865,40.661,56.129,3.953,18.034,47.231,20.837
26.275,3.383,44.679,65.32,6.728,27.989,52.861,31.562
31.391,5.237,45.916,69.921,8.224,34.841,52.943,34.698
30.99,0.495,41.752,63.412,5.633,30.262,48.668,28.337
29.21,-6.045,36.979,52.767,2.334,19.513,45.556,23.739
29.819,-11.069,35.118,46.374,2.209,12.19,43.957,24.007
29.862,-14.705,34.458,43.089,4.423,9.004,41.769,21.379
28.756,-12.647,34.592,41.808,6.402,8.466,41.594,15.767
30.449,-1.618,38.67,47.026,9.322,13.9,45.81,16.513
34.064,8.792,45.212,56.063,13.706,22.921,49.099,23.318
34.146,7.407,47.499,58.5,15.534,25.797,45.759,25.609
30.477,-0.371,44.705,54.015,14.026,22.146,40.084,21.993
28.981,-1.826,43.422,53.062,14.07,22.266,40.198,21.445
32.966,5.336,46.155,58.45,16.662,28.398,45.871,26.531
38.641,14.383,47.941,62.573,17.08,32.788,50.3,31.134
41.285,19.138,46.136,61.6,14.671,32.886,50.531,32.32
41.324,17.881,44.277,59.308,14.15,32.667,50.27,33.861
39.59,11.756,43.778,57.618,15.825,32.639,52.035,38.665
33.906,2.944,41.43,53.944,14.979,29.778,51.717,42.806
25.251,-4.597,36.776,48.326,11.052,24.362,45.552,39.007
19.448,-5.991,33.601,44.688,8.405,20.21,38.067,27.439
20.557,-1.045,34.068,44.986,8.973,19.878,36.945,19.384
26.8,3.838,36.201,46.996,10.085,21.708,41.929,22.191
33.661,5.07,37.583,48.405,9.67,22.639,45.852,28.793
37.975,6.138,38.214,49.367,9.061,22.887,45.003,31.169
37.495,8.69,38.043,48.862,9.039,22.729,40.737,29.802
32.383,10.397,36.335,44.952,8.454,19.814,34.947,25.75
27.225,9.005,34.011,39.738,6.932,14.926,29.602,18.695
25.339,3.11,32.042,36.322,4.561,11.474,26.191,11.645
24.659,-2.862,30.233,34.857,1.661,10.451,24.933,8.52
22.372,-0.926,29.552,35.539,0.579,12.289,26.519,10.8
19.063,6.306,31.318,38.031,3.992,16.058,30.448,17.182
16.974,8.382,34.674,40.194,10.708,18.316,33.388,23.21
16.278,5.083,36.724,41.235,14.349,18.675,33.587,23.942
15.05,3.766,35.091,41.18,10.542,19.142,32.287,18.796
13.158,3.156,31.675,39.487,5.345,18.622,30.382,13.158
12.659,-0.377,30.026,36.693,5.769,15.607,27.883,12.501
13.157,-1.857,28.895,33.654,7.029,11.969,24.98,14.98
12.66,0.732,25.891,30.499,3.756,9.541,22.823,16.05
13.4,2.801,24.306,29.198,2.192,8.921,23.225,17.3
16.877,3.351,26.529,31.618,6.291,10.966,25.409,20.244
16.233,1.209,26.041,32.942,6.169,12.305,24.75,18.259
7.375,-5.294,18.12,27.48,-3.906,7.853,18.67,8.324
-0.354,-9.509,11.044,20.809,-11.586,2.696,11.839,0.392
1.809,-5.318,13.26,21.686,-6.181,5.16,10.549,2.892
9.095,2.345,19.063,26.267,3.407,9.823,13.835,11.37
13.609,6.565,18.531,25.402,3.312,6.955,15.111,16.566
14.345,5.971,12.003,19.535,-5.243,-0.721,10.808,13.147
12.421,0.844,6.259,14.318,-10.58,-6.212,3.742,2.699
8.997,-6.754,3.619,10.096,-9.215,-10.356,-1.311,-7.359
7.316,-11.249,1.616,5.113,-9.095,-15.757,-2.872,-11.747
8.878,-9.36,-0.048,2.432,-13.787,-19.005,-1.762,-11.125
11.356,-3.989,1.734,5.828,-15.736,-15.939,2.486,-6.208
11.293,-1.251,7.089,12.409,-9.885,-9.309,8.981,2.383
6.491,-4.898,10.273,14.41,-3.08,-6.968,12.455,7.932
-1.339,-11.645,7.269,9.265,-3.596,-11.591,9.733,4.133
-7.074,-14.072,2.169,4.067,-9.284,-15.943,4.91,-3.36
-7.21,-8.361,0.861,5.162,-12.649,-13.908,2.744,-5.507
-3.481,0.968,2.654,8.927,-12.133,-9.387,2.315,-4.355
-2.797,2.187,1.783,7.993,-13.108,-9.209,-0.054,-6.186
-10.931,-11.281,-4.794,0.854,-19.466,-14.961,-5.867,-10.369
-23.686,-29.612,-13.229,-8.404,-27.607,-23.918,-13.789,-15.305
-30.643,-37.595,-17.83,-15.431,-31.502,-31.922,-21.033,-22.303
-28.51,-33.096,-18.16,-17.833,-31.374,-35.021,-24.27,-27.93
-23.494,-25.852,-18.489,-16.336,-32.412,-33.109,-23.181,-27.593
-21.207,-23.347,-21.092,-14.133,-35.92,-30.121,-22.096,-25.02
-21.519,-24.064,-23.268,-12.244,-37.531,-27.795,-23.509,-24.997
-22.793,-23.142,-23.226,-9.676,-35.869,-24.909,-24.912,-25.161
-25.803,-22.747,-25.151,-10.125,-36.78,-25.237,-26.104,-24.503
-32.113,-29.25,-33.15,-19.159,-44.454,-35.084,-31.704,-28.855
-39.772,-39.979,-43.491,-32.489,-54.344,-49.159,-41.658,-39.83
-43.735,-45.709,-48.832,-38.886,-59.672,-54.108,-47.935,-48.381
-41.967,-44.01,-47.077,-35.813,-58.924,-48.194,-45.822,-47.208
-38.363,-40.699,-42.722,-31.916,-55.521,-43.236,-40.807,-41.95
-37.392,-40.014,-41.284,-33.554,-54.27,-46.489,-39.922,-41.923
-38.647,-40.111,-43.434,-37.78,-56.431,-52.534,-43.035,-46.922
-40.444,-40.983,-46.469,-41.026,-59.158,-55.553,-46.644,-51.508
-43.954,-47.717,-49.652,-45.108,-60.72,-58.052,-50.26,-54.288
-48.762,-58.943,-52.606,-49.579,-60.893,-61.413,-54.146,-55.668
-51.117,-64.582,-52.975,-48.995,-59.678,-60.229,-55.028,-53.773
-50.783,-63.107,-51.427,-44.36,-59.933,-54.612,-51.035,-48.969
-51.938,-63.966,-52.09,-43.316,-63.954,-52.741,-47.189,-46.066
-55.219,-68.524,-55.332,-45.57,-68.402,-55.132,-47.803,-46.986
-56.746,-68.72,-57.846,-45.353,-69.875,-55.288,-50.239,-48.724
-55.286,-63.145,-58.822,-44.087,-69.896,-53.892,-52.037,-50.385
-52.817,-56.811,-58.163,-44.643,-68.217,-54.017,-53.554,-52.86
-50.215,-51.539,-54.051,-44.179,-61.418,-53.194,-53.178,-53.545
-49.329,-49.393,-49.45,-43.018,-54.431,-52.222,-50.343,-50.424
-53.734,-55.354,-51.225,-46.415,-57.687,-55.826,-49.414,-48.232
-60.919,-65.628,-57.736,-52.346,-67.787,-60.32,-53.377,-53.16
-62.314,-67.049,-59.954,-52.513,-70.927,-57.742,-58.231,-62.551
-57.904,-59.12,-58.014,-48.855,-67.599,-52.886,-59.391,-68.206
-58.082,-57.934,-61.488,-52.581,-70.816,-58.009,-59.919,-70.005
-64.704,-68.756,-70.758,-64.399,-80.338,-71.442,-64.64,-73.71
-67.567,-77.015,-75.195,-72.263,-83.406,-79.582,-69.88,-77.372
-63.112,-73.51,-71.644,-70.19,-78.419,-77.552,-69.324,-75.539
-58.273,-66.427,-67.99,-65.727,-74.851,-73.241,-65.423,-71.478
-56.14,-63.074,-68.168,-65.777,-75.331,-72.455,-64.81,-71.55
-54.186,-60.76,-68.739,-67.58,-76.086,-72.939,-68.091,-75.368
-53.052,-57.937,-68.216,-67.277,-76.69,-72.527,-71.061,-78.505
-54.503,-57.237,-68.518,-65.58,-78.577,-71.47,-71.653,-78.485
-56.64,-58.623,-70.555,-64.63,-81.264,-70.186,-72.429,-77.582
-56.838,-58.663,-72.235,-64.684,-82.235,-69.279,-74.751,-78.75
-55.023,-56.403,-70.476,-63.658,-79.308,-67.922,-74.711,-79.228
-54.577,-55.981,-67.112,-61.945,-75.631,-66.382,-71.774,-76.534
-58.511,-59.555,-66.643,-62.375,-75.519,-67.086,-71.332,-74.307
-63.622,-62.806,-67.157,-63.484,-75.393,-68.326,-73.549,-74.461
-64.68,-62.648,-64.618,-62.749,-71.132,-66.937,-73.828,-75.266
-62.364,-60.834,-62.028,-61.928,-67.874,-64.835,-72.592,-77.078
-60.928,-58.971,-63.401,-62.462,-69.916,-64.351,-72.929,-79.299
-61.616,-58.332,-66.011,-63.405,-72.071,-64.662,-74.301,-79.369
-62.182,-59.727,-66.356,-63.821,-71.255,-64.404,-74.956,-79.044
-61.27,-60.534,-66.028,-63.415,-72.487,-63.328,-75.355,-81.434
-60.048,-57.562,-66.333,-62.639,-75.977,-62.532,-75.621,-83.472
-59.242,-53.039,-65.878,-62.398,-75.837,-62.9,-74.287,-81.133
-58.228,-52.8,-65.807,-63.192,-73.739,-63.549,-71.916,-77.331
-56.107,-55.424,-67.554,-63.371,-74.973,-62.139,-70.786,-75.891
-53.032,-53.962,-69.519,-62.38,-77.998,-59.558,-71.793,-75.779
-52.288,-50.211,-72.314,-65.348,-81.2,-62.287,-75.515,-77.416
-55.654,-49.919,-76.609,-73.571,-85.1,-70.966,-81.329,-83.035
-57.818,-51.04,-77.995,-78.66,-86.118,-76.373,-84.828,-88.887
-53.849,-50.672,-74.735,-76.749,-82.3,-75.044,-82.951,-89.267
-46.516,-49.647,-70.926,-72.409,-77.652,-71.311,-78.482,-85.36
-39.889,-45.748,-67.594,-66.196,-74.463,-64.605,-74.368,-80.443
-34.913,-37.996,-62.628,-57.088,-70.471,-54.139,-71.067,-74.478
-33.631,-35.376,-58.543,-52.104,-65.439,-47.969,-71.315,-70.189
-38.166,-44.256,-60.413,-57.133,-64.908,-51.653,-76.912,-72.576
-45.86,-54.502,-67.353,-65.672,-72.338,-58.09,-82.232,-78.787
-51.16,-55.26,-72.545,-67.878,-80.825,-58.579,-81.272,-80.755
-51.808,-51.232,-72.57,-64.1,-82.215,-55.033,-76.616,-77.001
-50.492,-49.942,-70.998,-62.337,-78.809,-55.404,-74.148,-72.445
-50.179,-49.632,-70.507,-65.412,-75.8,-61.204,-74.369,-70.517
-51.351,-48.165,-68.982,-67.603,-72.064,-65.436,-73.764,-70.779
-53.493,-48.805,-65.853,-65.634,-66.907,-64.27,-71.509,-71.605
-55.418,-52.243,-64.069,-63.557,-64.712,-61.81,-69.934,-71.773
-55.555,-53.893,-63.975,-63.559,-66.417,-60.669,-69.256,-69.621
-54.144,-52.203,-62.65,-63.356,-66.66,-59.156,-67.971,-65.333
-53.308,-50.978,-60.071,-63.209,-63.43,-57.832,-67.376,-63.291
-53.46,-50.643,-58.787,-64.386,-60.493,-58.105,-68.772,-65.088
-52.473,-48.087,-58.512,-64.739,-59.782,-58.271,-69.684,-65.596
-50.105,-46.631,-58.098,-63.76,-60.712,-58.503,-68.9,-63.423
-49.983,-51.979,-59.869,-64.925,-64.05,-62.66,-69.73,-64.564
-55.434,-61.087,-65.99,-69.252,-69.775,-70.66,-74.492,-70.622
-63.958,-66.369,-73.429,-73.235,-74.833,-76.706,-80.086,-75.39
-68.231,-65.068,-77.154,-74.712,-76.621,-77.987,-81.578,-75.526
-66.295,-62.044,-77.297,-75.959,-76.805,-78.194,-79.221,-74.252
-65.368,-64.999,-78.257,-79.394,-78.498,-80.365,-78.117,-73.28
-67.901,-71.202,-79.239,-82.203,-78.982,-81.285,-78.965,-69.375
-66.335,-69.82,-75.764,-80.082,-73.848,-77.004,-77.294,-62.067
-60.299,-61.633,-71.984,-76.123,-68.863,-71.129,-74.444,-59.096
-57.86,-54.594,-73.694,-75.004,-70.736,-68.24,-75.131,-64.939
-57.692,-48.367,-74.805,-73.216,-72.273,-65.38,-75.69,-70.094
-53.992,-44.034,-69.652,-68.397,-65.912,-61.42,-70.914,-65.992
-51.567,-49.575,-64.772,-66.212,-58.532,-61.507,-65.139,-59.543
-57.423,-63.973,-66.984,-70.134,-59.564,-66.603,-64.83,-59.922
-67.103,-73.368,-72.904,-76.085,-66.581,-71.551,-68.341,-64.096
-70.948,-68.711,-74.651,-78.364,-70.003,-72.158,-70.003,-64.512
-67.787,-57.949,-70.209,-76.21,-66.506,-68.903,-69.513,-61.178
-63.817,-53.902,-64.243,-73.826,-60.253,-65.751,-70.448,-58.642
-62.011,-56.858,-60.841,-74.457,-54.952,-65.917,-72.468,-58.386
-60.342,-58.739,-61.092,-77.118,-53.515,-68.987,-72.348,-60.279
-58.3,-57.207,-64.627,-79.675,-57.757,-72.342,-71.251,-64.755
-59.345,-56.681,-70.417,-83.284,-65.281,-75.697,-74.189,-71.358
-63.97,-58.276,-76.828,-88.871,-72.565,-80.012,-80.18,-77.4
-66.058,-57.634,-79.901,-91.214,-75.417,-81.523,-81.728,-77.942
-63.24,-54.662,-77.319,-86.945,-70.437,-76.96,-77.812,-71.782
-61.914,-54.923,-75.19,-83.399,-64.013,-72.361,-76.151,-66.079
-66.597,-60.715,-81.097,-88.145,-67.5,-75.039,-80.737,-67.643
-74.03,-68.813,-91.499,-96.678,-79.372,-81.485,-86.654,-73.248
-79.215,-74.823,-96.347,-100.2,-86.852,-83.736,-88.054,-75.023
-80.945,-77.685,-93.543,-98.422,-85.008,-81.519,-85.235,-71.013
-81.15,-79.263,-89.085,-96.029,-80.268,-78.998,-82.001,-65.797
-80.639,-78.744,-86.418,-93.991,-77.163,-76.846,-79.895,-63.99
-78.329,-74.923,-84.303,-92.097,-73.751,-75.006,-77.997,-65.639
-77.231,-72.829,-83.069,-92.876,-69.962,-75.816,-76.547,-67.023
-82.297,-76.752,-85.055,-96.372,-69.695,-78.333,-77.071,-64.99
-89.013,-81.494,-89.198,-98.484,-73.085,-78.333,-78.883,-60.9
-88.903,-79.794,-91.868,-97.94,-75.709,-76.174,-79.354,-59.316
-84.266,-73.07,-92.383,-97.43,-75.532,-75.269,-78.162,-61.59
-83.665,-70.543,-93.845,-99.296,-75.793,-76.603,-78.208,-65.118
-88.81,-77.368,-98.281,-103.806,-79.905,-79.581,-81.155,-68.282
-92.937,-85.63,-101.895,-107.583,-83.901,-82.261,-83.83,-69.826
-90.159,-86.132,-100.197,-107.002,-81.694,-82.907,-82.395,-67.82
-84.044,-83.537,-97.298,-105.176,-77.723,-83.841,-79.435,-64.447
-80.944,-84.283,-98.789,-105.715,-79.107,-85.989,-79.334,-63.986
-78.631,-82.13,-99.405,-103.42,-80.346,-83.178,-78.189,-63.028
-73.665,-72.761,-93.38,-95.131,-74.343,-73.261,-71.234,-55.328
-70.777,-64.208,-86.623,-88.74,-66.442,-65.373,-64.383,-46.223
-72.694,-61.977,-84.88,-88.999,-62.991,-65.032,-63.778,-45.425
-74.63,-63.385,-85.826,-91.28,-63.064,-67.231,-65.921,-51.03
-75.19,-66.548,-88.16,-93.829,-65.963,-69.376,-67.288,-55.614
-78.545,-71.295,-92.009,-97.5,-70.585,-72.353,-68.489,-57.45
-84.131,-76.705,-93.159,-97.984,-71.441,-72.06,-67.76,-56.799
-85.639,-81.215,-88.89,-93.409,-66.114,-66.664,-63.555,-52.822
-81.396,-81.64,-83.427,-89.369,-59.536,-62.492,-59.439,-47.711
-76.372,-75.654,-80.868,-88.402,-55.736,-62.699,-57.97,-45.423
-73.566,-66.467,-79.487,-86.688,-52.931,-62.21,-56.217,-45.733
-71.002,-60.213,-75.879,-81.988,-48.463,-56.557,-50.971,-43.558
-67.275,-58.569,-69.878,-75.626,-42.613,-47.055,-43.152,-35.266
-64.142,-58.29,-64.729,-70.376,-37.692,-39.387,-36.788,-24.339
-62.516,-56.597,-63.11,-69.176,-35.403,-38.637,-34.868,-17.572
-62.319,-54.992,-65.149,-72.716,-36.327,-43.84,-37.292,-18.604
-66.124,-59.252,-71.549,-80.491,-42.075,-51.761,-43.754,-27.111
-74.536,-71.173,-82.157,-91.791,-52.416,-61.892,-53.521,-38.408
-80.849,-80.416,-90.972,-101.502,-60.463,-70.603,-61.836,-45.377
-80.128,-77.805,-92.392,-103.379,-60.254,-71.493,-63.539,-45.24
-77.603,-71.367,-90.255,-99.497,-56.274,-66.212,-60.266,-41.428
-77.909,-71.135,-90.194,-96.244,-54.541,-61.811,-57.468,-38.043
-77.015,-73.115,-90.57,-95.049,-53.337,-59.92,-56.094,-35.963
-71.61,-70.884,-89.078,-93.946,-51.029,-57.664,-53.797,-34.232
-64.952,-65.531,-87.788,-92.513,-50.021,-54.127,-50.784,-32.469
-62.082,-62.187,-88.752,-93.025,-51.137,-52.656,-49.333,-31.497
-63.612,-64.991,-91.411,-96.662,-53.102,-55.745,-50.219,-32.085
-65.602,-72.094,-92.898,-99.458,-53.44,-58.827,-51.083,-32.448
-66.857,-76.863,-90.629,-97.84,-49.49,-56.978,-48.86,-29.963
-69.836,-77.958,-87.546,-96.091,-44.852,-54.993,-45.719,-27.865
-73.709,-80.706,-89.085,-100.129,-46.426,-59.874,-47.175,-31.671
-75.263,-84.83,-92.996,-106.424,-50.818,-67.17,-51.519,-36.838
-75.348,-85.127,-93.291,-106.891,-50.206,-67.261,-51.721,-34.755
-76.122,-83.639,-91.153,-101.827,-47.267,-60.893,-47.834,-28.282
-75.324,-84.375,-89.979,-98.483,-46.541,-56.778,-45.201,-25.721
-70.96,-83.495,-88.093,-99.031,-44.846,-57.353,-43.616,-26.554
-64.796,-76.168,-82.823,-97.406,-39.386,-55.742,-38.432,-23.705
-58.982,-66.037,-75.672,-90.516,-33.01,-48.587,-30.635,-15.582
-56.066,-61.699,-70.539,-83.648,-29.284,-41.61,-26.888,-8.552
-57.106,-65.052,-67.984,-79.954,-27.066,-37.753,-28.406,-6.843
-58.773,-69.876,-66.723,-77.997,-24.296,-35.294,-30.314,-8.219
-58.931,-72.395,-68.541,-78.982,-24.238,-35.928,-31.533,-9.718
-60.812,-74.684,-74.189,-83.751,-29.597,-40.546,-34.054,-10.139
-66.698,-77.979,-79.519,-88.36,-35.529,-44.789,-36.107,-9.352
-71.89,-79.762,-80.109,-88.162,-36.056,-44.062,-34.242,-7.94
-70.806,-78.414,-77.025,-84.405,-32.872,-39.816,-29.803,-6.479
-65.916,-74.544,-76.282,-83.99,-32.503,-38.951,-28.467,-6.387
-63.429,-68.724,-80.719,-88.962,-36.508,-43.357,-32.09,-9.26
-64.303,-64.795,-86.5,-94.153,-40.623,-47.864,-36.586,-14.207
-65.708,-67.078,-89.92,-97.387,-42.492,-50.507,-39.325,-18.595
-66.334,-71.278,-91.057,-100.767,-43.058,-53.412,-41.259,-21.093
-66.127,-70.372,-90.393,-103.426,-42.316,-55.714,-41.742,-21.603
-65.79,-67.389,-88.269,-103.14,-39.819,-55.375,-39.149,-20.207
-68.984,-72.045,-87.922,-103.088,-38.096,-55.387,-36.816,-19.236
-77.872,-84.853,-92.03,-106.601,-40.125,-58.555,-39.082,-20.745
-86.903,-94.654,-96.686,-109.008,-44.058,-60.27,-42.749,-21.052
-90.267,-95.231,-96.726,-105.46,-45.851,-56.207,-42.383,-16.266
-89.694,-91.069,-93.194,-99.213,-45.117,-49.971,-38.702,-9.149
-88.226,-86.516,-89.959,-96.271,-44.23,-47.874,-35.605,-5.198
-86.181,-83.356,-88.899,-99.274,-44.315,-52.324,-35.095,-7.702
-84.788,-83.908,-89.563,-105.221,-44.168,-58.994,-36.579,-14.555
-85.905,-87.952,-90.205,-108.139,-42.534,-61.061,-38.573,-18.934
-88.192,-91.089,-90.097,-106.426,-41.046,-58.034,-39.678,-17.471
-86.442,-88.217,-89.089,-101.775,-41.461,-53.114,-37.599,-11.569
-78.302,-80.297,-85.915,-94.297,-41.164,-46.439,-31.923,-1.521
-70.661,-75.794,-81.719,-86.427,-38.359,-39.421,-27.249,8.832
-70.859,-78.469,-80.293,-83.955,-36.349,-37.068,-27.209,9.442
-74.683,-81.05,-81.61,-88.053,-36.366,-40.882,-28.957,-0.592
-75.014,-79.912,-82.606,-93.747,-35.494,-46.526,-29.27,-9.101
-74.834,-81.308,-83.461,-97.542,-33.75,-50.355,-29.813,-10.898
-77.895,-85.856,-85.725,-99.582,-34.142,-52.315,-31.725,-11.696
-78.453,-85.764,-87.191,-98.992,-35.782,-51.65,-31.664,-11.402
-72.321,-79.046,-85.023,-94.614,-34.493,-46.907,-27.694,-5.477
-64.995,-71.119,-81.127,-89.356,-30.246,-40.625,-23.684,1.775
-62.345,-66.136,-78.898,-87.038,-26.764,-37.144,-22.754,3.475
-63.442,-64.809,-77.674,-86.446,-24.832,-36.228,-21.652,2.874
-63.989,-65.169,-74.594,-83.429,-22.034,-33.955,-17.12,6.517
-62.108,-63.565,-70.405,-78.303,-18.546,-29.872,-12.756,11.366
-61.452,-60.76,-70.749,-78.002,-19.413,-29.775,-14.773,9.092
-66.243,-62.726,-77.944,-86.67,-26.42,-37.599,-22.658,-0.1
-72.808,-70.055,-84.777,-96.582,-32.137,-46.851,-28.403,-6.311
-74.328,-76.097,-84.43,-97.927,-30.749,-48.458,-27.294,-3.524
-72.02,-77.254,-79.807,-92.556,-26.118,-43.569,-23.243,3.472
-71.273,-75.461,-75.992,-87.805,-22.461,-39.118,-20.811,7.69
-71.35,-72.014,-72.463,-84.601,-18.206,-36.132,-19.358,8.787
-68.599,-66.176,-67.485,-79.719,-12.553,-30.862,-16.35,11.557
-64.974,-59.79,-63.352,-74.395,-9.113,-24.605,-12.355,17.242
-64.561,-56.558,-62.789,-73.486,-9.538,-23.521,-10.814,20.199
-65.509,-55.617,-63.706,-76.073,-9.608,-27.095,-12.295,17.25
-63.202,-53.208,-61.949,-75.039,-5.628,-27.025,-12.692,14.09
-58.615,-49.691,-57.757,-68.854,-0.348,-20.95,-9.898,16.338
-56.53,-48.052,-55.203,-64.191,1.606,-15.97,-7.02,21.076
-57.414,-48.982,-55.748,-64.713,0.718,-16.339,-6.716,22.99
-57.976,-51.542,-57.594,-67.671,-0.642,-19.213,-8.356,21.768
-57.068,-53.535,-59.381,-70.481,-2.867,-21.694,-10.557,19.958
-56.216,-51.997,-60.583,-72.719,-5.719,-23.345,-12.051,19.205
-57.057,-47.99,-61.63,-74.151,-7.498,-24.077,-11.91,19.762
-58.606,-46.18,-62.826,-74.242,-6.918,-23.392,-10.643,21.28
-58.126,-48.442,-62.991,-73.685,-3.669,-22.173,-9.87,22.743
-56.463,-52.211,-62.608,-74.275,-0.952,-22.609,-9.95,23.192
-56.396,-53.807,-63.364,-75.362,-1.431,-23.65,-9.946,23.064
-56.201,-52.422,-64.034,-74.926,-1.828,-22.308,-10.438,21.952
-53.372,-50.412,-62.823,-73.841,0.123,-20.229,-11.369,19.165
-49.94,-48.227,-59.696,-71.823,2.694,-18.973,-9.01,19.092
-47.817,-44.965,-54.94,-65.37,6.338,-14.493,-2.126,25.827
-46.215,-43.544,-50.714,-57.331,11.472,-7.834,3.096,32.291
-44.804,-45.634,-49.568,-55.545,15.275,-6.906,2.039,29.637
-43.963,-46.78,-49.873,-58.45,16.562,-10.701,-0.825,23.161
-43.983,-44.612,-49.05,-58.709,16.963,-11.432,-0.882,22.338
-45.239,-43.31,-48.211,-57.409,17.264,-10.276,-0.862,24.597
-47.492,-44.74,-49.078,-58.873,16.909,-12.372,-3.541,23.575
-50.625,-45.529,-50.998,-61.422,15.515,-16.239,-6.612,20.838
-55.588,-46.307,-53.363,-63.472,12.908,-19.725,-8.066,19.544
-60.804,-49.963,-56.41,-65.834,9.356,-22.775,-8.802,18.638
-59.909,-49.762,-57.885,-65.573,7.71,-22.135,-8.411,17.775
-50.279,-37.955,-54.848,-60,11.076,-15.878,-4.956,18.557
-40.388,-24.602,-50.606,-54.594,15.128,-10.162,-0.248,20.652
-39.256,-25.076,-50.617,-55.163,13.106,-10.513,1.697,22.686
-44.062,-33.814,-52.59,-56.785,8.362,-11.514,1.612,24.655
-47.328,-35.716,-52.234,-54.321,7.1,-8.295,2.433,26.208
-48.276,-32.236,-52.083,-53.799,6.961,-7.952,2.708,25.79
-48.878,-32.322,-54.636,-58.674,5.147,-14.271,0.414,23.503
-48.107,-34.142,-56.982,-61.848,4.495,-18.952,-2.481,21.202
-46.341,-33.274,-57.501,-60.537,5.396,-18.32,-4.454,19.165
-46.596,-33.281,-58.078,-59.49,4.117,-17.476,-5.849,17.562
-49.153,-36.754,-58.468,-58.881,1.194,-16.974,-5.504,18.862
-51.493,-38.892,-56.263,-55.105,1.403,-13.163,-2.904,23.286
-51.236,-35.93,-50.944,-48.389,6.114,-6.346,0.471,27.586
-46.337,-28.871,-43.107,-40.968,13.496,0.92,5.039,31.333
-38.268,-21.316,-34.549,-35.502,21.376,5.708,11.264,36.421
-32.574,-17.451,-29.36,-34.475,26.289,5.542,15.786,41.486
-30.634,-16.542,-29.052,-35.621,26.352,3.03,15.797,43.285
-29.529,-17.187,-31.284,-36.253,23.175,1.526,12.486,40.613
-30.106,-21.737,-34.435,-38.382,18.954,-0.367,8.655,35.841
-33.847,-26.688,-37.297,-41.267,15.662,-2.23,6.187,32.382
-37.999,-26.404,-38.574,-41.274,13.979,-1.902,4.302,29.543
-40.446,-24.284,-38.771,-40.152,12.645,-2.062,2.16,25.784
-41.28,-23.443,-38.066,-40.52,11.907,-4.079,1.738,24.199
-39.382,-19.286,-35.326,-39.509,13.684,-3.244,3.815,27.165
-34.819,-11.146,-31.851,-36.161,17.14,1.032,5.743,30.304
-31.615,-6.476,-31.037,-34.895,18.815,2.521,5.029,27.647
-32.104,-8.074,-32.572,-36.634,18.172,-0.218,2.346,21.327
-32.979,-9.305,-32.431,-37.248,18.321,-2.351,1.038,18.943
-30.427,-4.23,-29.028,-34.512,20.52,-1.208,3.293,22.03
-25.147,3.89,-24.7,-30.14,22.688,2.02,7.119,26.023
-20.727,6.949,-21.717,-27.51,23.567,4.742,8.804,27.928
-18.765,3.535,-19.493,-27.63,24.785,5.659,8.266,28.027
-17.318,0.451,-16.519,-27.492,27.316,6.314,9.069,27.836
-13.821,3.822,-12.568,-24.137,29.979,9.01,12.807,28.887
-8.041,12.998,-7.584,-18.496,33.616,13.941,17.086,32.065
-2.037,21.9,-2.582,-14.075,39.352,18.807,19.442,36.502
1.994,25.761,-0.603,-12.367,43.142,21.595,20.129,39.676
2.642,24.99,-2.972,-12.8,40.795,21.43,19.775,39.214
0.181,22.163,-7.213,-15.855,34.925,17.364,17.701,34.92
-2.142,19.279,-9.531,-20.09,31.331,11.703,15.134,30.521
-1.425,18.335,-8.149,-20.546,32.059,10.233,15.528,31.016
1.78,21.267,-4.543,-15.14,34.971,14.94,19.147,36.477
5.737,27.14,-2.004,-8.645,37.242,20.999,21.679,41.112
8.124,30.725,-3.341,-8.298,36.605,21.511,19.763,39.479
7.423,28.69,-7.064,-13.907,33.545,16.25,15.982,34.046
7.01,26.45,-7.43,-16.325,32.688,13.656,15.503,32.63
10.28,30.682,-3.066,-12.063,36.344,17.663,17.62,35.402
14.336,37.491,1.002,-8.424,41.024,21.754,17.715,35.316
15.514,39.261,2.396,-8.662,43.496,22.145,16.463,32.376
14.428,37.441,2.876,-8.055,43.01,22.443,17.549,32.267
13.604,37.421,3.162,-5.156,39.685,24.05,20.615,34.943
14.939,39.522,4.069,-2.833,36.911,24.923,23.227,37.061
17.438,41.899,6.714,-1.721,38.539,25.179,23.881,38.209
18.038,44.144,8.752,-0.816,41.317,25.89,22.104,39.304
16.583,45.665,7.921,-0.051,39.96,26.039,20.419,41.194
16.171,45.53,7.867,1.116,37.949,25.29,23.036,44.07
18.064,44.663,12.606,3.392,41.326,25.423,29.428,45.797
20.086,45.031,18.678,5.706,46.765,26.855,33.984,45.046
20.929,46.702,20.448,7.22,48.076,28.243,34.263,44.317
22.181,47.717,18.453,8.387,46.388,28.691,33.081,44.376
24.444,46.626,16.458,8.787,45.084,28.067,31.689,41.953
26.183,45.366,16.371,8.784,44.876,27.78,29.862,38.336
26.71,47.119,18.801,10.779,46.686,29.944,30.468,39.965
26.26,51.106,22.953,15.254,50.596,34.167,34.624,46.801
25.281,53.981,26.055,19.178,53.677,37.606,37.529,51.273
24.491,54.023,25.499,18.979,53.098,37.592,35.29,49.052
23.815,52.306,21.715,14.749,49.486,34.29,30.399,43.093
23.358,51.27,18.722,10.927,46.668,30.833,27.798,38.527
23.616,51.306,19.3,10.16,47.132,29.078,28.456,36.836
23.108,51.531,21.145,10.573,48.495,28.307,29.121,36.295
20.58,52.377,21.362,10.908,47.732,28.432,28.285,37.035
17.859,52.222,20.262,11.616,45.184,29.44,28.082,39.798
16.512,47.144,18.498,11.112,42.011,28.765,28.597,40.345
15.978,38.35,16.677,8.004,39.63,24.735,26.944,34.417
16.183,32.718,17.063,5.807,40.059,21.413,24.233,27.361
17.907,34.474,20.055,8.634,42.297,23.519,24.902,27.6
21.211,41.616,23.279,14.827,44.04,29.177,28.878,33.966
25.663,48.953,26.423,20.456,46.232,33.993,32.777,39.61
29.255,51.635,29.802,23.77,48.877,36.408,34.892,41.505
27.682,48.628,30.174,23.595,48.14,35.736,33.735,40.381
20.94,44.177,25.676,19.539,43.255,31.84,27.937,37.351
15.634,42.763,19.805,13.723,38.034,26.738,19.548,32.52
15.018,43.287,16.024,9.4,33.91,22.813,13.573,26.649
15.962,42.275,15.101,8.955,30.89,21.445,13.037,22.911
16.957,40.866,17.465,12.825,31.556,23.456,16.123,23.517
19.057,41.809,21.758,18.623,35.726,27.605,19.658,27.237
20.926,42.093,23.541,21.589,37.648,29.646,21.624,30.395
21.572,39.626,20.441,19.367,34.046,27.094,20.194,28.843
23.598,39.862,16.246,16.121,29.252,23.635,16.095,23.832
27.847,44.502,15.466,16.591,28.117,23.51,13.445,21.365
31.167,47.314,17.151,18.882,29.333,24.751,14.464,22.07
31.258,45.745,18.431,19.086,30.365,23.914,16.887,22.262
29.381,43.42,19.542,18.04,32.525,22.498,17.653,22.659
27.812,42.876,21.343,18.512,36.075,23.557,16.743,24.932
26.605,43.725,22.564,20.534,37.022,26.684,17.051,26.568
25.794,45.525,22.959,22.698,34.345,29.417,20.087,26.026
27.297,48.787,24.533,24.825,32.854,30.73,23.486,25.82
30.571,53.157,26.949,26.978,34.073,31.348,25.081,27.694
31.352,55.424,26.907,27.674,33.849,31.41,24.561,29.233
27.937,51.958,23.989,25.625,31.347,29.63,21.079,27.023
24.343,44.848,21.888,22.403,30.215,25.986,15.625,21.563
24.708,41.177,22.515,20.807,30.709,23.077,12.337,17.184
28.182,43.51,24.076,21.21,30.164,22.523,13.536,17.113
31.635,47.95,26.223,22.901,30.479,23.873,17.386,20.415
34.3,51.987,30.484,26.146,34.778,26.979,20.88,23.757
36.118,55.331,34.421,29.048,38.454,29.943,22.458,24.442
35.07,56.396,34.632,29.186,36.629,29.996,22.811,23.143
32.572,55.28,34.568,29.865,34.961,29.938,24.464,23.843
34.236,54.468,37.947,34.226,38.162,33.066,27.82,27.377
39.282,54.11,40.218,36.831,39.909,34.415,28.686,28.543
41.826,53.677,38.15,34.141,36.792,30.812,25.469,25.631
42.092,55.552,36.913,32.904,34.971,29.403,23.506,24.647
43.421,60.838,39.235,36.664,36.842,33.899,25.616,27.602
44.972,65.666,40.838,39.117,38.027,37.153,27.385,28.752
44.684,65.362,40.167,37.309,37.713,35.105,26.333,26.66
42.942,60.423,40.649,36.196,39.257,32.879,25.194,25.544
40.636,54.508,42.673,37.984,42.173,33.643,24.713,25.318
38.417,48.965,42.859,39.295,42.424,34.502,23.125,23.573
38.735,46.066,41.957,39.342,40.725,34.444,22.08,22.79
43.117,50.421,44.8,41.568,42.734,36.747,24.871,26.346
47.344,58.902,49.989,45.479,47.987,41.297,29.367,31.314
45.872,61.192,49.77,44.854,48.362,41.397,30.081,31.476
41.046,56.786,43.895,38.945,42.315,34.824,27.372,27.075
40.486,55.624,41.082,35.839,38.481,29.743,26.523,24.531
45.84,59.907,44.723,38.912,41.723,31.296,28.81,25.992
52.042,62.786,50.128,42.695,47.845,34.804,31.199,28.131
55.341,62.349,53.76,44.382,51.71,36.578,31.687,29.109
55.036,61.541,54.679,45.691,51.151,37.389,30.024,28.777
51.427,60.124,52.396,45.751,46.655,36.313,27.187,26.893
46.936,58.161,49.042,43.548,41.861,32.531,25.489,24.967
44.81,59.309,47.608,42.559,39.824,29.77,25.806,25.032
45.483,63.612,48.694,46.079,40.599,32.23,26.75,26.956
47.222,66.27,52.359,52.032,44.811,38.51,27.655,28.973
48.172,64.741,56.857,55.338,50.879,42.804,28.244,29.357
47.093,60.256,57.101,54.285,51.004,42.479,28.055,28.3
43.318,54.016,51.395,50.381,41.72,39.008,27.341,26.411
36.616,46.551,44.357,43.89,30.801,32.417,24.919,21.795
29.779,41.72,40.848,37.859,25.832,25.436,20.393,14.875
26.955,42.927,41.338,36.984,25.834,23.6,17.19,11.156
27.861,45.82,42.871,38.219,26.955,24.768,17.124,12.473
29.823,46.063,43.812,37.072,28.659,23.848,17.53,13.276
31.167,45.8,44.742,36.095,30.89,22.353,15.546,9.552
30.397,46.278,44.494,37.284,30.287,22.816,11.277,4.284
27.121,44.973,40.954,37.27,24.664,23.175,6.288,0.715
22.95,40.889,35.856,34.203,18.154,21.278,1.615,-1.901
21.541,38.288,34.494,32.439,17.649,19.934,-0.526,-2.49
25.911,42.394,38.732,35.828,23.807,22.393,1.841,1.217
32.443,49.938,43.569,41.328,29.18,26.561,6.267,6.533
34.116,51.018,44.335,44.241,28.507,28.713,8.572,9.52
31.306,43.692,42.467,43.814,24.792,27.92,8.127,9.508
30.378,37.045,40.951,41.69,22.355,25.32,7.092,6.804
33.077,37.462,40.283,39.825,21.833,22.842,6.578,3.1
35.84,42.393,40.226,39.76,22.061,22.004,6.331,1.771
36.839,46.615,40.823,41.131,21.728,22.288,6.71,2.976
36.527,46.599,41.91,41.913,20.989,21.817,8.047,3.447
35.073,43.202,44.117,42.984,22.048,21.899,10.114,3.239
34.585,42.06,48.84,48.192,26.373,26.761,13.881,6.88
37.422,45.356,54.46,55.426,31.334,34.334,19.268,14.628
41.529,48.689,56.516,57.359,32.405,36.949,22.702,19.816
44.456,50.726,55.093,54.235,30.243,34.359,22.635,19.282
47.07,53.585,55.003,53.172,30.005,33.53,22.36,17.784
50.18,54.824,57.794,56.561,33.109,37.162,24.841,20.411
54.159,53.286,61.76,61.38,37.346,42.337,30.258,26.957
59.698,54.373,66.477,64.963,42.203,45.804,36.272,32.103
64.947,60.26,70.958,66.057,46.792,45.881,38.736,30.485
66.79,65.235,72.308,64.045,47.835,42.768,35.72,23.079
65.78,64.769,70.502,60.683,45.184,39.388,30.845,16.509
65.476,62.102,69.826,60.358,43.336,39.803,30.37,16.068
67.417,62.758,72.373,64.786,44.287,44.35,35.198,20.419
69.438,66.579,75.139,70.1,45.71,48.778,39.021,24.038
68.913,68.984,75.222,71.5,46.091,49.295,37.595,23.815
66.365,68.033,73.357,68.552,45.429,46.245,34.738,21.277
64.738,66.447,72.692,66.198,44.462,44.285,35.793,20.16
65.656,67.016,75.142,69.279,45.055,48.006,40.033,22.499
67.673,68.829,78.07,74.958,46.691,54.643,42.851,26.331
68.401,69.284,77.567,76.059,46.345,56.459,42.145,28.018
67,67.972,74.367,71.977,43.773,52.143,40.169,26.412
63.769,65.879,71.948,68.513,41.579,47.934,39.551,23.62
60.412,64.14,71.453,68.763,41.324,47.941,39.686,22.392
60.608,65.035,71.953,71.295,42.097,50.996,39.636,24.107
65.377,68.807,72.46,73.745,41.661,54.318,40.27,27.869
69.739,71.393,72.5,73.923,39.935,55.245,40.999,30.238
69.227,69.825,72.709,71.454,40.173,53.406,40.788,28.973
66.281,67.036,74.106,69.554,44.146,52.446,41.91,27.33
64.854,66.919,76.128,71.107,48.613,55.111,45.752,29.257
64.321,66.751,77.159,73.875,49.739,58.561,48.451,32.694
64.238,63.09,77.618,74.389,48.985,59.193,47.538,34.534
66.977,60.401,79.356,73.123,50.034,57.643,46.621,35.799
71.64,62.511,81.973,71.921,52.729,55.777,48.486,37.508
74.148,65.825,84.147,72.385,55.192,55.489,51.735,39.454
73.475,67.198,85.614,75.712,56.627,58.576,54.4,41.315
70.984,66.48,84.698,78.705,55.163,61.878,54.316,41.169
67.506,64.204,80.201,77.015,50.087,60.375,49.994,37.732
64.624,62.85,75.896,72.907,46.099,55.73,44.146,32.173
63.438,63.535,75.103,70.777,46.234,52.42,41.717,26.802
63.134,64.621,75.423,70.877,46.187,51.749,44.128,25.115
64.231,66.436,75.559,72.712,44.731,54.116,48.271,28.091
67.247,69.576,76.849,74.746,46.036,56.994,49.555,30.257
68.666,71.141,76.663,72.963,47.964,54.737,46.052,27.12
65.954,68.446,72.65,68.22,45.098,48.785,41.595,22.826
63.545,64.7,69.298,66.782,40.529,47.162,41.657,23.863
66.124,65.973,70.688,70.08,40.648,51.113,45.191,29.204
70.095,70.418,73.243,73.391,43.71,54.604,45.579,31.398
69.396,69.155,72.253,73.147,43.775,53.983,40.863,27.471
64.737,61.119,69.221,69.806,40.453,50.272,36.562,23.766
61.159,55.986,67.91,67.133,37.416,47.242,36.386,26.3
61.178,59.039,68.41,68.358,35.873,47.794,37.921,32.195
62.967,63.494,68.209,71.099,34.073,49.743,38.033,33.722
63.18,62.145,66.225,70.834,31.253,49.473,35.944,27.822
61.913,58.692,65.241,69.282,30.661,48.843,33.593,20.941
62.415,60.201,68.4,71.08,35.105,50.903,34.359,20.438
64.934,64.55,73.388,74.622,40.585,52.947,37.959,24.144
67.852,66.881,76.653,76.975,42.489,53.609,41.814,27.87
72.335,69.96,79.251,80.433,43.059,56.645,46.361,32.711
78.555,75.652,82.754,85.942,46.239,61.987,51.846,37.646
83.916,78.626,86.283,90.058,52.153,65.595,56.213,39.72
88.057,78.146,89.239,91.485,58.263,66.833,59.509,41.951
91.54,80.335,91.482,92.555,61.707,67.905,62.935,48.235
91.587,83.69,91.355,93.005,60.984,68.427,64.216,53.413
87.511,82.004,88.126,90.243,57.451,66.147,60.883,49.802
84.874,79.501,85.923,87.288,55.628,63.619,56.355,41.116
87.102,82.608,89.35,90.115,59.285,66.112,56.053,38.03
90.561,87.104,95.774,96.804,65.609,71.866,59.558,42.991
92.822,88.276,99.113,100.674,68.384,74.971,62.572,50.216
96.159,89.478,98.915,101.68,67.069,75.884,63.955,55.444
100.765,94.162,98.912,104.149,66.214,78.491,65.836,57.751
104.436,100.675,101.083,108.02,68.763,81.78,69.264,57.451
107.211,105.638,105.396,110.872,74.274,83.359,73.365,56.955
110.229,108.06,111.3,113.412,80.796,85.051,77.605,59.824
113.693,109.865,117.363,115.883,87.014,87.109,81.383,65.748
117.281,112.284,122.14,116.072,93.727,86.268,82.725,69.837
119.776,113.506,124.92,115.466,100.261,84.561,82.012,69.66
119.581,111.882,124.017,117.403,100.519,86.305,83.292,68.37
117.517,110.005,120.218,120.661,93.733,89.465,88.145,69.924
115.93,110.391,118.957,122.953,90.222,91.368,93.539,74.764
114.968,109.599,121.685,124.711,93.614,93.37,97.43,79.795
114.213,104.949,124.106,126.408,96.506,96.018,100.924,82.269
114.925,101.954,125.065,127.676,97.531,98.273,104.168,83.063
117.619,106.736,126.944,129.506,101.297,100.806,105.505,84.696
121.071,115.98,129.198,133.407,105.549,105.023,105.12,87.549
123.004,120.763,128.346,137.639,103.683,109.451,104.303,89.077
121.261,117.528,123.413,137.878,96.077,109.906,102.453,86.976
117.515,111.146,119.111,134.132,91.534,105.746,100.017,83.555
116.451,108.516,121.165,132.391,96.767,102.576,100.058,83.956
119.424,111.841,128.549,137.067,107.14,105.522,103.51,89.217
122.845,117.31,134.93,146.088,113.031,113.555,108.164,94.957
122.972,119.249,136.865,152.975,112.554,120.352,111.995,97.404
120.753,116.786,136.012,153.341,110.996,120.614,113.886,97.31
119.598,115.004,134.68,149.977,111.008,116.786,113.497,97.034
119.06,115.94,132.665,147.103,109.533,113.934,111.61,96.731
116.336,113.263,128.885,142.872,104.061,110.175,108.556,94.59
112.74,104.893,124.787,135.731,97.849,102.869,104.318,90.072
112.064,100.344,123.176,131.017,95.323,97.696,100.638,85.971
114.815,104.228,124.228,132.766,96.19,100.028,99.65,85.276
119.261,108.955,126.603,137.13,98.91,105.561,101.758,87.699
123.905,110.276,129.034,138.413,102.618,107.193,105.171,90.901
126.076,111.637,128.686,135.879,103.573,104.679,106.115,92.387
123.314,111.898,124.382,132.339,99.452,102.003,103.061,90.986
118.845,107.359,120.72,129.916,94.943,100.57,100.315,88.439
120.98,104.738,123.731,131.221,95.919,101.799,102.963,88.08
131.968,113.26,133.996,139.081,102.051,108.865,110.465,92.25
143.322,127.271,144.35,148.648,106.341,117.73,117.931,99.898
147.94,134.448,145.942,149.684,102.104,118.195,120.898,105.374
148.679,135.356,140.703,143.54,94.074,111.484,119.262,104.131
150.909,137.211,139.488,142.026,93.611,109.705,117.958,99.666
155.773,139.91,146.266,148.28,102.576,116.218,121.613,99.766
162.908,143.577,156.504,157.363,114.58,125.889,129.956,107.002
171.135,150.637,165.765,167.59,124.737,137.42,138.918,116.328
176.651,156.584,171.523,176.924,131.405,149.576,144.141,122.164
176.187,156.611,171.704,178.478,133.421,153.156,144.046,123.863
170.186,153.101,165.13,169.541,128.168,142.002,139.702,122.053
162.274,149.696,155.183,158.265,117.463,126.935,132.847,115.841
156.433,146.299,149.11,152.991,109.617,121.027,126.529,107.403
154.442,141.832,149.549,153.29,108.222,122.234,125.398,103.467
155.955,138.783,151.976,155.734,108.585,123.798,129.823,107.519
158.407,139.73,152.222,158.676,107.979,125.618,133.159,114.457
158.024,142.059,151.053,160.881,108.928,129.046,131.023,117.151
153.726,141.651,150.515,160.831,112.357,131.533,126.593,115.313
149.184,139.603,150.652,159.627,114.931,131.849,124.555,114.728
149.332,140.746,150.589,160.793,113.452,133.196,126.475,118.757
153.671,145.029,149.622,163.323,109.283,135.748,130.107,123.271
157.119,147.755,148.018,162.931,107.108,136.255,131.26,122.78
158.224,148.07,148.124,160.467,110.195,134.746,129.19,119.665
157.388,146.509,150.348,158.213,115.975,131.051,127.235,120.115
149.982,138.733,149.096,153.975,115.985,123.708,126.55,122.863
133.68,123.407,140.37,147.481,106.052,116.439,124.904,121.81
116.832,108.092,129.11,142.394,93.305,112.807,121.568,116.952
109.551,99.422,121.884,139.712,86.013,110.383,117.485,113.241
110.622,95.993,117.617,137.113,82.803,107.977,111.488,110.191
109.264,91.495,110.399,131.272,77.099,105.617,101.246,100.926
98.529,81.052,98.527,119.761,67.163,97.963,88.025,83.531
81.288,67.237,86.733,105.711,57.726,82.49,76.079,65.956
64.099,56.078,79.587,95.695,53.24,67.682,67.479,55.988
50.32,46.784,74.801,89.728,50.231,59.907,61.23,51.899
39.495,35.3,66.086,81.099,40.89,52.698,55.103,45.933
32.363,26.693,53.941,68.874,27.397,41.153,47.463,34.882
31.299,28.085,46.121,61.589,20.223,33.683,40.452,24.978
33.337,30.313,45.265,62.585,21.448,35.752,37.317,22.311
30.762,18.741,44.858,61.55,23.521,36.009,34.465,20.531
20.645,-1.867,37.967,49.133,19.498,23.415,24.609,9.533
7.453,-15.304,25.084,30.54,8.234,4.737,9.482,-6.32
-3.467,-17.341,12.256,16.934,-6.163,-7.622,-0.882,-14.976
-11.002,-16.439,2.229,10.454,-20.325,-13.644,-3.316,-16.91
-17.616,-19.752,-7.574,4.944,-33.774,-20.308,-5.851,-21.72
-25.486,-27.414,-18.064,-3.146,-44.394,-28.155,-15.251,-31.622
-33.748,-37.919,-26.594,-12.16,-49.506,-34.896,-28.693,-41.51
-40.31,-49.761,-32.357,-19.946,-51.494,-42.086,-39.411,-48.169
-45.848,-58.442,-38.578,-26.621,-56.583,-50.891,-45.685,-53.278
-53.94,-62.919,-48.01,-34.758,-66.774,-60.99,-51.916,-61.518
-66.63,-70.446,-58.965,-45.029,-77.319,-71.453,-61.193,-73.926
-80.872,-85.151,-67.95,-53.622,-84.147,-78.95,-70.943,-84.302
-90.853,-100.054,-73.876,-58.969,-88.174,-82.884,-78.15,-88.149
-94.176,-106.964,-77.952,-63.98,-91.77,-87.243,-83.001,-89.616
-94.663,-106.398,-81.455,-68.753,-95.94,-92.434,-86.059,-94.135
-98.119,-104.472,-84.667,-70.352,-99.845,-94.883,-88.223,-100.484
-105.691,-105.602,-87.615,-70.483,-101.731,-95.411,-92.659,-105.366
-113.82,-111.065,-91.452,-75.585,-102.243,-99.924,-101.322,-110.765
-119.923,-119.808,-97.668,-86.629,-105.727,-109.764,-110.929,-119.066
-125.081,-127.793,-105.914,-95.954,-115.44,-117.916,-116.682,-126.795
-131.134,-131.984,-113.317,-99.212,-126.768,-120.254,-119.128,-131.268
-136.716,-135.478,-116.598,-100.62,-131.101,-120.934,-121.683,-134.666
-140.993,-143.519,-117.895,-104.818,-130.516,-124.076,-124.498,-138.868
-147.647,-155.144,-123.689,-113.577,-135.653,-131.689,-127.429,-144.005
-156.229,-164.038,-133.203,-124.931,-145.978,-143.307,-131.962,-148.65
-160.366,-167.711,-139.357,-132.686,-151.817,-152.664,-137.494,-150.821
-160.438,-170.119,-142.092,-135.01,-153.113,-155.728,-142.595,-152.39
-162.74,-175.32,-146.607,-137.36,-156.704,-156.819,-147.438,-157.045
-167.508,-182.578,-153.126,-143.004,-163.039,-160.619,-152.819,-164.766
-170.742,-187.427,-158.789,-149.811,-168.556,-166.64,-159.335,-172.849
-172.454,-187.099,-163.173,-155.078,-172.757,-171.59,-165.522,-178.452
-176.186,-185.78,-167.481,-158.528,-176.649,-174.052,-169.253,-181.001
-183.851,-190.65,-172.693,-162.742,-180.259,-177.381,-172.553,-184.063
-192.469,-201.199,-178.359,-168.532,-183.707,-183.403,-178.152,-189.72
-196.791,-208.799,-181.817,-171.852,-186.228,-187.242,-183.433,-194.161
-196.061,-208.376,-181.906,-171.363,-186.639,-186.663,-185.055,-194.415
-195.056,-206.231,-182.611,-172.399,-187.856,-187.305,-185.64,-193.904
-199.003,-212.188,-188.381,-179.052,-194.052,-193.162,-190.543,-198.143
-208.793,-224.378,-197.944,-189.298,-203.322,-202.115,-199.774,-207.903
-219.238,-232.172,-206.22,-197.986,-210.594,-210.178,-207.517,-217.18
-223.854,-232.702,-209.514,-201.179,-213.563,-213.819,-209.618,-218.893
-221.839,-230.561,-207.824,-199.637,-212.213,-212.689,-207.243,-213.296
-218.082,-228.018,-205.145,-197.646,-209.351,-210.631,-204.113,-208.269
-218.135,-227.31,-206.39,-198.181,-209.943,-210.935,-203.794,-210.544
-223.024,-232.635,-211.203,-201.152,-213.89,-213.344,-207.448,-218.322
-227.399,-240.843,-213.059,-204.053,-213.905,-215.6,-211.895,-223.204
-226.124,-241.75,-208.241,-203.874,-206.599,-215.466,-212.16,-220.507
-221.069,-233.388,-201.632,-199.908,-199.88,-211.915,-206.474,-214.17
-216.887,-224.468,-198.761,-194.588,-200.828,-206.959,-198.118,-208.507
-214.618,-221.003,-199.3,-192.164,-205.45,-205.164,-193.029,-204.18
-213.093,-220.885,-201.397,-194.22,-208.57,-207.768,-194.235,-203.061
-214.276,-222.821,-205.527,-198.329,-212.362,-212.089,-199.998,-207.395
-221.143,-230.209,-212.349,-203.644,-219.238,-217.542,-207.958,-216.563
-228.57,-240.07,-218.875,-210.394,-225.049,-223.624,-215.826,-226.473
-228.664,-243.112,-220.864,-215.083,-225.378,-226.126,-219.971,-230.659
-225.243,-239.989,-219.352,-215.341,-223,-223.863,-219.362,-227.91
-227.328,-240.041,-219.116,-214.948,-223.241,-222.609,-217.736,-225.1
-232.706,-243.139,-220.718,-216.63,-225.13,-225.149,-218.017,-225.931
-232.84,-239.982,-219.866,-216.804,-222.748,-225.783,-218.494,-225.858
-228.712,-231.517,-215.887,-213.431,-216.327,-221.532,-216.662,-222.179
-227.276,-228.773,-212.894,-209.233,-212.72,-216.474,-212.323,-218.553
-226.971,-231.6,-211.087,-204.882,-212.464,-212.161,-206.672,-217.951
-222.829,-230.825,-208.095,-200.482,-210.803,-208.299,-202.309,-219.493
-219.74,-228.652,-206.604,-199.728,-208.824,-207.865,-202.25,-221.468
-223.679,-232.516,-208.82,-203.286,-208.863,-210.8,-205.332,-222.7
-229.108,-238.389,-210.596,-206.109,-208.411,-212.481,-205.678,-222.276
-228.622,-238.641,-208.743,-204.979,-206.445,-211.026,-200.418,-219.422
-223.685,-233.413,-205.29,-201.206,-204.729,-207.68,-193.775,-214.182
-219.272,-227.22,-203.001,-197.672,-203.56,-204.277,-191.042,-209.192
-216.838,-223.871,-202.277,-196.151,-202.257,-202.583,-192.168,-207.47
-215.164,-224.85,-202.286,-196.025,-200.984,-202.371,-193.261,-208.126
-213.608,-228.057,-203.168,-196.866,-200.694,-202.983,-192.873,-208.058
-211.425,-228.324,-204.217,-197.724,-200.786,-203.234,-192.355,-205.167
-207.982,-223.227,-202.969,-195.313,-199.285,-200.127,-191.993,-200.623
-204.705,-216.585,-199.663,-190.315,-196.723,-194.931,-191.37,-198.876
-201.594,-211.558,-196.566,-187.181,-194.561,-192.109,-190.026,-200.029
-196.376,-206.154,-193.328,-185.862,-191.442,-190.825,-187.517,-198.61
-189.801,-199.345,-189.004,-183.796,-186.492,-188.207,-184.791,-193.653
-185.373,-194.731,-185.186,-181.44,-182.239,-185.434,-183.242,-189.66
-184.946,-195.606,-184.305,-180.436,-181.372,-184.603,-183.274,-189.476
-188.175,-200.467,-187.499,-181.453,-184.803,-186.033,-185.07,-193.398
-193.982,-205.436,-194.025,-185.557,-192.023,-190.752,-189.412,-200.686
-201.243,-210.548,-201.524,-193.737,-199.816,-199.767,-196.14,-209.353
-208.691,-218.032,-207.083,-202.522,-203.74,-208.6,-202.097,-216.25
-214.339,-224.043,-209.218,-205.787,-203.413,-211.031,-203.718,-218.476
-215.942,-223.368,-208.932,-203.52,-202.17,-208.566,-201.335,-215.838
-213.239,-219.356,-207.479,-200.326,-201.19,-205.578,-197.877,-210.592
-210.362,-219.126,-205.904,-198.423,-200.559,-202.786,-195.623,-205.622
-212.389,-224.342,-206.106,-199.215,-202.225,-202.542,-195.466,-203.496
-216.837,-229.256,-206.824,-201.929,-204.413,-205.682,-195.922,-203.7
-216.257,-227.079,-204.098,-201.919,-202.052,-206.526,-194.871,-203.442
-210.485,-219.478,-199.41,-199.438,-196.671,-203.983,-193.645,-202.818
-205.432,-212.409,-197.495,-198.79,-194.066,-202.981,-194.002,-202.923
-201.482,-205.057,-196.685,-197.203,-193.168,-201.175,-193.299,-200.966
-195.037,-194.988,-192.411,-189.874,-189.048,-192.994,-189.094,-194.704
-188.073,-187.349,-186.555,-181.587,-183.004,-183.445,-184.64,-188.184
-182.711,-185.245,-182.556,-178.92,-178.507,-180.663,-182.864,-184.894
-172.784,-180.334,-176.985,-177.172,-172.935,-180.129,-179.515,-180.554
-155.781,-166.864,-166.734,-169.067,-163.908,-172.921,-170.896,-172.259
-142.852,-153.831,-157.404,-159.149,-156.463,-163.442,-162.46,-165.723
-143.08,-150.513,-154.558,-155.22,-154.649,-161.395,-160.384,-164.865
-148.595,-151.304,-153.94,-153.509,-153.803,-162.777,-160.76,-164.01
-146.607,-146.31,-148.417,-145.954,-147.929,-156.512,-155.714,-156.98
-137.421,-137.46,-139.031,-135.478,-138.746,-144.448,-145.488,-147.247
-129.847,-133.482,-133.014,-131.204,-133.303,-137.868,-137.132,-142.036
-125.996,-135.644,-132.917,-133.426,-133.661,-138.591,-133.647,-140.61
-122.005,-138.22,-133.124,-134.223,-132.645,-138.116,-130.497,-136.19
-118.096,-138.358,-129.08,-129.249,-125.049,-131.869,-124.107,-127.359
-117.964,-137.013,-124.154,-122.273,-116.983,-124.592,-118.222,-120.233
-121.188,-133.487,-122.699,-118.532,-115.415,-121.562,-116.406,-117.588
-122.507,-125.679,-122.26,-117.18,-116.678,-120.508,-114.509,-114.511
-118.683,-116.331,-118.352,-114.311,-113.821,-116.993,-108.66,-109.602
-111.955,-112.949,-111.753,-109.858,-107.356,-111.863,-102.587,-107.786
-105.407,-115.736,-105.904,-106.156,-101.505,-107.688,-99.6,-107.879
-99.59,-115.285,-102.018,-103.623,-97.02,-104.094,-97.777,-102.99
-94.5,-108.27,-100.306,-101.677,-93.812,-100.534,-96.894,-94.399
-90.859,-100.316,-100.28,-99.467,-92.976,-97.326,-98.793,-89.997
-88.534,-93.62,-98.721,-94.698,-92.509,-92.767,-100.647,-90.466
-85.339,-87.186,-92.941,-86.962,-88.283,-85.759,-97.246,-88.049
-79.193,-82.266,-84.33,-79.31,-79.409,-78.015,-89.1,-78.64
-71.966,-79.723,-76.749,-74.522,-69.658,-71.496,-82.778,-69.845
-68.282,-79.391,-73.981,-74.137,-65.395,-69.094,-82.38,-71.183
-67.583,-78.456,-75.447,-76.393,-68.569,-71.219,-83.147,-77.461
-62.824,-71.461,-75.14,-75.771,-71.635,-71.826,-77.959,-76.13
-52.32,-60.473,-69.654,-70.619,-66.775,-66.973,-67.902,-67.885
-43.564,-52.6,-61.427,-63.854,-56.125,-58.703,-58.496,-60.843
-41.376,-47.852,-53.457,-57.372,-47.129,-50.09,-50.332,-53.61
-43.075,-45.337,-47.898,-52.87,-43.404,-44.71,-42.084,-41.911
-45.285,-48.018,-45.734,-50.974,-42.365,-43.241,-35.866,-30.986
-45.103,-51.473,-43.845,-47.915,-39.276,-40.448,-32.262,-26.951
-37.4,-45.04,-37.14,-39.444,-31.957,-31.817,-26.734,-24.673
-22.024,-29.153,-25.791,-27.794,-21.878,-19.601,-17.054,-16.91
-7.93,-15.244,-15.421,-18.99,-11.952,-9.202,-6.976,-5.314
-0.994,-6.76,-8.211,-13.457,-3.14,-1.842,1.03,5.869
2.806,1.214,-1.72,-7.67,4.222,4.333,7.917,14.271
8.246,8.341,4.167,-1.641,8.48,9.445,13.886,18.294
14.453,12.965,8.41,4.282,11.156,14.803,19.181,21.162
19.526,18.626,13.003,12.712,16.816,23.757,24.959,28.305
25.073,26.116,19.496,22.879,25.593,35.037,30.892,38.188
32.468,30.817,26.226,29.803,33.246,43.325,36.044,45.396
39.886,31.716,32.06,32.563,38.54,47.215,41.44,50.294
46.796,35.29,38.77,35.216,44.726,49.423,49.18,56.897
55.445,46.554,47.839,40.646,53.825,52.431,58.717,64.729
65.544,59.285,57.496,48.447,63.407,57.705,66.259,70.357
73.329,63.949,64.991,56.052,70.382,64.495,70.387,74.384
76.953,62.829,69.934,61.816,74.735,71.064,73.996,80.09
78.275,65.036,73.531,67.068,78.038,78.082,78.168,86.641
80.736,72.566,77.259,73.504,81.677,86.64,81.473,91.483
88.162,82.858,83.686,82.571,87.73,96.782,86.125,97.993
100.713,95.032,93.855,94.895,97.2,108.072,94.877,108.715
111.327,104.401,103.04,105.152,106.123,116.306,103.495,116.244
113.794,104.266,106.298,106.724,110.083,116.952,106.73,115.956
112.034,99.048,106.841,104.25,111.688,115.453,107.449,116.062
112.851,99.166,109.858,107.332,114.619,120.774,111.376,123.166
115.445,103.866,113.406,113.766,116.669,129.061,117.842,131.997
116.403,106.622,114.58,115.342,117.096,130.355,122.417,135.171
116.976,108.123,116.066,113.417,119.78,126.489,124.648,132.74
118.227,110.675,119.619,113.539,124.805,125.554,126.694,129.23
118.449,113.591,123.223,115.305,128.648,127.856,128.884,127.816
119.755,118.82,127.644,118.38,132.361,131.005,132.327,131.038
125.864,127.203,133.982,124.643,137.983,135.937,137.835,139.312
133.319,132.565,137.243,130.513,141.045,140.88,140.984,146.195
136.142,131.147,134.742,131.475,138.455,142.564,138.92,146.006
134.684,127.888,131.925,129.509,135.243,141.585,136.375,142.538
133,127.789,132.582,127.922,135.626,139.73,137.443,141.976
134.493,132.365,136.104,129.358,139.004,140.08,141.768,146.377
139.869,140.405,141.981,136.16,144.505,146.233,148.405,154.345
143.57,144.045,145.727,142.793,148.401,153.165,153.132,159.469
138.786,136.213,139.654,138.954,143.283,150.052,148.708,154.395
127.447,122.279,123.929,124.663,127.772,136.288,134.232,140.142
117.474,112.648,108.302,110.505,110.991,122.556,117.541,125.242
113.767,110.232,101.67,104.367,103.367,117.061,107.638,117.289
116.565,112.32,104.365,105.895,106.141,119.189,107.531,117.779
122.37,117.241,110.013,109.955,111.984,123.108,112.384,121.985
125.18,122.541,112.88,111.406,114.55,123.923,115.313,124.154
122.951,123.437,112.752,109.651,114.289,122.48,115.047,124.052
119.924,119.465,111.84,107.749,113.531,121.971,114.243,124.858
117.364,114.466,108.51,105.263,110.049,120.288,112.337,124.975
111.811,109.605,100.213,98.355,101.74,112.942,106.947,119.946
105.564,105.26,91.28,88.957,93.557,102.993,100.918,112.543
104.486,103.572,88.626,84.872,91.404,99.347,99.758,110.688
107.226,103.592,91.877,88.09,93.938,103.659,103.033,114.99
108.924,102.815,95.636,92.161,96.589,108.08,106.126,118.532
108.337,102.684,97.147,92.168,97.699,107.318,107.225,117.737
105.527,103.734,96.485,89.138,97.292,103.614,106.786,114.96
101.537,102.095,94.705,86.768,95.794,101.526,105.582,113.499
99.761,97.217,93.693,87.166,94.768,102.564,104.601,113.486
102.213,94.047,94.593,88.758,95.468,104.488,104.085,112.68
108.236,95.961,98.092,90.954,98.867,107.386,105.284,112.759
115.657,101.593,104.3,95.17,105.603,112.896,109.568,116.503
120.794,107.635,110.207,99.658,112.708,117.752,114.067,120.117
122.121,113.337,112.734,101.961,115.866,118.974,115.143,120.555
122.024,119.192,112.614,102.181,115.1,117.842,113.54,120.699
122.412,121.655,111.168,100.669,112.62,115.477,111.707,121.651
123.018,118.536,109.464,99.804,109.927,114.516,112.049,123.339
123.508,115.818,109.811,103.23,109.068,118.728,116.297,127.58
124.121,117.761,111.503,108.263,110.092,125.038,120.997,131.97
126.021,120.341,111.794,109.747,111.168,127.547,121.378,132.889
130.778,122.109,112.581,110.56,113.525,128.34,120.272,133.655
136.845,126.712,116.798,115.767,118.633,132.464,122.822,138.451
139.404,132.236,121.572,121.617,123.317,137.341,127.093,144.732
135.592,131.761,121.488,120.512,123.078,136.166,127.338,145.974
127.531,125.439,116.255,113.14,118.083,129.033,122.252,139.278
120.695,121.012,112.293,108.396,114.245,124.082,117.357,130.998
119.713,122.141,115.167,111.709,116.647,126.904,118.492,129.949
124.757,126.859,122.717,119.446,123.474,134.32,124.735,135.834
131.876,134.052,129.077,125.6,129.478,140.243,131.633,142.48
137.015,141.932,131.879,128.121,132.208,142.506,136.551,146.578
140.01,146.058,132.633,127.868,133.052,142.585,138.014,147.18
143.46,145.194,133.873,126.752,135.151,142.827,136.608,145.108
148.234,144.123,137.307,127.469,139.977,144.792,136.275,144.66
152.607,147.064,142.176,131.335,144.963,148.255,139.327,148.751
154.925,152.156,146.096,136.53,147.282,151.743,143.16,154.53
155.777,155.9,148.431,140.291,148.799,153.981,144.863,157.651
156.941,158.159,150.01,141.65,152.101,154.493,144.449,156.777
158.719,159.666,150.946,141.82,155.293,153.887,143.163,153.839
160.817,161.274,151.956,142.994,156.346,153.829,143.171,153.013
163.847,164.562,154.706,146.477,157.307,156.004,146.721,157.4
167.52,167.797,159.211,151.294,160.558,160.185,152.948,165.397
168.869,166.674,162.23,153.676,163.94,162.691,157.464,171.216
164.76,161.424,159.743,150.792,162.469,160.568,156.743,170.973
157.637,157.568,153.617,146.438,156.696,157.546,153.432,168.442
153.857,157.343,150.732,145.993,153.434,158.251,153.412,170.054
155.098,156.97,152.567,147.436,154.81,159.677,156.361,174.027
158.203,156.353,154.49,146.909,156.165,157.829,156.581,172.338
161.594,160.414,155.468,147.189,156.236,156.133,153.803,165.039
165.904,168.257,158.83,151.741,159.376,159.094,153.988,161.454
170.013,173.499,163.591,156.755,165.708,163.868,157.714,164.183
170.319,173.538,163.642,155.571,167.943,163.641,157.741,165.409
166.315,171.223,158.192,148.67,163.328,157.736,151.698,161.778
163.691,171.061,154.684,143.917,159.393,153.504,147.044,159.277
166.756,173.806,157.309,145.637,161.45,155.548,149.437,161.554
172.458,175.351,162.302,150.256,166.001,160.149,155.487,165.756
176.59,174.596,166.151,153.994,169.286,163.456,160.159,169.791
179.28,175.106,168.566,157.127,171.098,166.584,163.307,173.781
180.79,176.474,168.991,159.667,171.534,169.72,166.084,176.317
178.704,174.091,166.69,158.891,169.952,169.013,166.95,175.33
172.98,168.543,162.324,154.157,165.899,163.517,164.27,171.211
167.929,165.785,157.873,150.241,160.837,158.996,159.978,167.164
164.76,165.55,154.458,150.034,156.664,158.854,156.815,165.393
159.013,159.967,150.121,148.154,152.052,157.327,153.117,163.328
150.945,149,144.334,140.674,146.455,150.278,147.056,158.278
147.359,143.529,141.485,133.862,144,143.861,142.607,153.377
148.284,146.354,142.744,132.9,146.013,142.493,142.692,152.137
147.144,147.827,142.979,133.428,147.809,141.784,143.646,152.713
143.699,144.422,140.064,131.435,146.713,139.394,142.201,152.145
141.482,142.274,136.479,128.548,144.107,137.68,139.52,150.255
139.119,142.381,132.717,125.404,140.58,135.789,136.69,147.473
134.183,139.779,127.733,120.69,135.845,131.526,132.801,143.106
128.643,135.595,123.312,116.941,131.675,128.482,128.44,139.794
126.688,135.053,122.217,117.558,130.837,130.353,125.89,142.155
128.426,136.203,122.046,118.392,131.178,131.257,123.825,143.74
128.058,133.05,117.701,113.884,126.962,125.068,119.259,133.996
122.658,126.74,111.793,109.019,120.58,119.009,116.224,122.101
117.306,123.674,111.619,111.681,120.308,122.365,120.86,124.862
115.906,124.413,115.564,118.136,124.673,129.848,128.454,136.162
115.369,123.066,116,118.995,125.442,130.577,129.079,138.444
113.216,118.364,112.881,114.522,122.526,125.443,123.282,132.289
112.038,116.55,111.608,112.267,121.087,122.84,119.416,129.616
112.487,118.947,111.467,112.355,120.12,122.504,118.625,130.461
110.437,118.062,107.839,108.772,115.842,118.249,115.034,126.863
104.686,111.965,102.118,102.981,110.34,112.508,108.84,119.865
99.217,107.747,99.376,101.15,107.886,111.531,105.549,116.128
97.42,108.981,100.348,103.23,108.453,113.564,105.079,115.463
99.608,112.409,102.161,104.857,109.602,113.703,103.829,113.737
103.862,114.879,103.149,103.341,110.142,110.958,102.244,111.145
107.198,115.985,103.815,99.533,110.381,106.976,102.024,110.527
107.053,114.441,104.126,96.082,110.366,103.671,101.294,111.659
103.933,109.801,102.745,94.012,108.928,101.946,98.41,111.089
101.79,106.469,99.716,92.839,105.415,101.411,95.62,107.245
101.676,106.193,96.082,91.364,100.853,100.038,93.591,101.946
100.272,105.132,92.384,88.32,97.48,95.998,89.769,97.498
97.39,103.866,90.357,85.409,97.54,91.767,85.31,95.61
95.703,105.609,90.674,84.812,99.716,90.539,83.401,94.886
94.384,106.525,89.815,83.675,99.054,89.261,82.6,90.499
91.244,101.942,85.783,78.68,94.406,83.887,80.633,82.761
87.361,95.856,81.853,72.866,90.432,78.026,78.663,78.839
85.36,93.846,80.238,70.844,89.413,77.369,77.783,81.26
86.028,93.754,79.391,72.006,88.657,80.513,77.666,85.233
87.79,91.544,78.34,72.896,86.562,82.178,77.932,86.987
88.794,89.477,77.478,72.026,84.315,80.553,77.526,85.314
88.216,89.761,76.526,70.755,82.63,78.452,75.952,81.197
85.115,87.104,74.846,70.184,81.125,78.352,74.626,79.11
79.53,78.972,72.722,68.87,79.961,78.139,74.349,80.684
73.29,73.129,70.515,66.422,78.966,75.849,73.893,81.628
67.423,74.161,67.607,64.867,76.669,73.854,72.099,79.65
62.655,76.624,64.07,64.034,72.887,73.379,69.376,77.492
59.731,75.292,60.407,61.018,68.385,71.452,66.561,76.799
57.727,70.463,56.572,55.127,63.415,66.498,63.727,75.52
55.885,64.486,53.774,49.014,59.87,61.058,60.573,71.329
54.498,59.177,53.227,45.15,59.447,57.616,57.458,65.652
53.877,56.685,54.181,44.969,60.992,57.365,55.797,63.234
53.709,57.463,54.86,47.773,62.532,59.918,55.869,64.454
51.588,56.943,52.786,48.351,61.66,60.347,55.021,63.062
45.825,52.052,47.192,42.719,56.82,54.361,50.969,56.805
39.809,47.587,41.839,35.155,50.964,46.305,45.752,51.687
38.57,48.792,40.829,32.638,48.562,43.698,43.483,51.624
42.204,53.952,42.971,35.313,49.38,46.625,44.673,52.761
45.46,57.686,43.586,37.311,49.526,48.831,45.232,50.62
45.012,56.904,40.902,34.974,47.653,46.792,42.354,46.624
43.65,52.857,37.803,30.703,46.235,42.814,38.74,44.913
43.001,48.625,35.812,28.077,45.193,39.877,37.155,45.059
41.158,46.815,32.811,26.861,41.505,37.959,35.583,43.162
38.646,47.907,28.673,25.208,36.626,36.126,32.371,39.997
36.051,48.028,25.586,23.315,34.251,34.872,29.715,40.031
31.688,43.476,23.63,22.013,33.581,34.444,29.421,42.811
26.32,36.367,21.175,19.479,31.811,32.129,29.813,42.68
22.377,30.489,17.799,14.292,28.606,26.354,28.509,37.86
20.025,27.489,15.29,10.359,25.778,21.926,26.411,33.706
17.979,28.399,14.807,11.103,24.2,22.604,25.69,32.95
14.734,30.593,14.026,12.741,22.52,23.998,25.318,31.281
9.099,27.793,10.625,10.656,19.741,21.734,23.151,27.437
3.248,20.697,6.848,6.576,17.468,18.33,20.112,26.31
1.307,16.841,5.911,3.696,17.309,16.182,18.21,28.063
1.729,15.993,5.188,-0.165,16.109,11.545,16.348,25.026
-0.847,11.243,0.037,-7.149,9.683,2.644,11.88,14.399
-5.387,3.919,-6.655,-12.277,1.871,-3.863,6.257,5.411
-6.127,1.44,-8.322,-11.122,0.136,-3.062,3.786,5.677
-2.585,4.017,-6.016,-8.612,3.399,-0.673,3.542,7.466
0.694,5.625,-5.937,-11.649,4.809,-4.332,0.802,0.327
1.524,3.644,-9.1,-17.889,2.797,-11.486,-3.969,-10.424
0.953,0.996,-11.663,-20.353,0.66,-14.331,-6.724,-14.326
-0.854,0.748,-12.307,-19.73,-0.457,-13.423,-7.466,-13.793
-4.359,1.36,-13.182,-21.449,-1.958,-14.457,-9.099,-15.149
-8.102,0.314,-15.112,-24.182,-3.69,-15.95,-11.529,-15.588
-10.637,-1.219,-16.903,-22.857,-4.463,-13.471,-12.755,-12.365
-11.915,-1.866,-18.076,-18.066,-4.964,-8.816,-12.76,-9.848
-11.979,-3.421,-19.087,-15.02,-6.304,-6.894,-12,-10.54
-12.439,-7.806,-20.887,-17.193,-8.497,-10.214,-11.08,-12.502
-15.816,-13.444,-24.388,-22.341,-11.702,-16.314,-12.067,-14.517
-21.821,-18.507,-29.712,-27.019,-16.459,-21.236,-16.09,-16.891
-27.695,-23.913,-36.215,-32.756,-22.34,-26.297,-21.81,-20.679
-31.449,-28.4,-41.445,-38.892,-26.719,-31.946,-26.184,-24.848
-33.939,-28.926,-42.07,-38.566,-26.446,-31.742,-26.097,-24.31
-35.342,-26.437,-37.525,-30.537,-21.324,-23.724,-21.144,-16.809
-32.487,-22.986,-30.595,-22.568,-14.387,-15.903,-14.503,-8.433
-26.386,-18.606,-25.464,-20.319,-9.656,-14.638,-10.616,-6.517
-23.823,-15.731,-25.315,-22.9,-9.706,-18.567,-11.891,-12.177
-27.107,-18.625,-29.571,-27.927,-13.712,-24.504,-17.243,-22.005
-32.653,-25.529,-34.96,-33.942,-19.092,-30.681,-23.552,-30.725
-36.866,-28.929,-38.813,-38.207,-23.714,-34.159,-27.966,-33.588
-37.936,-26.698,-40.24,-38.531,-26.039,-33.235,-29.916,-31.622
-37.153,-24.983,-41.097,-38.645,-27.438,-33.02,-31.86,-31.754
-36.358,-25.753,-43.335,-42.071,-30.5,-37.516,-35.601,-37.469
-35.035,-23.859,-44.93,-44.288,-33.26,-41.012,-38.992,-43.154
-35.128,-20.904,-44.854,-43.332,-33.645,-40.507,-40.33,-43.899
-39.964,-24.568,-46.487,-44.667,-34.9,-41.846,-41.385,-43.68
-47.194,-33.448,-51.25,-49.024,-39.527,-46.498,-43.745,-46.84
-52.756,-39.53,-57.21,-52.116,-46.143,-49.971,-47.72,-50.599
-56.765,-41.817,-62.747,-54.033,-52.283,-51.786,-52.866,-51.698
-60.754,-45.698,-67.13,-59.029,-55.954,-56.662,-57.844,-54.772
-65.4,-52.597,-71.168,-68.553,-58.387,-66.936,-62.023,-64.663
-70.741,-58.935,-76.429,-77.973,-62.832,-77.567,-65.404,-74.165
-77.209,-64.806,-83.104,-82.761,-69.887,-82.612,-68.116,-74.737
-86.09,-73.814,-90.123,-84.485,-77.708,-82.984,-71.282,-71.761
-95.665,-84.199,-95.895,-87.268,-84.193,-83.945,-75.915,-74.688
-101.4,-90.403,-99.608,-92.384,-88.217,-88.677,-81.232,-82.283
-102.468,-91.272,-101.879,-97.19,-90.364,-94.79,-85.496,-87.723
-100.9,-89.537,-102.298,-97.934,-90.838,-96.962,-87.455,-89.254
-96.697,-86.359,-99.412,-94.757,-88.572,-94.486,-86.663,-88.625
-91.016,-81.039,-95.268,-92.162,-85.166,-92.225,-84.532,-86.605
-89.147,-76.055,-94.725,-93.395,-85.046,-93.188,-84.492,-84.851
-94.015,-76.771,-98.734,-97.681,-88.962,-96.197,-88.248,-86.284
-100.433,-82.704,-103.128,-102.189,-92.452,-99.321,-92.703,-90.524
-103.173,-88.8,-105.763,-105.367,-93.805,-101.998,-95.171,-94.609
-106.564,-95.388,-110.046,-109.495,-97.376,-106.178,-99.446,-99.721
-114.738,-103.145,-116.771,-115.667,-103.969,-112.179,-108.059,-107.903
-121.565,-107.436,-120.628,-119.073,-107.983,-115.077,-114.998,-114.91
-122.701,-108.143,-120.951,-117.81,-108.95,-113.752,-116.319,-117.206
-122.577,-109.443,-123.299,-117.885,-111.992,-115.204,-116.618,-117.543
-122.692,-109.323,-127.683,-121.314,-116.349,-121.057,-118.367,-117.764
-120.747,-105.617,-129.239,-122.449,-117.514,-123.703,-118.863,-117.224
-119.767,-104.155,-128.38,-120.909,-116.685,-121.874,-118.567,-117.153
-122.545,-108.581,-128.307,-122.045,-117.144,-122.532,-119.087,-117.545
-124.644,-113.818,-128.153,-124.96,-117.757,-125.804,-117.927,-116.054
-122.185,-114.808,-126.394,-124.161,-116.591,-124.942,-113.974,-112.978
-117.828,-112.12,-124.152,-118.567,-114.424,-118.399,-109.775,-109.063
-116.29,-108.233,-122.203,-111.577,-112.315,-110.817,-106.273,-103.143
-119.282,-104.369,-120.456,-107.225,-110.473,-106.883,-103.183,-98.033
-124.492,-103.379,-119.992,-108.047,-109.879,-108.705,-102.326,-99.343
-127.366,-108.42,-120.719,-112.017,-110.696,-113.55,-103.984,-105.063
-125.272,-115.771,-119.794,-113.442,-110.535,-115.309,-104.365,-106.465
-121.234,-119.576,-117.973,-112.13,-110.144,-113.818,-103.447,-102.791
-119.107,-119.004,-119.568,-113.375,-113.405,-114.291,-106.226,-102.416
-116.932,-114.372,-122.479,-116.695,-117.251,-116.295,-111.304,-106.626
-113.627,-108.276,-121.249,-117.763,-115.614,-116.396,-111.976,-108.602
-113.948,-107.11,-117.799,-117.701,-111.321,-116.535,-108.254,-107.76
-117.87,-112.753,-116.723,-119.547,-109.774,-119.193,-105.46,-109.398
-117.842,-118.925,-116.372,-121.21,-108.908,-121.062,-104.827,-112.86
-112.029,-118.373,-113.232,-118.543,-105.304,-117.809,-103.636,-112.148
-107.275,-111.375,-108.652,-111.936,-101.087,-110.797,-101.054,-106.311
-107.045,-104.694,-105.687,-106.251,-99.088,-105.574,-98.549,-100.462
-106.866,-102.677,-104.157,-105.027,-98.139,-105.178,-96.707,-98.064
-103.145,-103.404,-102.036,-105.408,-95.965,-105.935,-94.186,-97.15
-98.588,-102.942,-98.6,-101.159,-92.586,-101.701,-89.696,-92.482
-96.237,-99.998,-94.809,-91.806,-89.878,-92.492,-84.67,-81.92
-95.872,-97.545,-92.724,-84.658,-89.965,-85.675,-82.494,-73.608
-97.382,-100.233,-94.155,-86.464,-93.12,-88.069,-84.462,-78.802
-100.584,-107.508,-97.694,-94.795,-96.307,-97.099,-87.549,-92.717
-104.126,-113.475,-99.913,-100.572,-96.887,-102.952,-88.777,-99.233
-106.735,-114.701,-99.911,-99.796,-96.136,-101.716,-88.93,-95.755
-107.016,-111.731,-98.623,-96.144,-95.357,-98.226,-88.309,-91.93
-105.926,-108.101,-97.322,-93.798,-94.084,-96.796,-86.7,-91.059
-108.069,-110.926,-98.743,-95.806,-94.134,-99.282,-87.693,-91.392
-115.323,-122.237,-104.459,-103.096,-98.782,-105.994,-93.407,-94.281
-123.271,-132.709,-111.994,-111.199,-107.16,-113.147,-99.662,-100.022
-126.261,-132.701,-117.059,-114.563,-113.562,-116.116,-102.08,-104.638
-123.931,-123.46,-117.501,-112.71,-114.07,-114.531,-101.215,-104.873
-120.992,-113.179,-115.113,-110.076,-111.266,-112.49,-100.096,-102.448
-119.365,-107.135,-112.589,-110.466,-108.787,-113.462,-100.104,-101.958
-117.127,-106.898,-110.565,-112.963,-106.408,-115.882,-100.815,-105.208
-115.881,-114.165,-110.203,-116.524,-104.925,-118.707,-102.579,-109.859
-118.499,-125.473,-113.023,-121.421,-107.097,-123.545,-105.645,-113.154
-123.55,-132.218,-117.372,-125.1,-111.974,-128.405,-108.477,-114.906
-128.727,-133.574,-120.621,-125.945,-116.127,-130.253,-109.525,-116.954
-133.001,-135.968,-122.104,-126.147,-118.036,-130.323,-108.327,-119.202
-135.312,-139.789,-122.112,-126.56,-118.323,-130.363,-105.734,-118.465
-134.685,-139.559,-120.755,-125.131,-117.919,-128.932,-103.898,-113.796
-130.847,-134.437,-118.177,-121.296,-116.489,-125.09,-104.174,-109.567
-125.469,-129.017,-115.564,-117.787,-113.888,-121.733,-105.772,-109.771
-121.408,-125.904,-114.76,-117.126,-112.307,-121.616,-107.082,-112.061
-120.408,-124.258,-116.34,-118.167,-114.301,-123.035,-107.203,-111.864
-122.438,-123.802,-118.295,-117.219,-118.355,-121.852,-105.869,-108.837
-125.267,-125.485,-117.528,-112.262,-119.565,-116.243,-102.702,-104.476
-125.656,-127.864,-113.423,-104.368,-116.232,-107.699,-97.665,-98.688
-123.412,-127.722,-108.948,-97.443,-111.845,-100.377,-93.045,-93.487
-121.612,-125.635,-107.737,-96.716,-110.253,-99.466,-92.586,-93.384
-121.349,-124.312,-109.276,-101.226,-111.069,-103.908,-95.567,-97.225
-120.719,-122.896,-108.808,-103.598,-110.07,-106.567,-96.114,-97.974
-119,-119.461,-104.372,-101.652,-105.127,-105.52,-91.714,-94.17
-116.992,-115.103,-99.309,-98.901,-99.299,-103.537,-86.61,-90.984
-114.333,-111.057,-96.089,-95.82,-95.631,-99.801,-84.594,-89.4
-109.975,-106.983,-93.823,-91.976,-93.286,-94.102,-84.448,-86.251
-104.726,-104.262,-92.086,-90.23,-91.228,-90.967,-84.049,-82.805
-100.796,-103.757,-91.424,-91.66,-90.527,-92.405,-83.596,-83.106
-98.047,-100.974,-90.229,-91.93,-90.447,-93.742,-83.264,-86.623
-93.764,-92.673,-85.665,-86.553,-87.153,-89.522,-81.723,-88.551
-87.724,-84.635,-78.953,-78.535,-80.216,-81.838,-78.952,-86.424
-83.677,-83.522,-75.483,-75.919,-75.782,-79.029,-77.502,-83.504
-83.371,-85.752,-76.775,-79.157,-77.452,-82.29,-78.423,-83.332
-82.719,-83.596,-77.568,-79.63,-79.574,-82.793,-78.791,-83.247
-77.976,-77.792,-73.775,-73.307,-76.014,-76.552,-75.712,-78.3
-71.314,-72.877,-67.099,-64.093,-68.749,-68.071,-69.513,-68.681
-65.437,-67.293,-60.596,-54.722,-62.836,-59.627,-61.766,-57.573
-59.888,-61.17,-55.987,-46.898,-59.858,-52.092,-54.555,-47.487
-55.8,-60.91,-54.258,-44.663,-58.588,-49.854,-50.868,-43.134
-55.946,-66.347,-54.512,-48.026,-57.697,-53.584,-51.126,-48.15
-59.843,-69.4,-54.757,-51.193,-57.223,-56.998,-52.141,-57.053
-63.644,-66.77,-53.953,-49.926,-57.114,-55.034,-51.085,-59.675
-63.43,-60.996,-51.23,-44.321,-55.258,-48.393,-47.122,-53.093
-57.899,-54.168,-45.787,-36.188,-49.889,-40.087,-40.397,-42.549
-49.444,-47.783,-38.569,-28.469,-42.148,-32.811,-32.407,-32.902
-42.185,-43.712,-32.698,-25.028,-35.532,-29.316,-26.921,-27.203
-38.227,-42.01,-31.1,-26.285,-33.668,-29.889,-27.285,-28.814
-35.783,-39.64,-32.217,-27.276,-35.526,-30.099,-31.013,-35.004
-31.435,-34.472,-30.647,-24.128,-34.796,-26.297,-31.266,-36.267
-24.66,-29.197,-24.422,-19.023,-28.219,-20.959,-25.509,-28.953
-17.723,-25.454,-17.078,-14.806,-19.461,-17.171,-17.426,-19.35
-11.245,-19.061,-11.402,-10.263,-12.454,-13.107,-10.612,-13.585
-4.011,-8.421,-6.485,-4.584,-6.901,-7,-5.706,-11.262
4.124,1.753,-0.777,0.33,-0.993,-0.869,-2.044,-8.71
11.425,7.394,5.023,2.89,5.227,2.39,0.411,-4.991
16.432,8.465,9.324,3.969,11.078,2.728,1.345,-2.335
21.534,10.251,13.395,8.013,17.351,5.277,3.405,-0.121
27.904,16.848,18.329,16.184,22.552,12.55,9.468,4.077
28.483,20.204,20.358,20.134,22.691,16.476,15.63,7.891
20.031,13.051,17.706,16.453,19.072,12.953,17.182,9.377
13.64,5.209,15.778,15.113,16.997,11.525,18.316,12.741
17.687,6.781,18.601,20.448,18.017,16.494,23.745,19.266
24.722,11.042,22.428,23.783,20.211,19.122,28.223,22.712
26.481,9.461,22.308,20.917,21.524,15.695,26.266,20.15
25.918,7.957,20.496,19.547,22.369,15.713,22.776,17.922
27.079,14.614,21.815,25.603,24.339,26.249,23.753,21.484
27.174,23.488,24.286,32.747,25.213,37.755,26.486,27.29
24.084,23.854,24.284,33.359,23.695,38.061,26.641,30.224
20.762,16.319,23.554,30.114,23.416,31.07,24.98,29.771
19.201,10.591,22.27,26.955,22.747,25.326,23.035,25.804
18.586,12.083,18.011,22.736,16.684,20.664,20.714,19.208
19.294,16.799,14.519,19.257,11.503,17.275,18.907,15.282
21.841,19.053,16.605,19.805,16.059,18.116,18.289,17.036
25.605,19.473,21.287,22.428,25.215,21.707,18.567,21.669
31.461,22.656,24.813,25.743,29.391,26.218,22.09,27.382
38.35,28.861,28.39,30.685,29.203,31.55,29.818,33.004
41.893,33.812,33.513,34.805,31.208,34.973,36.696,35.323
41.674,35.082,39.077,36.521,36.585,35.946,39.465,34.381
41.099,34.188,42.808,39.005,40.261,38.618,40.275,33.423
42.772,35.491,45.154,44.549,41.169,44.366,41.823,35.32
48.597,41.763,49.35,51.699,44.756,50.83,45.654,41.58
56.737,48.697,54.603,57.2,51.824,56.202,50.499,49.002
60.99,49.004,56.201,58.414,56.761,58.873,52.327,52.484
59.66,43.765,53.906,56.206,57.817,57.94,50.292,52.839
57.708,40.669,51.149,53.46,56.169,54.522,48.476,53.274
57.932,40.453,49.342,51.225,51.961,50.449,49.153,52.732
58.768,39.572,49.476,49.758,48.821,47.56,50.188,50.47
58.324,40.429,51.096,49.254,48.553,46.462,49.985,48.533
55.638,44.027,50.936,48.911,46.887,46.468,49.332,47.18
52.097,44.884,49.99,49.195,45.281,48.093,49.399,46.364
50.867,41.73,52.863,51.703,50.343,51.91,50.201,47.618
52.333,39.476,57.352,54.741,58.08,55.277,50.463,49.773
53.062,40.457,56.674,54.287,57.391,54.693,49.57,49.256
50.691,42.946,51.27,50.27,48.655,51.141,47.89,45.811
47.265,43.784,47.829,46.597,43.178,48.699,45.241,43.007
46.502,41.952,49.169,46.367,45.987,49.391,42.351,43.056
49.012,40.904,51.904,49.603,50.671,52.211,41.222,44.169
51.7,42.257,51.754,52.72,50.483,54.112,41.176,43.847
51.923,42.492,47.944,51.616,46.082,51.941,39.709,42.531
50.232,40.404,43.379,47.656,41.678,47.141,38.034,42.701
48.843,39.53,42.286,46.921,41.094,46.019,39.434,46.299
50.05,42.269,46.805,52.468,46.345,51.776,44.332,53.496
56.765,49.526,55.931,62.32,55.678,61.717,52.157,62.128
70.121,62.241,67.946,73.584,66.081,72.567,62.808,69.332
84.431,76.573,80.071,82.954,75.577,81.325,73.56,74.595
91.812,84.75,88.281,87.365,82.513,85.11,81.141,79.098
93.527,85.989,92.841,88.789,87.959,86.226,87.259,83.92
96.463,86.613,97.938,92.361,94.758,90.091,95.045,89.51
100.037,87.784,103.481,97.689,101.562,95.953,102.263,94.613
99.617,87.123,105.723,100.033,104.323,98.594,105.588,97.859
97.126,87.195,104.127,98.882,102.261,97.285,106.35,99.508
97.379,89.929,101.257,97.578,98.226,95.497,106.842,100.351
101.252,92.632,99.874,97.616,96.243,95.184,107.665,101.619
106.287,94.482,101.848,98.985,98.945,96.393,109.519,104.72
109.245,97.73,106.996,102.544,106.004,99.476,112.362,109.174
108.605,101.246,112.976,107.258,114.784,103.435,114.31,112.524
106.008,100.614,116.765,109.656,120.726,105.761,114.707,113.863
104.33,96.32,117.441,109.376,121.189,106.568,115.094,114.873
105.044,94.212,117.124,109.7,119.21,108.126,115.789,115.865
107.637,96.661,116.375,111.677,116.045,110.193,115.929,114.909
109.397,99.408,112.813,111.856,108.968,109.473,114.343,110.702
107.899,98.528,107.118,107.74,100.928,104.774,109.659,103.481
104.94,96.271,103.118,103.114,96.962,100.252,103.801,95.714
103.77,96.373,101.869,102.015,95.916,98.721,100.391,91.216
104.13,97.866,101.463,102.253,95.734,97.573,99.089,90.779
102.846,97.32,99.638,101.242,95.466,95.918,96.678,91.439
97.34,92.652,94.762,99.529,91.926,95.287,91.646,91.484
89.841,85.437,88.369,97.633,84.855,94.797,86.391,92.692
86.088,81.035,84.277,95.741,79.594,93.648,83.896,94.881
86.365,80.164,82.267,92.492,78.479,91.222,81.895,91.923
85.162,76.242,78.388,85.298,77.356,84.885,76.362,80.651
81.497,68.394,72.029,75.871,72.955,75.244,69.794,69.482
79.17,64.312,66.532,69.468,67.314,67.983,67.334,67.29
77.985,66.354,64.002,67.877,64.057,66.421,67.64,70.092
74.235,67.44,62.623,67.549,62.884,66.957,65.696,68.556
65.462,60.733,57.872,62.795,58.897,62.718,59.252,60.084
50.628,46.576,47.594,51.413,48.923,51.542,48.559,47.677
32.33,30.418,35.472,37.658,36.367,38.191,36.197,34.771
16.91,16.686,26.064,26.207,26.448,26.499,25.914,23.845
8.939,7.826,20.365,18.317,21.174,17.475,18.955,16.557
8.596,5.655,18.223,14.697,20.506,13.402,14.956,13.434
11.347,7.845,18.298,14.304,21.409,13.313,13.655,12.56
10.118,7.873,16.18,13.376,17.829,11.801,12.584,10.188
2.438,1.856,8.733,9.287,7.957,6.659,7.62,4.77
-7.319,-7.639,-1.15,2.954,-3.11,0.688,-1.392,-1.239
-14.117,-14.763,-7.694,-2.231,-9.809,-2.912,-9.583,-5.14
-17.042,-16.829,-9.506,-4.756,-11.368,-4.43,-14.155,-7.955
-18.18,-16.071,-10.738,-6.504,-11.697,-6.213,-17.116,-12.193
-19.191,-15.593,-14.269,-8.77,-14.56,-8.686,-19.966,-16.839
-20.216,-18.596,-19.484,-12.689,-20.678,-12.556,-23.112,-19.928
-21.634,-26.072,-26.491,-20.787,-29.696,-20.524,-28.433,-23.825
-24.621,-32.891,-34.143,-31.594,-38.388,-31.392,-35.187,-30.243
-28.957,-35.333,-37.884,-39.071,-41.003,-39.142,-39.044,-35.287
-32.23,-35.129,-36.523,-39.73,-37.928,-39.948,-39.017,-35.784
-32.954,-32.681,-35.027,-35.678,-36.367,-35.773,-38.048,-33.951
-33.121,-29.439,-36.91,-32.47,-39.233,-32.267,-37.475,-33.2
-35.986,-30.938,-39.52,-33.93,-41.475,-33.486,-37.071,-34.13
-41.518,-39.075,-39.504,-38.132,-39.485,-38.055,-37.192,-35.552
-46.071,-49.228,-38.126,-41.266,-36.654,-41.982,-37.795,-37.071
-47.401,-54.818,-38.304,-42.881,-37.182,-43.945,-38.568,-39.314
-46.084,-51.513,-40.062,-43.819,-40.314,-44.919,-39.673,-42.113
-43.15,-42.389,-41.489,-43.771,-42.663,-45.04,-41.151,-44.48
-40.582,-36.231,-41.964,-43.334,-42.873,-44.53,-42.899,-46.441
-39.966,-35.309,-41.777,-43.015,-41.936,-43.634,-43.791,-47.991
-39.868,-33.997,-39.941,-40.98,-40.069,-40.778,-41.857,-47.221
-39.627,-31.515,-36.408,-36.968,-37.452,-36.056,-38.29,-43.847
-42.611,-33.462,-35.579,-35.643,-37.833,-34.389,-38.511,-42.978
-50.583,-41.178,-41.719,-41.375,-44.553,-40.1,-46.119,-49.345
-59.03,-49.524,-51.677,-51.302,-53.627,-50.313,-57.82,-59.465
-63.276,-55.138,-59.21,-59.003,-59.31,-58.796,-67.594,-66.396
-64.225,-59.05,-63.53,-62.902,-62.856,-63.576,-73.064,-68.68
-63.477,-59.373,-66.332,-64.065,-66.893,-64.879,-74.417,-68.203
-59.77,-51.775,-66.442,-61.581,-68.624,-61.771,-72.059,-65.375
-54.073,-40.086,-63.458,-56.611,-65.999,-56.113,-67.798,-60.72
-50.218,-33.68,-59.634,-52.598,-61.726,-51.546,-63.699,-55.623
-47.107,-33.462,-54.548,-48.418,-56.395,-46.736,-58.414,-49.687
-40.253,-34.028,-46.457,-40.907,-48.292,-38.586,-49.426,-41.564
-32.705,-33.974,-39.317,-33.341,-41.21,-30.421,-39.82,-33.714
-31.457,-33.325,-37.646,-31.497,-39.609,-28.074,-35.193,-31.065
-36.093,-32.505,-38.75,-34.997,-40.483,-31.493,-35.059,-33.836
-42.001,-35.355,-39.138,-40.072,-40.512,-37.217,-35.808,-37.951
-46.447,-41.44,-39.585,-44.291,-41.245,-42.873,-36.463,-40.476
-46.288,-42.642,-38.828,-44.405,-41.431,-44.457,-35.605,-39.812
-40.318,-36.078,-33.524,-38.955,-36.356,-39.533,-31.701,-36.368
-34.404,-29.604,-26.42,-33.144,-27.869,-33.955,-27.913,-33.654
-34.596,-29.931,-24.226,-31.967,-24.482,-33.903,-27.834,-33.573
-37.836,-34.864,-27.116,-33.417,-28.304,-36.685,-29.903,-34.331
-37.69,-37.335,-28.869,-33.467,-31.34,-36.918,-30.975,-34.06
-35.062,-34.516,-27.896,-32.187,-29.838,-34.667,-30.771,-33.076
-35.529,-31.921,-28.965,-32.84,-29.818,-34.11,-31.402,-33.312
-39.128,-33.037,-32.518,-35.395,-33.169,-36.008,-33.444,-35.002
-39.913,-32.748,-32.746,-34.793,-33.654,-35.479,-33.868,-34.737
-34.752,-28.024,-27.343,-29.214,-28.837,-30.212,-30.057,-29.663
-27.754,-24.047,-21.089,-23.656,-23.679,-24.814,-23.958,-21.727
-24.774,-24.544,-19.182,-22.144,-22.521,-23.434,-19.939,-15.711
-25.435,-23.927,-20.251,-22.381,-23.22,-23.736,-18.888,-14.304
-24.535,-16.698,-18.906,-20.726,-21.07,-21.713,-17.678,-16.12
-20.276,-8.164,-13.97,-17.545,-16.243,-17.764,-14.675,-17.024
-15.678,-5.662,-8.513,-14.676,-12.131,-14.559,-11,-13.563
-13.77,-8.91,-5.097,-13.102,-9.748,-13.957,-8.873,-9.512
-15.205,-14.069,-5.408,-14.48,-9.041,-17.05,-11.097,-13.67
-18.578,-17.216,-9.578,-19.241,-11.277,-22.705,-16.888,-24.787
-21.621,-16.937,-14.819,-24.572,-16.664,-27.757,-21.49,-32.338
-23.245,-16.957,-17.849,-27.145,-22.363,-30.176,-22.866,-33.34
-22.053,-17.563,-16.241,-23.782,-23.848,-27.474,-20.578,-29.7
-8.153,-5.022,-1.171,-5.453,-10.559,-9.235,-5.667,-12.094
34.837,38.579,43.059,40.697,34.46,38.382,37.066,34.834
101.34,105.427,110.01,106.475,104.534,105.478,101.255,102.143
153.318,156.791,159.305,155.329,156.063,154.11,149.268,150.973
166.25,168.906,167.368,166.6,163.212,164.995,158.535,160.702
154.778,156.882,153.857,156.73,147.584,155.894,146.347,150.128
131.103,133.409,132.189,135.737,124.987,136.1,124.722,130.188
88.744,92.111,91.939,94.228,85.201,95.151,84,90.131
37.972,42.708,41.741,43.186,36.636,44.12,33.275,39.554
3.178,8.398,7.216,8.517,4.019,10.11,-1.207,4.052
-13.904,-9.058,-10.554,-9.468,-13.395,-6.113,-17.257,-15.615
-29.382,-23.997,-27.85,-26.995,-31.815,-22.819,-32.504,-34.821
-47.368,-41.207,-46.352,-45.861,-51.316,-43.369,-51.002,-54.077
-58.75,-53.394,-56.152,-57.542,-61.853,-56.995,-62.599,-64.273
-60.498,-55.901,-55.949,-60.562,-62.575,-59.845,-64.768,-65.762
-62.606,-57.428,-57.429,-63.344,-64.874,-61.808,-68.052,-68.663
-75.047,-69.343,-71.09,-74.918,-79.104,-74.369,-81.13,-80.04
-93.933,-88.223,-91.522,-92.719,-99.686,-94.181,-98.953,-95.969
-107.088,-100.725,-104.895,-105.367,-112.601,-107.504,-110.593,-108.126
-112.016,-103.161,-109.566,-110.467,-117.185,-112.418,-115.378,-115.287
-118.531,-106.653,-116.383,-117.541,-124.897,-120.391,-122.845,-123.185
-132.659,-120.709,-129.847,-131.382,-138.476,-135.478,-137.109,-135.091
-149.721,-140.174,-143.975,-146.663,-150.25,-150.255,-152.959,-149.296
-162.907,-153.748,-154.474,-158.579,-157.437,-160.379,-165.674,-162.755
-169.828,-159.056,-162.229,-166.893,-164.167,-167.915,-173.505,-171.848
-172.746,-162.811,-168.028,-172.615,-171.82,-174.232,-176.186,-175.296
-174.64,-167.968,-170.956,-176.431,-176.686,-178.258,-176.233,-177.005
-175.029,-170.139,-170.73,-177.607,-176.74,-178.401,-176.502,-180.275
-171.962,-167.721,-169.289,-175.543,-174.982,-175.273,-177.123,-182.76
-166.15,-164.219,-168.063,-171.653,-173.524,-171.802,-176.12,-181.057
-161.005,-160.505,-165.928,-167.038,-170.753,-168.534,-172.956,-176.332
-160.466,-156.532,-164.29,-163.788,-168.677,-165.668,-172.259,-173.817
-165.696,-156.964,-167.766,-166.574,-172.722,-167.826,-178.218,-177.556
-171.179,-161.869,-174.114,-173.582,-179.662,-174.788,-185.202,-184.379
-168.919,-161.32,-173.934,-174.613,-179.129,-176.488,-184.801,-185.887
-160.309,-152.877,-166.421,-168.362,-170.87,-170.661,-179.916,-180.586
-156.306,-149.059,-163.65,-167.535,-167.744,-170.224,-180.041,-178.09
-161.312,-155.741,-171.305,-176.508,-175.644,-180.076,-185.639,-183.934
-165.64,-161.525,-177.86,-181.7,-182.524,-186.165,-187.577,-189.034
-160.549,-157.714,-173.677,-175.265,-177.673,-180.154,-181.678,-184.75
-151.218,-150.363,-165.909,-167.253,-168.249,-172.263,-174.444,-176.608
-146.87,-146.654,-163.674,-164.944,-165.142,-169.825,-171.454,-171.759
-148.646,-146.101,-164.82,-163.35,-166.95,-167.355,-170.626,-168.184
-153.174,-147.513,-165.226,-160.655,-168.072,-163.268,-169.971,-164.82
-157.635,-151.177,-165.876,-161.084,-168.802,-163.41,-169.877,-164.593
-159.498,-154.838,-166.855,-163.11,-169.849,-166.744,-168.841,-166.132
-157.829,-155.371,-165.578,-160.757,-168.497,-165.293,-166.196,-166.203
-153.77,-152.048,-160.237,-152.876,-162.353,-156.783,-163.052,-163.772
-148.862,-146.112,-151.298,-144.364,-151.498,-147.349,-159.074,-158.587
-144.116,-139.008,-143.466,-140.818,-141.705,-143.387,-154.327,-152.933
-139.416,-131.638,-141.782,-142.07,-140.443,-144.561,-150.447,-149.786
-133.44,-124.235,-142.479,-141.491,-143.405,-144.139,-147.281,-146.69
-125.932,-117.003,-138.296,-134.602,-140.667,-136.889,-142.523,-138.573
-119.799,-112.1,-131.321,-125.858,-134.503,-126.533,-135.976,-127.492
-116.722,-110.422,-126.827,-121.257,-130.76,-120.178,-129.946,-121.43
-113.254,-108.594,-122.768,-119.708,-125.896,-118.736,-125.174,-122.037
-106.317,-104.088,-116.293,-116.995,-117.471,-118.005,-120.095,-122.065
-96.864,-96.115,-108.615,-110.624,-109.217,-113.555,-112.666,-115.941
-87.258,-84.923,-100.381,-100.708,-101.891,-104.634,-102.905,-106.181
-80.181,-75.427,-91.809,-90.67,-93.614,-95.114,-94.484,-97.888
-76.294,-71.753,-84.906,-83.737,-85.896,-87.767,-90.307,-91.663
-72.442,-70.358,-81.241,-79.736,-81.608,-81.929,-88.419,-85.533
-65.558,-65.646,-80.129,-77.385,-80.781,-77.769,-85.754,-80.14
-56.767,-57.292,-80.021,-76.249,-81.602,-76.504,-82.694,-77.378
-51.352,-50.094,-80.314,-76.307,-82.725,-77.371,-81.797,-76.999
-52.027,-47.354,-79.779,-76.194,-82.138,-77.183,-82.481,-76.357
-52.104,-45.011,-74.548,-71.778,-76.191,-71.898,-78.892,-71.461
-44.223,-38.054,-63.17,-61.075,-64.463,-60.916,-67.762,-61.519
-33.182,-29.557,-51.787,-49.502,-53.595,-49.762,-55.373,-51.595
-28.228,-25.005,-46.878,-43.623,-49.687,-43.916,-49.183,-46.142
-28.442,-23.707,-46.485,-43.17,-50.193,-42.56,-47.976,-44.114
-27.411,-21.942,-45.18,-44.033,-49.209,-42.761,-46.979,-43.117
-25.251,-19.826,-42.614,-44.268,-46.183,-44.245,-45.643,-44.064
-25.88,-21.086,-41.486,-44.391,-44.174,-46.527,-45.422,-47.961
-29.156,-26.242,-40.744,-44.012,-42.451,-46.516,-44.998,-50.066
-31.548,-29.653,-36.479,-40.266,-37.187,-41.282,-41.149,-44.628
-29.852,-25.972,-28.255,-31.908,-28.592,-31.822,-33.145,-33.891
-24.325,-17.469,-19.993,-22.988,-21.041,-23.103,-24.854,-24.717
-18.625,-11.433,-15.071,-18.283,-17.061,-19.032,-20.876,-20.041
-14.352,-10.666,-13.429,-17.331,-15.404,-18.218,-21.242,-18.905
-8.896,-10.239,-12.439,-16.582,-13.165,-17.062,-22.031,-19.272
-0.329,-4.402,-9.495,-14.599,-8.792,-14.994,-19.899,-18.282
7.872,5.277,-5.987,-12.096,-5.751,-13.057,-15.35,-14.661
10.117,12.477,-5.527,-9.183,-8.242,-10.27,-11.534,-10.003
7.303,14.797,-6.787,-5.883,-11.858,-6.208,-9.877,-6.309
6.214,14.574,-5.866,-3.98,-9.888,-3.785,-9.627,-5.108
9.265,14.645,-3.375,-4.533,-4.916,-4.822,-9.522,-6.243
11.886,14.274,-2.026,-5.873,-2.666,-7.046,-8.332,-6.592
11.431,10.441,-1.893,-6.353,-2.696,-7.758,-6.692,-4.237
11.687,6.601,-0.853,-4.464,-1.214,-5.328,-5.105,-0.085
15.694,10.251,2.505,2.003,2.879,1.811,-0.932,7.249
20.845,19.497,6.788,11.263,7.123,12.067,6.259,18.86
24.089,25.348,9.661,17.466,9.42,19.847,11.642,28.322
26.203,26.478,10.756,18.632,10.185,21.878,12.391,29.041
29.413,29.669,11.547,18.669,10.713,21.025,11.346,23.958
33.183,35.367,13.21,20.312,11.726,21.047,11.355,18.452
34.686,36.404,16.174,22.535,14.31,22.379,12.907,15.654
35.474,34.852,22.975,27.451,21.811,27.312,18.379,21.87
40.09,40.211,34.883,37.746,34.828,37.613,28.919,36.855
46.686,50.05,45.96,46.875,46.512,46,38.465,45.317
50.865,55.742,51.743,49.502,52.629,47.77,42.872,40.628
53.218,58.045,56.197,51.921,57.236,50.323,46.716,37.239
54.067,59.515,60.65,56.671,61.749,56.016,51.728,42.675
52.542,58.012,60.901,56.585,62.99,56.547,53.945,48.054
52.231,55.484,58.694,52.602,62.352,52.406,54.795,51.475
55.591,56.457,59.475,53.821,63.039,53.465,58.116,58.468
58.239,58.611,62.063,59.22,63.991,59.358,60.864,65.169
57.96,58.701,63.453,61.362,64.854,62.089,60.284,65.685
59.961,60.498,65.945,61.797,67.663,62.586,61.878,65.433
66.897,67.347,72.62,67.099,73.072,67.788,70.605,72.668
74.063,76.328,81.941,77.734,80.472,78.72,82.238,85.53
77.789,83.265,88.897,88.357,87.206,90.092,89.735,94.654
80.223,87.334,91.273,94.518,90.959,96.678,91.853,95.451
84.005,90.948,91.834,96.1,93.147,97.454,91.454,93.029
86.699,94.718,90.998,94.644,92.629,94.905,89.714,92.974
83.815,94.498,85.776,90.843,86.126,91.428,86.148,93.747
77.036,89.724,78.849,87.596,78.314,89.414,83.157,92.802
73.328,87.078,77.509,89.059,77.837,91.537,84.5,92.018
74.555,88.606,82.513,92.876,84.844,95.393,88.601,92.903
76.686,88.989,88.054,93.708,92.239,96.134,91.322,94.72
78.636,88.123,91.534,93.387,96.28,95.425,93.126,97.681
82.064,90.427,93.991,94.81,98.39,95.802,95.49,100.569
85.682,94.028,94.486,95.102,98.767,94.853,96.528,100.233
87.32,95.062,92.168,93.532,96.487,93.151,95.252,97.865
87.612,95.094,89.346,93.031,93.659,93.926,93.588,97.939
88.027,96.438,88.511,93.499,92.957,95.661,92.982,100.54
89.231,98.73,90.02,93.459,94.339,95.879,93.561,102.011
91.901,101.653,93.052,94.157,96.894,96.557,96.144,102.03
95.444,105.156,96.825,97.129,100.435,99.898,100.997,104.063
97.204,107.097,100.363,101.115,104.051,103.961,104.998,107.963
95.216,103.986,100.989,102.028,104.558,104.261,103.78,107.492
90.75,96.696,96.674,96.268,99.802,97.505,96.977,99.933
87.806,93.256,91.446,88.909,93.86,88.96,90.358,93.193
89.224,99.037,91.978,91.609,92.914,91.292,90.836,95.366
93.318,107.662,98.294,104.282,97.399,105.096,97.984,103.229
95.983,109.865,104.565,113.08,103.357,114.759,105.123,109.327
94.89,104.359,107.112,111.208,107.323,112.353,108.496,111.996
91.142,95.288,106.939,105.494,108.672,106.607,108.585,112.174
87.731,87.513,106.363,102.505,109.459,104.938,106.328,109.832
85.582,84.063,105.349,101.242,109.742,104.383,104.02,106.879
83.767,83.602,102.807,99.831,107.131,102.489,104.428,106.412
83.744,84.739,100.829,100.767,103.968,103.083,107.05,108.824
87.159,89.206,102.41,105.668,105.445,107.52,109.325,111.098
91.961,95.744,106.669,110.898,110.705,111.361,110.447,110.238
95.943,100.173,111.204,113.139,115.475,112.295,111.823,107.946
99.663,102.075,115.532,113.71,119.151,112.766,114.403,108.347
104.008,103.457,119.869,114.966,123.185,114.878,117.237,111.623
107.517,104.144,122.792,116.101,126.348,116.865,118.996,114.902
106.897,102.321,121.612,114.518,125.255,115.396,119.052,116.782
102.05,98.436,116.75,111.216,120.402,111.678,117.112,117.432
98.539,96.425,113.181,110.375,117.111,110.488,114.114,117.091
101.066,98.844,114.265,113.127,117.723,112.801,113.136,116.846
107.293,103.435,117.789,116.679,119.515,115.709,115.567,118.094
111.507,106.335,120.337,118.51,121.296,117.74,118.114,120.22
112.421,106.582,121.785,118.76,125.277,119.476,118.251,121.709
112.257,106.136,122.596,118.805,130.265,120.855,117.788,121.953
110.104,105.445,119.975,118.242,128.648,120.468,117.643,120.319
104.318,102.052,112.63,115.452,117.887,117.387,115.964,116.46
98.569,96.269,106.701,112.081,108.988,113.953,113.509,112.548
98.511,94.163,109.111,113.434,111.839,115.468,114.868,113.446
104.662,99.807,117.873,121.737,121.341,124.312,122.064,122.482
111.669,108.212,125.778,132.326,128.563,136.114,130.388,135.767
114.421,111.661,128.951,138.204,131.878,143.142,133.154,142.607
113.1,109.666,127.391,135.876,130.837,140.137,129.425,136.658
111.968,108.524,123.664,128.648,125.709,130.1,124.508,125.926
114.66,112.086,122.225,123.681,123.028,122.473,122.593,121.899
119.367,115.426,123.385,122.633,125.616,120.784,122.349,122.529
120.769,112.025,122.539,121.229,126.228,120.119,121.716,120.84
118.137,105.056,119.433,118.091,122.23,117.538,122.1,119.689
115.016,103.151,118.12,114.959,119.988,114.128,124.185,121.713
113.111,108.279,118.914,112.836,121.827,111.343,125.072,121.118
113.25,115.688,120.025,113.378,124.355,111.543,123.183,116.559
115.965,120.505,121.081,117.159,125.566,115.488,120.907,114.967
118.806,120.082,121.103,121.117,125.24,120.042,120.315,119.099
119.714,115.906,119.323,122.488,123.43,122.392,120.667,123.727
119.497,112.993,117.109,121.58,120.987,122.352,120.476,123.68
118.199,113.038,116.2,119.745,119.834,120.614,119.485,120.069
116.233,113.943,117.706,118.553,122.61,118.827,119.275,118.635
116.336,114.991,121.038,119.433,128.498,119.161,121.229,121.858
117.058,113.556,121.384,121.188,129.257,121.183,123.247,124.793
113.345,107.122,116.351,121.515,121.433,122.754,122.492,123.048
106.588,102.078,112.516,120.679,116.017,123.719,120.657,120.136
101.434,103.391,113.606,119.239,118.725,124.022,120.494,120.287
97.829,104.497,114.628,117.349,120.988,122.674,120.621,121.803
95.854,101.398,114.802,117.124,120.797,121.292,119.44,122.755
96.568,98.126,117.198,118.072,123.609,120.938,117.88,122.865
95.945,95.071,117.292,115.339,124.695,117.828,115.919,119.423
90.63,90.574,110.579,108.317,117.22,110.424,112.711,111.78
84.778,87.071,103.041,102.071,107.56,103.639,108.8,104.651
82.669,85.833,100.766,99.077,103.99,100.888,105.076,100.674
82.896,85.241,101.289,97.945,104.189,100.13,102.267,98.494
82.294,83.686,100.997,97.34,103.567,98.541,100.904,98.365
79.052,79.939,99.351,96.586,101.795,96.319,99.377,100.827
73.854,75.773,96.009,95.953,98.667,96.333,95.354,102.459
69.554,74.771,91.434,95.678,94.19,98.64,89.957,98.86
67.735,74.951,87.319,93.111,90.426,96.817,85.676,89.971
68.421,71.379,84.139,86.407,87.937,87.418,82.627,80.438
72.103,66.669,81.964,80.35,85.513,78.614,81.291,75.869
76.64,67.26,81.118,79.441,83.32,78.03,82.547,76.691
75.783,70.456,79.237,78.99,80.847,79.946,83.044,76.338
67.877,68.184,73.814,73.358,76.42,76.232,79.249,71.365
60.256,61.072,68.306,66.28,72.102,69.799,74.725,68.015
58.736,56.942,68.581,64.659,72.624,68.044,74.68,71.177
60.385,58.608,74.053,68.593,78.523,71.424,77.263,76.175
59.441,60.184,77.471,71.823,83.325,73.976,77.523,76.933
55.313,55.778,74.338,69.861,80.054,71.688,74.978,72.884
52.529,48.622,69.184,65.661,72.11,67.411,72.187,66.957
52.064,44.696,67.809,63.496,69.14,65.161,69.758,62.116
50.198,42.924,68.273,61.547,71.27,63.312,66.793,59.218
48.137,41.253,66.452,58.402,70.621,60.21,64.653,58.369
49.288,42.04,62.841,57.448,65.316,58.962,64.793,59.727
49.967,44.756,59.288,58.926,60.2,60.636,64.871,61.419
47.034,45.309,56.369,59.108,58.054,62.035,62.45,61.49
44.718,43.075,53.595,56.416,56.281,60.407,57.978,59.779
45.082,39.97,49.29,51.857,50.993,55.406,53.29,55.977
44.703,37.245,44.102,47.828,44.153,49.836,50.725,51.002
42.346,35.332,40.754,45.29,41.002,46.361,50.172,47.094
39.8,32.958,38.157,41.717,39.999,43.501,48.141,43.245
37.681,29.343,34.358,36.488,37.19,40.069,43.725,37.717
36.109,26.114,31.701,32.709,34.764,37.433,40.668,33.794
35.737,24.162,31.434,31.14,34.466,35.042,40.899,34.549
35.729,23.267,30.935,29.87,33.199,31.964,41.747,36.491
34.415,23.976,29.419,28.903,29.879,29.881,41.251,35.175
31.241,24.681,28.634,28.549,27.298,28.721,40.612,31.945
26.165,20.925,28.563,27.322,27.01,26.535,40.541,31.143
20.943,13.141,28.53,25.759,28.545,25.212,40.359,34.297
19.989,9.694,29.749,26.448,31.86,27.661,40.763,38.788
25.222,16.148,32.828,29.318,36.187,31.934,43.225,40.878
32.669,27.309,35.955,32.688,38.721,35.419,46.708,39.585
36.518,33.38,36.912,35.625,37.487,38.099,47.546,37.045
34.687,30.08,35.366,35.87,34.238,37.798,43.406,35.299
30.13,22.147,33.181,32.392,32.511,32.845,36.582,34.098
26.529,16.469,31.672,28.698,32.9,27.641,31.573,31.745
24.919,14.959,29.963,26.996,32.714,25.159,29.856,27.796
25.673,17.281,28.134,25.731,30.846,23.045,29.591,24.42
28.126,22.461,28.065,25.157,28.976,21.796,29.828,23.673
29.291,25.956,29.378,26.357,27.518,23.641,31.09,24.404
28.502,23.681,29.284,26.691,25.044,25.097,31.86,23.771
28.435,18.123,27.005,23.258,22.099,21.615,29.754,21.195
29.301,14.714,24.228,17.4,21.332,15.129,25.403,18.533
28.203,14.282,21.752,12.788,22.602,11.146,21.203,16.583
25.371,14.536,19.574,12.094,22.273,12.091,19.701,15.596
25.423,16.255,18.832,15.305,19.688,15.813,22.493,17.65
29.314,19.811,19.542,18.753,18.347,18.524,26.337,22.287
31.635,20.825,18.755,17.603,18.476,17.729,25.12,22.841
29.544,17.725,15.226,11.747,17.174,13.636,17.846,14.469
26.054,14.731,12.001,5.972,15.283,8.629,9.75,2.906
22.527,13.026,10.389,2.736,14.109,4.466,5.116,-3.363
16.98,9.643,8.038,0.489,11.245,1.487,3.386,-4.923
11.66,6.835,5.88,0.205,7.531,1.769,3.294,-5.527
12.434,11.047,7.415,4.494,7.375,6.903,4.754,-4.038
17.725,18.971,10.141,8.958,9.077,11.274,5.515,-0.748
19.493,18.857,8.933,7.051,7.612,8.652,3.439,0.637
16.528,10.524,5.952,2.77,4.622,3.841,1.191,0.413
14.91,6.571,6.616,4.01,4.64,4.698,2.126,1.625
17.274,11.442,10.203,8.714,7.188,9.284,4.917,4.247
20.709,16.52,11.909,10.14,8.552,11.324,6.211,6.494
21.917,14.924,9.562,7.118,6.349,8.752,4.228,5.106
20.417,9.571,4.998,2.273,1.645,2.804,-0.665,-3.615
18.735,7.61,1.657,-1.236,-1.968,-2.467,-5.131,-14.732
18.893,10.975,1.029,-0.922,-2.761,-2.442,-5.731,-17.356
18.703,14.432,1.273,1.522,-2.461,1.144,-3.682,-11.529
14.63,12.545,0.476,2.334,-2.715,2.656,-2.136,-7.124
7.698,4.985,-0.707,1.561,-3.131,1.416,-1.576,-7.165
2.612,-3.695,-1.533,0.73,-3.474,0.044,-1.986,-7.555
1.525,-8.153,-3.223,-1.002,-4.902,-1.088,-4.307,-7.841
3.125,-6.913,-6.432,-3.897,-7.713,-2.348,-7.731,-10.325
5.901,-2.14,-10.018,-6.945,-10.721,-3.976,-11.195,-14.508
7.576,1.843,-13.419,-11.171,-13.84,-8.018,-15.514,-18.067
4.717,-0.238,-17.187,-17.977,-18.009,-15.825,-19.711,-19.82
-3.582,-9.865,-21.347,-25.906,-22.643,-24.937,-21.91,-21.735
-13.659,-21.097,-25.081,-32.242,-26.027,-31.702,-24.396,-26.681
-19.591,-25.142,-27.307,-35.201,-27.205,-34.455,-29.089,-32.264
-18.286,-21.058,-27.318,-34.605,-26.411,-33.551,-32.254,-32.934
-13.713,-17.984,-25.762,-32.553,-25.2,-31.313,-31.153,-29.281
-12.653,-22.375,-24.389,-31.207,-25.665,-30.035,-28.811,-27.03
-15.283,-29.141,-24.026,-29.767,-28.168,-28.817,-27.859,-27.359
-16.528,-30.009,-23.817,-27.058,-30.507,-26.368,-27.626,-26.972
-15.737,-25.275,-23.722,-25.781,-31.189,-25.505,-28.563,-26.481
-15.66,-21.966,-25.729,-29.569,-32.225,-29.771,-31.888,-29.629
-15.191,-22.539,-29.335,-35.34,-34.375,-35.799,-35.188,-35.115
-13.453,-24.888,-31.032,-36.589,-34.84,-36.932,-35.413,-38.13
-14.249,-30.124,-31.027,-35.01,-33.613,-35.26,-34.583,-38.616
-17.905,-36.544,-31.739,-36.026,-32.619,-36.718,-36.135,-39.491
-19.528,-37.292,-33.055,-38.196,-32.052,-39.532,-39.295,-41.068
-18.801,-33.206,-35.336,-39.001,-34.059,-40.943,-41.627,-43.347
-20.002,-30.983,-38.826,-40.206,-39.47,-42.839,-43.039,-47.03
-23.448,-30.093,-40.846,-41.713,-43.33,-44.308,-44.179,-49.871
-25.463,-27.339,-39.964,-40.914,-42.746,-42.241,-43.623,-48.465
-25.72,-27.085,-39.259,-39.927,-41.67,-39.955,-41.566,-44.989
-27.673,-32.993,-41.894,-43.117,-43.671,-42.896,-42.384,-45.453
-30.326,-37.564,-45.01,-47.15,-45.686,-47.468,-46.219,-49.034
-27.732,-32.559,-42.952,-44.905,-42.873,-45.955,-46.171,-48.708
-19.355,-22.706,-36.714,-38.223,-37.004,-39.923,-40.332,-43.594
-12.038,-17.857,-32.365,-35.306,-33.297,-37.262,-35.211,-39.111
-10.028,-18.039,-31.524,-37.474,-32.026,-39.275,-34.718,-38.015
-11.63,-18.815,-32.235,-40.03,-31.45,-41.927,-37.111,-40.678
-15.146,-22.769,-34.598,-42.451,-32.663,-44.806,-41.499,-46.675
-20.792,-32.006,-39.492,-47.051,-36.778,-49.185,-48.36,-52.813
-28.066,-40.895,-46.696,-52.638,-44.131,-53.679,-55.602,-56.831
-34.712,-44.501,-54.232,-56.044,-53.223,-56.708,-59.708,-59.604
-38.036,-44.435,-58.548,-56.532,-58.951,-57.995,-59.645,-61.133
-37.421,-44.288,-58.785,-56.532,-59.37,-58.048,-57.371,-60.763
-34.595,-43.382,-57.552,-57.564,-58.521,-57.894,-55.552,-59.927
-31.311,-38.422,-55.799,-57.067,-57.642,-56.971,-55.1,-59.786
-27.967,-30.592,-51.895,-52.476,-53.268,-54.001,-54.419,-58.786
-24.876,-24.762,-46.686,-46.362,-46.616,-51.54,-52.222,-55.625
-23.771,-23.349,-44.287,-43.549,-44.419,-53.196,-49.8,-52.096
-26.012,-25.457,-45.377,-44.136,-47.505,-56.574,-48.329,-50.616
-30.801,-29.977,-46.119,-44.652,-49.652,-57.324,-47.458,-51.419
-36.394,-36.432,-45.255,-45.083,-48.663,-56.773,-47.865,-52.986
-41.9,-43.366,-45.753,-47.894,-48.195,-58.115,-50.658,-54.008
-46.954,-47.985,-48.829,-51.234,-50.019,-59.477,-54.044,-54.242
-49.904,-48.237,-50.727,-50.174,-51.233,-56.932,-54.194,-52.466
-49.76,-46.426,-48.749,-45.603,-49.554,-52.726,-50.604,-47.771
-48.901,-47.034,-46.835,-43.829,-47.875,-52.426,-47.619,-44.038
-50.096,-49.731,-49.55,-47.257,-50.28,-56.186,-48.948,-46.405
-52.21,-50.732,-54.219,-52.227,-55.067,-60.01,-52.535,-52.296
-51.74,-48.958,-54.301,-53.03,-55.943,-59.745,-52.576,-53.357
-49.039,-46.438,-49.523,-48.551,-51.33,-55.033,-48.714,-48.968
-47.987,-45.694,-47.09,-46.055,-47.874,-52.714,-48.263,-47.742
-48.892,-47.148,-50.864,-51.084,-50.974,-57.468,-54.133,-52.714
-49.031,-47.636,-56.268,-58.321,-57.012,-63.416,-59.898,-57.519
-48.758,-45.014,-58.999,-61.055,-60.363,-64.646,-61.035,-58.502
-50.544,-43.434,-60.799,-60.816,-62.067,-64.045,-60.284,-59.002
-54.304,-47.797,-63.222,-61.138,-64.826,-64.727,-60.026,-59.913
-57.38,-55.342,-63.591,-60.768,-66.285,-63.788,-58.546,-56.532
-58.503,-59.698,-60.896,-58.481,-64.005,-60.38,-55.555,-49.457
-60.124,-60.858,-59.743,-58.1,-61.823,-60.23,-55.292,-47.96
-63.594,-62.258,-63.58,-61.223,-64.835,-64.278,-59.407,-54.677
-65.007,-61.689,-67.653,-61.93,-69.749,-64.254,-61.594,-58.649
-62.345,-57.075,-66.129,-58.12,-69.235,-58.868,-57.664,-53.202
-60.617,-54.068,-62.664,-56.883,-65.565,-58.005,-54.308,-48.259
-63.733,-57.653,-64.468,-61.98,-67.093,-65.034,-58.65,-55.29
-68.207,-64.421,-69.848,-68.284,-72.545,-72.144,-66.785,-68.94
-69.032,-67.532,-70.97,-70.151,-72.958,-73.367,-70.243,-74.441
-66.541,-64.896,-66.261,-67.576,-67.28,-70.615,-67.694,-70.07
-64.466,-61.325,-61.808,-64.499,-63.143,-68.435,-63.99,-66.927
-65.643,-62.361,-61.489,-63.774,-63.97,-68.248,-62.098,-68.167
-69.879,-66.639,-62.38,-64.217,-65.267,-68.143,-61.352,-67.367
-72.797,-68.377,-60.826,-63.445,-63.169,-67.018,-60.47,-63.96
-70.524,-66.689,-57.962,-61.823,-59.895,-66.071,-58.709,-62.794
-64.346,-64.432,-55.811,-60.1,-58.323,-65.018,-55.751,-62.96
-57.074,-60.652,-52.986,-56.851,-56.816,-61.597,-52.355,-60.052
-50.636,-53.82,-48.81,-52.311,-53.836,-56.458,-50.553,-55.53
-47.51,-47.451,-46.182,-49.938,-51.699,-53.803,-51.578,-54.771
-48.437,-46.01,-47.093,-51.221,-52.256,-55.567,-54.229,-58.226
-50.908,-49.696,-49.844,-52.675,-54.307,-57.735,-56.664,-61.11
-52.699,-54.385,-51.671,-50.64,-55.82,-55.443,-57.819,-60.282
-53.996,-55.793,-51.75,-47.245,-55.706,-51.097,-57.143,-57.398
-55.014,-54.041,-51.461,-47.321,-54.92,-51.11,-55.019,-55.779
-54.736,-52.048,-51.865,-50.418,-55.258,-54.893,-52.74,-55.688
-53.572,-51.898,-52.558,-52.392,-56.575,-56.555,-52.019,-54.963
-53.177,-53.227,-53.247,-52.604,-57.311,-55.418,-53.385,-52.975
-53.693,-53.813,-54.363,-53.016,-57.758,-55.067,-54.893,-50.484
-54.795,-54.348,-56.705,-54.008,-60.836,-55.943,-55.484,-49.017
-57.146,-58.212,-60.374,-55.861,-66.488,-57.074,-57.283,-52.136
-61.724,-65.578,-64.951,-60.635,-71.059,-60.717,-61.309,-61.172
-67.865,-72.905,-70.394,-68.248,-74.627,-68.014,-64.636,-70.008
-70.935,-74.644,-73.442,-73.03,-76.745,-73.314,-64.111,-71.177
-66.914,-67.769,-69.542,-70.092,-72.678,-70.532,-60.342,-65.143
-59.777,-58.318,-62.006,-62.945,-64.603,-62.58,-56.904,-58.358
-55.631,-54.039,-57.441,-57.881,-59.553,-56.675,-55.584,-55.121
-53.353,-53.647,-55.248,-55.653,-57.126,-54.671,-54.637,-54.818
-51.015,-52.986,-52.599,-54.198,-54.667,-54.298,-52.998,-55.196
-52.585,-52.955,-51.213,-53.586,-54.18,-54.712,-52.052,-55.638
-59.501,-55.491,-52.446,-54.515,-56.024,-56.366,-52.398,-56.301
-66.158,-58.821,-54.406,-56.079,-57.648,-58.784,-52.855,-56.411
-68.323,-59.625,-56.039,-57.168,-59.325,-60.664,-52.883,-56.008
-66.821,-56.988,-57.063,-56.755,-61.453,-59.979,-52.932,-56.038
-63.27,-53.936,-56.522,-54.111,-61.805,-55.862,-53.097,-55.455
-58.901,-54.716,-55.106,-50.871,-60.295,-51.199,-53.098,-51.541
-56.144,-58.191,-54.53,-49.43,-58.786,-49.232,-52.95,-45.076
-57.684,-59.917,-55.968,-51.239,-58.356,-50.882,-54.275,-43.9
-62.917,-61.311,-60.304,-56.817,-60.856,-56.078,-58.75,-53.593
-68.411,-65.523,-65.905,-63.021,-66.587,-61.874,-63.918,-66.621
-72.94,-68.917,-68.826,-65.021,-71.366,-63.732,-65.493,-71.924
-76.905,-66.773,-68.14,-62.888,-72.197,-61.72,-63.845,-68.958
-79.356,-62.964,-67.633,-61.284,-72.166,-60.259,-63.575,-64.937
-79.989,-65.734,-70.635,-64.164,-74.906,-63.057,-67.596,-65.885
-79.624,-73.153,-75.267,-70.252,-78.522,-68.772,-73.364,-71.04
-79.152,-75.509,-77.232,-73.264,-79.686,-70.881,-75.397,-73.821
-80.516,-73.644,-76.778,-71.356,-79.821,-67.77,-73.354,-72.283
-84.733,-76.983,-78.199,-70.946,-82.308,-67.04,-73.061,-72.272
-88.753,-84.912,-81.655,-74.256,-85.796,-71.335,-75.625,-75.048
-88.694,-87.981,-82.576,-75.305,-85.725,-73.63,-75.656,-74.724
-85.735,-84.145,-80.087,-72.885,-82.358,-71.733,-72.739,-70.844
-83.383,-78.866,-76.899,-71.553,-79.581,-70.096,-70.999,-69.03
-80.632,-74.542,-72.469,-70.842,-76.475,-68.674,-69.017,-69.461
-75.944,-71.278,-66.227,-67.979,-70.523,-65.424,-64.035,-67.356
-73.081,-70.722,-62.611,-65.862,-65.294,-63.987,-60.732,-64.26
-74.649,-73.044,-65.311,-68.612,-66.038,-68.041,-64.402,-67.394
-76.744,-75.482,-71.184,-73.676,-71.862,-73.198,-70.722,-75.279
-74.29,-74.127,-72.998,-74.749,-75.241,-72.949,-71.33,-76.72
-68.085,-68.613,-68.53,-71.161,-71.278,-68.856,-66.491,-69.422
-64.7,-64.536,-64.275,-67.731,-66.237,-66.131,-63.162,-63.939
-66.759,-64.459,-64.374,-65.791,-66.283,-64.113,-63.362,-64.543
-68.121,-63.942,-63.455,-62.022,-65.458,-59.329,-63.364,-63.686
-64.022,-60.22,-57.554,-55.083,-58.489,-51.63,-60.482,-57.249
-56.943,-53.676,-50.331,-46.794,-50.831,-42.631,-55.049,-49.69
-50.868,-45.78,-45.98,-39.929,-48.582,-35.037,-48.944,-45.032
-48.625,-41.686,-46.362,-37.95,-52.229,-33.506,-44.386,-43.397
-50.282,-43.766,-50.396,-40.665,-57.96,-37.797,-42.514,-43.046
-51.069,-45.661,-52.569,-42.143,-59.515,-39.925,-41.785,-41.214
-48.433,-43.173,-50.281,-39.932,-55.702,-36.701,-40.397,-37.618
-46.318,-40.556,-47.996,-38.134,-52.306,-33.874,-40.066,-35.97
-46.335,-40.241,-47.908,-37.881,-51.661,-33.651,-41.762,-37.536
-45.229,-39.309,-46.853,-36.372,-50.612,-32.98,-42.399,-39.058
-43.664,-37.985,-44.497,-33.778,-49.316,-31.537,-41.143,-39.425
-44.846,-39.216,-43.565,-32.347,-49.943,-30.911,-40.832,-40.021
-45.453,-40.327,-43.242,-32.059,-49.912,-30.874,-41.434,-39.527
-40.1,-36.501,-39.988,-30.682,-45.357,-29.341,-39.361,-35.476
-30.389,-28.505,-32.549,-26.065,-36.626,-23.916,-32.563,-27.956
-21.318,-20.341,-24.131,-19.51,-28.145,-16.206,-24.096,-20.695
-15.058,-15.629,-19.924,-16.282,-24.754,-12.53,-20.005,-19.305
-11.462,-14.513,-19.998,-17.779,-25.208,-14.482,-21.693,-23.821
-10.443,-13.464,-19.835,-19.124,-23.977,-16.747,-24.816,-27.925
-11.832,-12.568,-19.28,-18.629,-21.618,-17.992,-26.435,-28.39
-14.072,-15.059,-21.379,-18.902,-23.246,-20.914,-27.044,-26.651
-15.41,-19.499,-24.62,-19.357,-27.867,-23.55,-27.227,-23.938
-14.861,-21.16,-25.018,-17.381,-29.571,-22.253,-26.454,-21.441
-12.261,-19.078,-23.047,-14.404,-27.261,-18.812,-25.641,-21.298
-9.624,-15.894,-22.683,-13.972,-25.755,-17.256,-26.973,-23.523
-9.314,-12.752,-24.436,-14.801,-27.343,-16.961,-27.713,-23.127
-10.193,-9.585,-24.131,-12.272,-27.47,-14.588,-22.339,-15.205
-8.945,-7.252,-20.144,-6.893,-22.838,-10.56,-12.887,-3.57
-5.415,-6.379,-16.747,-4.591,-18.25,-9.136,-7.064,2.403
-2.952,-6.441,-16.844,-7.416,-17.752,-11.881,-7.121,-0.23
-2.513,-6.527,-17.413,-10.582,-17.344,-14.742,-8.548,-6.228
-2.256,-6.568,-16.206,-11.094,-14.444,-14.699,-8.26,-10.795
-2.174,-5.891,-15.236,-10.837,-12.798,-13.435,-7.864,-13.033
-2.589,-2.919,-15.111,-9.725,-13.158,-11.553,-8.87,-13.421
-2.701,-0.329,-14.866,-7.08,-12.507,-8.605,-10.858,-13.51
-4.14,-3.856,-16.482,-8.005,-12.622,-9.277,-14.207,-15.589
-7.809,-10.668,-19.926,-14.246,-15.66,-15.992,-17.419,-18.287
-9.409,-10.893,-19.171,-16.578,-16.193,-19.806,-15.407,-16.605
-6.598,-4.96,-12.296,-10.34,-10.367,-14.606,-7.963,-10.218
-3.945,-2.909,-5.95,-3.592,-3.518,-7.947,-2.642,-5.061
-5.817,-6.685,-4.706,-1.745,-0.815,-5.904,-4.059,-4.33
-9.375,-9.134,-5.909,-0.693,-1.554,-4.214,-7.606,-5.044
-7.912,-6.814,-5.732,2.843,-3.65,0.003,-7.079,-4.099
-0.352,-2.358,-3.353,6.604,-4.746,3.139,-2.846,-1.839
7.645,1.542,0.069,8.674,-2.728,3.407,1.181,0.942
11.758,3.904,2.282,9.985,0.21,3.266,2.884,4.118
12.126,4.31,1.454,10.666,0.28,3.774,1.791,6.042
9.783,1.845,-1.633,8.655,-2.079,2.647,-0.74,4.876
5.502,-3.187,-4.755,3.832,-4.637,-1.193,-1.648,1.902
1.912,-6.257,-6.477,0.5,-6.784,-4.239,-0.057,0.052
1.706,-3.361,-6.792,1.823,-8.245,-2.955,0.956,-0.766
3.621,2.983,-6.564,5.26,-8.14,1.117,-1.061,-2.187
4.195,6.492,-6.369,6.436,-6.403,3.704,-4.398,-2.917
2.73,4.495,-6.218,4.633,-4.883,3.288,-6.633,-2.549
2.251,1.847,-5.58,3.138,-4.735,2.434,-7.707,-3.708
5.062,3.563,-3.866,3.687,-4.175,2.662,-7.962,-6.247
8.348,7.197,-1.431,4.654,-1.329,2.804,-6.547,-7.224
7.477,8.16,0.385,5.328,2.344,2.888,-3.557,-5.629
3.028,5.36,0.653,5.311,3.953,2.742,-1.18,-3.223
0.543,1.86,1.832,4.843,5.067,2.333,1.164,-1.131
3.459,2.731,7.774,7.05,10.122,4.689,6.932,2.342
9.12,7.082,16.063,11.665,17.306,9.927,13.772,6.45
12.515,8.487,19.59,13.655,20.045,13.183,15.238,7.317
11.673,5.956,16.392,11.959,16.991,12.75,10.848,5.696
8.18,3.913,10.907,9.669,12.122,11.031,5.216,5.094
4.76,4.566,7.236,7.752,8.238,8.983,1.466,4.861
2.941,7.056,5.262,6.17,4.978,7.16,-0.28,3.445
1.972,8.322,2.369,5.416,0.778,6.529,-1.477,1.874
1.977,7.239,-1.227,4.646,-3.287,5.708,-2.41,1.272
5.495,8.965,-1.845,4.176,-3.66,4.784,-1.544,2.295
11.008,14.794,-0.065,4.517,-1.445,5.462,-0.403,2.882
12.176,15.814,-1.431,1.73,-2.16,3.729,-3.358,-2.001
8.376,8.518,-5.889,-5.676,-5.444,-4.054,-9.211,-10.662
6.316,2.631,-6.86,-9.64,-5.637,-10.011,-11.309,-13.655
8.295,4.315,-2.949,-3.765,-2.99,-5.094,-7.49,-7.807
9.116,7.283,-0.185,5.276,-2.573,5.196,-3.135,-0.315
6.145,6.813,-2.044,8.242,-5.128,9.988,-3.623,2.306
2.421,5.987,-6.855,5.959,-9.202,9.007,-9.058,0.025
-1.193,4.88,-14.332,1.605,-16.464,5.748,-17.272,-5.295
-7.122,0.19,-25.169,-6.377,-27.698,-1.808,-25.571,-12.454
-14.113,-5.921,-35.188,-16.294,-38.05,-12.437,-30.392,-18.957
-17.893,-9.067,-38.078,-21.719,-40.848,-18.721,-30.026,-21.204
-17.508,-8.751,-32.971,-20.048,-35.084,-17.41,-25.586,-17.867
-15.32,-6.636,-24.522,-13.835,-25.974,-11.282,-19.595,-11.975
-12.613,-4.428,-16.953,-6.777,-18.315,-3.639,-14.185,-7.194
-9.214,-3.237,-11.001,-2.812,-12.779,1.63,-9.613,-4.436
-7.183,-3.769,-6.122,-3.701,-8.464,1.45,-5.661,-3.575
-8.931,-6.674,-2.144,-5.43,-4.588,-0.595,-2.493,-3.534
-12.017,-10.771,0.567,-4.558,-1.118,0.076,-0.303,-3.25
-12.977,-12.565,0.377,-4.536,-0.492,0.291,0.238,-3.861
-12.133,-10.34,-2.588,-7.2,-3.309,-2.283,-0.424,-4.814
-9.473,-6.469,-3.541,-7.585,-3.775,-2.582,0.321,-2.457
-3.888,-2.856,0.477,-3.107,1.475,2.171,3.453,3.676
1.234,1.192,4.902,1.866,6.097,7.512,5.599,8.817
2.134,5.592,5.825,4.229,5.621,9.861,3.985,9.986
0.819,8.235,5.815,6.446,4.22,11.264,0.969,9.689
-1.531,6.894,5.621,9.207,3.066,13.222,-0.713,9.149
-5.404,3.465,3.185,9.894,-0.506,14.197,-1.43,6.489
-7.526,2.577,1.006,8.298,-3.028,13.087,-1.288,2.902
-6.514,4.357,2.275,6.556,-0.164,10.594,0.696,2.05
-5.052,6.542,5.056,6.95,4.777,10.025,4.034,5.404
-4.038,8.733,5.361,7.65,5.512,10.936,5.548,9.337
-2.563,10.261,2.291,3.593,0.901,7.413,2.82,7.984
-1.052,10.253,-1.134,-3.424,-4.452,0.643,-1.602,1.925
-1.403,7.387,-2.639,-7.454,-6.557,-2.895,-3.874,-2.828
-4.011,0.722,-2.739,-8.148,-5.295,-3.107,-3.381,-3.219
-6.491,-5.637,-1.47,-7.378,-1.881,-2.201,-0.722,0.165
-6.344,-5.66,2.27,-4.973,3.111,0.356,3.57,5.336
-3.306,-0.685,7.864,-2.137,9.077,3.506,7.865,8.724
0.5,2.25,12.391,-1.46,13.85,4.428,10.409,7.93
2.718,1.982,14.065,-2.05,15.284,3.853,10.96,5.067
3.323,3.482,14.193,-1.002,14.485,4.732,10.806,4.194
4.141,6.666,14.299,0.627,13.869,5.951,11.493,6.252
5.896,7.182,13.915,0.597,13.391,5.444,12.975,9.044
6.597,5.615,12.322,0.497,12.153,5.666,13.45,10.906
4.494,5.153,10.019,1.326,10.924,7.662,11.794,11.553
2.367,5.977,8.097,1.351,10.174,8.199,9.834,11.67
3.879,7.266,7.564,1.594,9.166,7.77,10.458,13.412
6.983,9.051,9.218,4.956,9.082,10.412,13.468,17.4
9.124,12.192,13.529,10.87,12.427,15.622,16.641,20.469
13.135,17.245,19.951,17.222,18.576,20.435,19.823,21.464
19.189,21.179,26.102,22.764,24.155,24.447,23.617,24.311
21.469,20.771,29.269,26.408,27.042,28.025,26.991,30.857
17.896,17.894,29.082,27.829,27.424,30.675,29.125,36.46
12.266,14.652,26.585,25.651,25.877,29.99,29.708,34.769
7.722,10.885,22.854,19.051,23.313,24.197,28.656,25.8
5.182,8.843,20.481,12.81,22.962,17.435,27.336,17.584
4.984,11.045,21.948,12.278,27.288,16.1,27.082,16.096
7.266,15.112,25.487,16.386,32.013,21.126,28.365,19.036
9.915,15.814,27.079,20.442,31.206,27.243,30.827,22.646
9.079,10.77,26.527,21.9,27.687,29.373,32.495,26.205
5.597,3.815,26.775,22.252,27.557,28.657,32.522,28.911
3.82,1.254,28.267,23.966,29.654,29.217,32.677,29.305
3.398,4.602,29.515,26.724,30.923,31.244,34.229,29.066
0.74,9.655,30.376,28.33,32.323,32.128,36.005,32.132
-4.354,10.979,30.393,27.899,33.062,31.551,35.273,37.282
-8.642,7.26,28.066,25.488,30.003,29.877,30.743,36.537
-10.153,1.973,24.028,20.977,24.711,25.607,25.214,26.523
-9.803,-1.515,21.195,16.363,22.127,19.819,22.782,15.89
-8.297,-1.901,20.846,14.285,22.973,16.329,23.272,12.926
-5.22,0.634,21.68,14.068,24.179,15.941,23.428,14.879
-1.223,4.484,22.153,13.999,24.001,17.325,22.48,16.173
1.903,8.039,21.007,13.563,22.017,19.422,21.492,15.646
3.324,10.279,17.752,12.148,18.458,19.897,19.47,13.946
3.651,9.884,13.619,9.92,14.622,17.476,15.371,11.905
3.477,6.946,10.62,8.58,11.125,15.002,12.647,11.492
2.513,4.713,10.532,8.996,9.029,15.172,15.45,14.174
-0.136,5.411,13.15,10.053,10.289,16.486,20.883,17.779
-3.896,7.115,15.786,10.617,13.685,16.587,22.846,18.988
-4.905,8.176,17.7,11.355,16.843,16.292,21.384,18.63
-0.635,9.771,20.514,13.945,20.07,18.229,20.616,19.626
5.109,11.946,23.169,17.883,22.99,22.023,21.2,21.703
7.279,11.841,23.322,19.779,23.733,23.546,20.687,22.457
6.182,8.058,22.05,18.36,22.858,21.463,18.61,21.895
5.575,4.836,22.877,17.553,23.54,20.512,18.259,23.706
7.203,6.774,26.973,20.453,27.091,23.751,22.14,30.037
9.286,10.245,30.638,23.665,30.336,26.908,26.87,35.207
10.554,10.018,30.799,23.754,30.77,26.764,28.03,32.329
12.151,9.048,29.509,22.21,30.172,25.664,26.033,24.397
13.266,10.173,27.638,19.1,28.727,23.3,22.038,18.102
11.607,10.226,22.804,13.724,23.864,18.098,16.415,13.724
8.955,8.81,16.531,10.219,17.131,14.461,11.528,9.72
7.726,9.111,13.372,11.654,13.36,16.425,8.914,7.944
5.067,9.131,12.961,13.817,12.516,19.53,7.587,9.572
-0.72,4.042,11.454,11.592,10.631,17.277,7.113,11.912
-4.471,-2.972,9.677,7.863,8.748,12.628,7.797,12.349
-2.69,-4.015,10.984,8.875,10.374,13.224,9.129,12.863
1.154,0.802,13.941,13.636,13.19,18.392,11.024,17.32
3.276,4.647,15.176,16.054,13.93,21.446,13.218,23.715
3.051,4.153,14.313,13.475,13.978,19.534,13.379,23.684
1.569,2.462,12.93,8.96,14.964,15.777,10.865,15.401
1.091,4.28,13.029,7.428,16.463,14.79,9.439,9.61
2.316,7.912,14.912,8.999,17.44,16.348,11.335,13.413
3.061,6.297,16.359,8.676,17.143,15.839,13.791,19.319
2.462,-0.506,17.106,6.072,17.3,13.656,15.384,20.05
1.92,-4.163,19.328,6.966,20.201,15.499,18.077,19.256
1.506,-2.02,21.888,11.573,23.356,20.356,20.998,21.076
1.776,1.713,22.349,14.323,23.426,21.964,21.441,24.111
4.899,6.045,22.172,14.223,22.415,20.339,19.635,25.576
9.357,11.701,22.946,14.049,23.144,19.425,16.92,23.472
11.805,16.733,23.685,15.16,24.416,20.696,15.205,20.413
12.899,19.826,23.817,17.632,23.892,23.781,16.4,22.509
14.031,21.315,24.187,20.962,22.792,27.461,18.439,28.597
14.704,22.051,25.459,23.89,24.093,29.935,18.363,29.74
15.26,23.592,26.404,24.188,25.791,29.143,17.224,23.234
16.799,26.17,25.937,21.798,24.349,25.893,16.772,17.097
19.847,28.532,25.949,20.643,22.701,24.913,17.19,17.568
22.955,29.183,26.955,21.525,23.723,26.345,18.212,20.67
23.366,26.371,25.721,20.696,23.432,25.216,18.409,20.137
22.359,22.848,23.613,19.693,21.315,23.364,17.753,18.156
23.137,24.041,26.602,22.647,23.978,25.655,18.675,19.921
22.673,25.965,31.82,24.233,30.137,26.487,19.979,21.498
17.505,21.246,30.548,18.243,30.173,19.571,18.318,17.532
13.435,15.528,25.484,12.208,24.718,13.306,16.525,14.463
16.054,17.435,26.11,15.33,23.968,17.559,19.143,19.902
19.197,21.166,30.253,21.382,28.28,25.751,22.172,27.343
14.853,16.906,27.973,18.921,27.816,25.32,18.359,24.909
5.812,7.356,18.893,8.895,19.931,15.869,9.09,12.611
-0.965,0.816,10.661,0.237,11.033,6.054,0.74,0.188
-4.719,-2.362,5.805,-3.683,4.596,0.604,-4.83,-6.262
-7.114,-5.255,2.202,-5.222,-0.271,-1.944,-7.794,-7.402
-5.362,-4.379,1.645,-4.409,-1.802,-2.135,-6.356,-5.546
2.795,3.917,7.987,1.757,3.512,3.144,0.001,-0.545
11.824,13.917,18.88,12.418,13.857,13.86,8.411,9.112
15.642,18.775,27.641,21.89,23.083,23.756,15.59,21.565
16.583,19.407,30.868,25.527,26.915,26.83,20.195,30.283
18.023,17.706,28.71,22.508,24.346,22.479,21.123,29.488
18.575,14.712,23.576,16.51,18.3,16.006,18.297,22.675
18.329,14.841,19.634,13.203,14.298,13.819,14.893,19.657
18.6,17.94,17.672,12.365,13.268,14.212,12.739,21.045
17.26,16.471,14.321,8.075,10.557,9.386,9.544,17.838
12.743,8.278,9.825,0.22,5.705,-0.334,5.048,9.091
7.377,0.459,8.941,-3.721,4.271,-5.611,3.37,4.61
4.078,-0.946,12.459,-0.458,7.263,-2.409,6.619,8.896
4.337,3.388,16.555,5.648,10.333,4.425,11.567,15.441
7.087,8.426,18.706,9.362,11.879,8.717,13.337,16.254
8.159,8.167,17.893,7.549,12.087,6.51,9.922,9.942
6.02,1.592,14.636,1.294,10.578,-0.76,4.478,2.287
4.918,-4.285,12.272,-3.012,9.091,-5.527,2.194,-0.487
7.271,-3.837,12.665,-1.746,9.68,-3.669,3.864,1.725
9.832,-0.236,13.843,1.384,11.499,0.835,5.887,5.433
10.56,2.816,14.535,3.272,12.986,4.232,6.085,8.486
10.892,6.079,15.53,5.267,13.661,6.958,5.525,10.555
10.496,8.04,16.07,7.27,12.827,8.607,4.821,10.979
7.488,5.323,14.461,5.96,10.374,6.415,2.819,7.718
3.314,0.202,11.772,1.202,8.314,0.577,-0.093,1.51
2.023,-0.972,10.406,-1.812,8.537,-3.614,-2.233,-2.812
5.501,3.587,10.832,-0.121,10.936,-2.544,-3.607,-3.007
12.322,10.148,12.099,3.501,13.679,1.514,-3.556,-1.249
19.79,15.567,13.43,7.339,14.439,6.777,-0.398,0.311
25.519,19.926,14.907,12.87,13.639,14.087,3.92,1.792
27.735,24.097,15.574,17.606,11.879,19.104,6.113,4.012
25.522,25.046,13.34,16.25,7.578,15.532,5.573,4.819
20.257,18.757,9.414,9.794,3.259,6.318,1.847,1.127
15.227,10.106,6.327,3.976,1.236,-0.732,-4.259,-4.354
12.482,7.699,4.107,1.914,-2.047,-2.711,-7.883,-4.798
11.39,10.358,4.145,3.119,-4.589,-1.197,-5.953,0.953
11.541,13.993,9.111,6.953,0.902,2.853,-0.621,6.59
14.031,19.997,17.025,13.8,11.761,10.659,5.513,8.109
16.135,23.051,21.15,19.076,17.09,17.266,9.861,8.189
12.768,14.361,17.849,15.26,12.976,12.992,10.077,9.677
6.289,1.135,12.064,6.084,7.398,2.833,7.722,10.948
3.141,-2.873,9.903,1.834,7.695,0.244,4.7,8.792
3.241,2.07,10.125,1.561,9.39,1.32,1.369,4.366
1.799,5.454,8.134,-2.135,4.867,-5.501,0.052,2.434
-2.831,1.437,2.563,-8.166,-5.166,-15.529,1.108,2.657
-5.797,-3.601,-2.041,-9.275,-12.364,-16.904,1.935,1.347
-1.426,-1.503,0.291,-4.45,-9.538,-10.493,2.931,0.747
7.374,3.693,6.936,-0.426,-0.622,-5.986,5.046,3.237
13.793,6.835,11.495,0.67,6.383,-5.45,6.737,5.753
17.137,11.25,15.135,4.911,12.169,-1.822,7.699,8.387
18.404,15.278,19.762,13.105,18.392,6.664,7.865,13.066
15.612,12.769,20.021,15.948,18.612,10.083,4.9,13.608
9.438,7.203,12.38,8.868,8.264,1.494,-1.882,4.45
5.334,6.7,4.027,1.48,-3.873,-8.825,-8.633,-5.67
7.179,11.778,3.724,3.516,-5.709,-7.5,-11.426,-6.545
11.648,16.577,8.175,9.556,-0.357,-0.014,-11.561,-3.653
13.325,17.694,8.983,10.392,0.874,0.848,-11.861,-5.031
13.022,16.841,7.132,8.415,-1.909,-3.09,-11.48,-6.418
13.883,15.523,8.061,8.356,-0.924,-4.139,-10.432,-4.387
15.495,15.294,11.489,8.341,4.654,-2.937,-11.07,-4.857
15.578,17.259,13.042,6.244,8.073,-3.609,-13.098,-9.661
12.415,16.22,10.181,3.004,4.973,-6.319,-14.69,-11.798
8.559,9.953,6.389,0.948,0.812,-7.695,-15.271,-7.843
9.612,6.707,6.571,0.862,3.214,-6.833,-15.226,-3.973
17.807,12.852,10.16,2.571,10.316,-4.244,-13.901,-4.249
30.746,25.34,14.647,7.748,15.741,1.987,-9.148,-3.435
40.157,34.294,17.166,13.755,15.755,8.108,-3.09,0.78
37.495,31.792,13.991,14.507,9.291,7.52,-1.547,3.123
28.074,23.834,8.061,12.558,2.386,4.754,-3.923,2.584
23.944,21.025,5.818,13.968,2.564,6.332,-4.762,3.22
24.457,20.741,5.334,16.231,6.077,8.259,-4.364,4.25
22.894,17.525,2.707,15.683,6.895,7.226,-5.669,3.185
20.836,16.598,0.348,15.02,6.274,6.877,-6.195,3.121
20.462,20.466,-1.116,15.763,3.982,8.167,-3.811,5.667
18.302,21.25,-4.346,14.802,-0.95,7.436,-1.936,6.265
14.977,16.864,-7.773,11.802,-4.374,4.098,-1.902,4.347
15.476,15.301,-8.591,11.38,-4.55,2.719,-0.573,5.186
18.535,17.964,-8.391,14.458,-4.423,5.079,1.349,8.009
19.398,19.083,-8.485,16.946,-3.515,7.463,-0.235,7.284
18.704,19.58,-6.63,17.993,0.93,8.124,-4.681,3.987
19.047,22.53,-3.336,18.615,5.303,7.61,-6.687,2.877
19.04,23.548,-3.234,17.562,3.249,6.022,-3.553,4.249
16.381,19.045,-6.724,15.621,-2.25,5.742,0.461,5.08
13.013,13.902,-8.925,14.792,-3.361,7.07,0.655,4.21
14.265,14.859,-6.977,14.488,-0.067,6.069,0.642,4.591
21.913,22.272,-1.075,15.939,4.833,4.683,6.117,10.307
30.164,29.833,7.87,21.943,12.953,9.368,14.926,20.437
32.887,32.605,16.931,30.012,23.058,18.601,21.326,28.563
31.083,32.389,21.866,34.703,28.216,25.043,23.325,30.421
28.276,31.368,21.549,34.321,25.748,25.444,21.503,27.426
25.511,29.014,19.232,31.825,21.377,22.771,16.819,22.543
25.019,28.504,18.747,32.387,20.598,24.111,11.754,18.174
28.818,33.15,19.877,36.216,22.078,30.526,8.003,13.732
32.663,37.674,18.596,35.074,21.186,29.005,4.368,6.513
32.455,36.61,14.543,27.11,17.423,14.7,2.227,1.126
30.762,33.155,12.508,23.418,14.187,5.615,5.134,4.916
29.24,30.578,12.985,27.415,11.459,10.311,10.475,13.205
26.047,27.709,12.009,30.346,7.336,15.385,12.615,17.044
22.253,25.236,9.539,30.012,3.56,15.368,11.25,17.509
20.359,25.321,7.688,29.873,1.488,15.872,8.338,17.706
20.046,26.659,6.498,28.896,-0.066,15.804,4.128,14.92
20.83,26.45,6.848,27.11,0.119,13.046,0.803,10.938
23.045,25.587,10.645,28.193,5.238,12.456,1.854,13.164
24.975,26.999,15.935,32.546,13.042,17.569,5.994,20.066
23.791,28.719,16.929,35.362,14.688,23.445,8.203,22.104
18.685,24.991,11.649,31.31,7.017,21.061,5.894,16.771
11.774,15.868,5.576,21.395,-0.615,9.38,0.841,9.855
6.893,8.234,4.401,13.79,-0.283,-0.699,-2.515,6.307
6.149,5.658,7.893,14.397,4.479,0.326,-1.257,7.052
7.335,4.908,12.741,20.152,8.291,8.541,1.987,9.28
8.168,4.132,16.252,24.144,10.001,13.335,2.62,9.101
11.059,7.027,17.642,23.998,9.424,11.947,1.004,7.385
18.218,15.763,18.542,22.981,7.781,10.233,1.239,7.733
25.603,24.866,20.207,23.528,6.666,10.559,4.199,8.8
27.751,27.624,21.497,23.974,5.978,9.488,6.333,7.025
25.515,25.749,21.896,23.409,6.591,7.004,5.891,4.204
23.124,25.053,21.794,22.941,8.3,5.897,4.879,3.686
20.911,25.129,19.715,21.366,6.801,4.511,3.627,3.603
18.002,22.583,15.67,18.498,1.232,2.173,1.37,2.165
16.469,19.19,13.091,18.312,-2.789,3.445,0.26,2.248
15.721,17.992,12.08,20.027,-3.786,6.545,0.773,4.509
12.683,18.012,9.442,18.252,-6.041,4.119,-0.126,6.168
10.094,18.046,6.678,15.149,-8.976,-0.635,-2.364,7.242
12.106,18.368,7.511,16.762,-8.191,1.381,-2.598,9.036
15.229,18.539,10.887,21.987,-3.444,9.791,-0.784,11.019
13.605,18.205,12.584,24.97,1.124,16.346,-0.529,11.14
7.145,16.154,8.929,21.132,-1.34,13.216,-3.068,5.959
-0.473,9.784,0.578,11.283,-12.455,1.202,-6.164,-3.338
-6.848,0.327,-6.681,2.836,-22.971,-8.002,-8.599,-9.392
-12.187,-7.524,-9.809,0.738,-27.002,-7.658,-10.37,-10.057
-17.007,-12.059,-10.627,1.191,-27.884,-5.525,-10.591,-9.494
-19.525,-13.437,-9.313,-0.238,-26.133,-8.51,-8.802,-8.67
-18.216,-11.354,-5.722,-2.459,-21.058,-12.701,-5.981,-6.783
-14.348,-7.571,-2.118,-2.459,-16.785,-12.747,-2.896,-4.453
-9.277,-3.798,0.845,1.09,-15.241,-8.813,0.574,-1.265
-4.383,-0.063,3.377,5.536,-14.574,-4.987,2.313,1.384
-1.55,2.182,4.015,6.475,-14.301,-4.55,-0.935,-0.283
-0.171,2.703,3.341,4.972,-14.097,-5.738,-6.392,-4.834
1.034,3.984,3.839,4.882,-13.166,-6.124,-7.659,-6.062
0.977,5.362,5.265,5.653,-12.39,-6.359,-4.522,-2.516
-1.058,3.924,6.172,6.676,-12.262,-4.745,-1.64,1.376
-3.397,1.188,7.51,10.506,-10.979,1.394,-0.319,2.716
-4.32,0.731,10.24,16.188,-7.549,8.223,0.627,2.607
-4.071,1.831,12.162,18.672,-4.704,9.797,0.349,3.134
-3.465,2.099,10.931,16.77,-5.957,6.923,-1.226,5.089
-2.818,1.854,8.155,14.421,-10.282,5.026,-1.649,7.17
-3.414,1.026,6.818,13.939,-13.047,6.304,-0.593,7.435
-6.732,-2.935,6.129,12.963,-12.797,7.279,-0.855,5.586
-12.043,-10.573,2.874,9.074,-13.523,4.299,-3.484,2.988
-16.187,-17.22,-2.432,4.262,-18.023,-0.918,-5.46,1.34
-15.596,-17.432,-4.635,2.927,-21.896,-3.309,-3.64,2.197
-10.78,-11.266,-0.684,6.699,-19.043,-0.119,0.882,6.891
-6.761,-3.874,5.077,11.62,-12.306,5.269,3.812,12.905
-6.962,-0.884,5.249,11.144,-11.378,5.255,2.065,12.029
-10.972,-4.591,-1.033,3.665,-18.1,-3.015,-3.295,0.918
-16.227,-11.436,-6.754,-4.442,-22.987,-12.29,-8.351,-10.861
-18.09,-14.562,-6.226,-5.43,-19.832,-13.3,-9.829,-13.348
-13.303,-11.198,-0.872,1.345,-13.339,-6.216,-7.043,-8.306
-5.712,-5.128,4.434,9.279,-9.965,0.708,-2.314,-2.276
-2.441,-1.465,6.428,12.028,-10.162,1.805,0.063,1.066
-3.668,-1.699,5.27,9.371,-10.908,-1.129,-2.002,-0.099
-4.312,-4.295,3.35,5.455,-10.817,-3.859,-4.952,-4.424
-3.429,-7.634,2.599,3.425,-10.51,-5.198,-4.009,-6.901
