EEG 1,EEG 2,EEG 3,EEG 4,EEG 5,EEG 6,EEG 7,EEG 8
21.497,44.059,15.214,26.581,13.267,26.831,17.495,20.221
23.333,41.961,17.655,30.585,16.835,30.978,19.894,24.944
22.836,39.654,20.226,31.185,21.393,31.575,20.685,24.345
22.29,38.188,21.01,29.976,23.623,30.324,22.21,21.649
21.776,36.374,19.143,27.801,22.958,28.332,22.572,21.815
21,35.921,16.482,24.648,21.28,25.184,20.798,24.381
19.747,38.538,15.155,22.45,20.366,22.552,19.35,26.079
17.03,40.567,14.586,22.158,20.082,21.972,19.427,25.351
12.154,35.839,12.266,19.5,18.67,19.462,17.829,20.183
5.104,24.397,6.627,11.272,13.757,11.379,11.971,9.004
-2.059,14.916,-0.475,2.66,5.537,2.702,5.51,-2.237
-6.029,13.582,-4.87,-0.418,-1.119,-0.447,3.573,-4.316
-8.014,13.051,-5.724,-1.101,-3.011,-1.067,4.301,0.306
-11.433,4.39,-5.768,-3.936,-2.436,-3.69,2.877,0.655
-14.966,-7.513,-5.589,-6.095,-1.133,-5.593,0.511,-3.991
-15.468,-12.405,-3.681,-4.101,1.606,-3.47,1.261,-5.25
-12.499,-6.914,0.056,0.347,5.388,0.864,4.897,-1.365
-7.609,4.383,4.167,5.118,8.788,5.312,8.543,3.568
-2.98,13.135,7.792,11.214,11.918,11.196,11.44,9.155
-0.505,13.703,10.991,17.432,15.836,17.535,13.882,15.589
-1.117,6.063,11.652,17.618,17.621,17.959,14.471,17.992
-3.58,-4.403,7.315,10.701,12.83,11.13,12.664,12.823
-5.286,-9.447,1.331,4.877,4.961,5.213,10.955,5.03
-5.609,-5.342,-0.552,5.723,1.644,5.889,12.014,2.901
-5.927,3.098,1.203,9.322,3.029,9.384,14.836,6.868
-6.7,8.899,1.808,9.502,3.878,9.591,15.658,9.551
-6.632,9.968,0.482,5.858,3.18,6.079,13.804,7.919
-4.908,7.594,0.719,2.953,4.196,3.341,12.538,6.87
-2.904,3.746,3.534,3.772,7.26,4.161,13.593,10.51
-2.164,1.001,5.911,7.035,8.988,7.058,15.153,16.191
-2.821,0.644,4.93,9.461,7.311,8.987,13.838,16.803
-5.174,1.027,0.257,7.31,3.201,6.838,7.901,9.884
-8.745,0.248,-4.18,1.371,0.947,1.472,1.493,4.627
-10.648,-0.575,-3.573,-0.819,3.61,-0.306,1.668,10.654
-9.935,-0.661,-0.739,3.207,5.545,3.621,7.885,21.709
-10.146,-2.712,-2.376,5.088,0.534,5.24,11.078,23.5
-13.919,-7.434,-7.967,-1.693,-6.639,-1.664,4.51,10.931
-19.249,-10.625,-12.139,-12.285,-9.385,-12.141,-7.944,-9.172
-23.043,-10.628,-13.903,-18.066,-11.051,-17.716,-15.137,-23.48
-24.77,-11.979,-15.411,-18.081,-15.599,-17.721,-12.482,-23.908
-24.865,-16.405,-14.777,-15.378,-16.634,-15.062,-6.887,-16.502
-24.476,-19.326,-10.264,-9.869,-10.224,-9.323,-4.613,-11.619
-25.32,-17.836,-7.305,-4.5,-6.107,-3.652,-4.997,-11.093
-24.592,-12.475,-9.722,-5.508,-10.627,-4.773,-6.278,-11.202
-17.782,-4.82,-11.601,-10.603,-14.127,-10.398,-7.571,-10.611
-6.658,1.832,-6.663,-10.715,-7.583,-10.869,-6.318,-7.769
3.655,4.562,1.655,-4.462,2.484,-4.506,-0.818,1.518
10.232,4.262,5.75,0.827,6.018,0.861,5.225,14.196
13.166,4.514,4.739,1.038,4.858,0.773,6.306,17.218
14.267,6.447,2.503,-2.228,4.933,-2.629,1.673,4.406
12.835,7.304,0.259,-6.763,5.436,-6.676,-5.441,-12.553
7.525,5.602,-2.281,-8.354,3.649,-7.585,-10.545,-17.75
3.115,3.313,-5.205,-3.374,-1.848,-2.347,-9.592,-9.523
3.659,1.191,-8.613,2.534,-9.908,3.33,-4.109,0.113
3.1,-3.322,-11.318,0.6,-15.425,1.083,-0.553,1.227
-3.913,-11.336,-12.678,-7.384,-17,-6.975,-1.158,-3.483
-10.619,-17.847,-12.934,-11.736,-17.313,-11.437,-1.831,-4.7
-8.616,-15.463,-10.627,-8.104,-14.616,-8.233,0.348,0.687
-1.763,-6.237,-5.761,-2.757,-7,-3.192,2.155,5.967
-1.64,-2.657,-3.338,-3.683,-0.834,-3.955,-0.363,4.322
-11.262,-9.444,-6.515,-8.526,-2.866,-8.549,-3.713,-1.164
-21.454,-16.87,-10.947,-9.886,-9.468,-9.908,-2.623,-3.218
-24.581,-17.201,-12.012,-9.457,-12.643,-9.689,-0.167,-1.801
-21.579,-13.218,-9.934,-12.394,-9.191,-12.829,-1.41,-1.118
-16.274,-10.059,-6.048,-14.572,-1.676,-14.803,-3.616,-0.786
-11.317,-8.536,-1.988,-10.65,3.338,-10.358,-1.518,2.112
-7.599,-6.329,0.389,-4.469,2.84,-4.014,3.823,6.39
-6.533,-4.017,0.113,-2.007,0.374,-1.801,6.507,7.222
-12.133,-7.537,-4.896,-5.083,-4.1,-5.005,2.687,2.801
-23.228,-17.829,-13.825,-11.954,-12.878,-11.872,-4.969,-1.926
-28.461,-23.955,-18.611,-16.596,-19.522,-16.656,-8.602,-1.44
-20.105,-17.948,-13.382,-14.101,-15.92,-14.331,-3.786,3.009
-6.284,-7.703,-3.31,-7.701,-5.605,-7.87,3.85,6.221
-0.569,-5.285,2.091,-3.553,0.541,-3.455,5.547,5.837
-4.59,-9.99,0.513,-2.594,-1.53,-2.329,1.273,4.01
-9.37,-11.754,-3.198,-2.645,-6.659,-2.473,-1.821,3.061
-11.452,-8.363,-6.389,-3.722,-10.913,-3.643,-1.371,1.257
-15.435,-7.527,-9.77,-6.058,-14.631,-5.833,-1.243,-2.79
-20.548,-12.355,-11.442,-6.91,-16.23,-6.479,-2.667,-5.452
-20.127,-18.058,-9.92,-5.498,-14.271,-5.031,-4.019,-5.023
-14.894,-21.906,-9.168,-6.604,-12.67,-6.138,-5.924,-5.982
-12.81,-25.433,-12.089,-12.819,-14.693,-12.226,-8.786,-10.184
-16.392,-28.694,-15.006,-18.444,-17.223,-17.801,-10.136,-12.894
-19.192,-28.24,-12.673,-16.247,-14.908,-15.814,-7.46,-9.874
-14.945,-20.749,-4.177,-6.652,-6.182,-6.47,-0.606,-1.766
-6.977,-10.466,4.975,1.919,3.396,2.013,6.676,6.474
-4.378,-7.686,7.336,1.614,5.885,1.734,8.588,8.829
-8.421,-13.123,2.868,-5.887,1.365,-5.651,4.47,3.946
-10.6,-14.432,-1.208,-11.468,-2.459,-11.09,-0.122,-3.301
-6.895,-7.081,-1.625,-11.043,-2.136,-10.762,-1.941,-7.35
-5.284,-4.875,-3.267,-10.784,-3.239,-10.87,-4.31,-8.877
-11.577,-14.773,-7.958,-14.817,-7.971,-15.155,-10.188,-12.362
-17.762,-21.672,-8.915,-17.2,-8.688,-17.452,-15.732,-16.846
-15.164,-15.919,-3.868,-13.456,-4.096,-13.438,-14.986,-16.966
-7.252,-7.854,0.416,-8.239,-2.848,-7.957,-8.549,-11.856
-2.393,-6.888,0.047,-7.535,-6.421,-7.219,-3.331,-6.725
-3.144,-11.136,-2.985,-11.317,-9.442,-11.264,-3.339,-6.027
-5.589,-15.781,-6.359,-15.106,-10.87,-15.163,-5.674,-8.254
-6.264,-17.666,-8.598,-15.695,-12.081,-15.405,-6.946,-9.72
-5.151,-14.759,-8.365,-13.066,-12.061,-12.333,-7.321,-9.443
-2.741,-8.816,-5.942,-9.335,-9.984,-8.411,-7.547,-8.173
-1.029,-6.233,-4.626,-8.039,-8.675,-7.105,-7.904,-7.455
-3.278,-9.554,-6.227,-9.654,-9.937,-8.768,-8.84,-8.071
-8.394,-13.486,-7.346,-10.095,-10.131,-9.309,-9.394,-8.146
-12.073,-15.016,-6.683,-9.144,-8.051,-8.53,-9.235,-7.655
-12.248,-16.726,-8.057,-10.651,-7.886,-10.175,-10.003,-9.158
-8.478,-17.404,-10.296,-12.321,-8.404,-11.814,-10.092,-10.506
-1.504,-12.948,-7.014,-9.54,-3.219,-8.979,-6.505,-7.555
4.429,-6.778,1.073,-5.455,6.589,-4.849,-2.321,-3.09
4.099,-7.768,5.385,-5.666,11.505,-4.73,-1.394,-2.452
-1.738,-15.393,2.122,-9.126,5.944,-7.812,-0.486,-4.1
-5.962,-18.774,-2.366,-11.293,-3.055,-10.258,3.397,-3.047
-4.811,-15.02,-2.452,-11.645,-5.872,-11.355,6.323,0.039
-2.463,-12.526,-1.829,-12.892,-4.817,-12.875,4.824,0.576
-2.752,-14.218,-4.459,-15.339,-5.968,-14.883,0.57,-2.35
-2.955,-13.79,-6.027,-15.43,-5.837,-14.412,-3.735,-5.36
0.202,-9.342,-2.168,-11.387,-0.07,-10.187,-6.187,-5.579
4.621,-6.23,3.377,-7.441,5.485,-6.43,-5.146,-3.198
6.432,-5.989,5.049,-7.427,4.027,-6.666,-1.511,-0.536
4.382,-5.995,3.226,-9.396,-0.527,-8.788,0.136,-0.067
1.341,-5.635,2.092,-9.98,-0.295,-9.43,-2.904,-2.033
2.48,-4.926,3.302,-8.08,3.744,-7.441,-6.946,-3.981
7.785,-3.899,4.254,-4.514,3.875,-3.713,-6.978,-3.599
11.133,-2.818,3.382,-0.455,-1.08,0.35,-3.236,-0.94
10.283,0.007,4.311,5.432,-2.554,6.046,0.605,3.165
8.897,4.387,9.526,14.26,4.249,14.689,2.622,8.086
8.21,4.683,13.477,20.468,10.361,21.042,3.446,11.202
6.467,-2.373,10.586,17.809,6.295,18.881,4.218,10.035
3.912,-11.41,4.682,9.37,-1.934,10.791,4.602,6.327
1.815,-15.64,2.054,2.222,-3.8,3.594,3.637,3.348
-0.001,-15.597,2.468,-1.417,-0.807,-0.155,2.2,2.092
-1.901,-15.606,2.452,-3.034,0.495,-1.785,1.182,1.83
-3.202,-16.174,1.078,-4.551,0.127,-3.358,-1.08,0.85
-3.032,-15.262,-0.337,-6.421,0.376,-5.288,-5.451,-2.303
-1.566,-13.053,-1.103,-7.312,-0.587,-6.147,-8.465,-5.642
-1.189,-11.907,-1.601,-7.912,-3.75,-6.703,-7.134,-6.166
-4.86,-13.561,-2.296,-10.643,-5.831,-9.452,-5.208,-6.027
-11.37,-17.316,-3.657,-13.691,-5.394,-12.518,-7.949,-8.696
-15.086,-19.238,-4.901,-11.861,-4.406,-10.661,-12.235,-11.547
-13.317,-17.105,-4.723,-6.147,-4.492,-4.994,-11.25,-10.778
-9.79,-16.065,-4.24,-5.418,-6.171,-4.556,-6.943,-8.512
-6.891,-18.547,-4.337,-10.913,-7.803,-10.387,-5.649,-7.865
-3.028,-18.328,-3.528,-12.237,-7.216,-11.614,-6.237,-7.228
-0.02,-14.859,-1.972,-7.026,-5.536,-6.028,-4.793,-4.519
-0.441,-13.168,-0.675,-2.712,-3.983,-1.756,-2.526,-1.065
-1.472,-10.88,2.079,0.735,-0.52,1.311,-1.305,1.878
-2.182,-7.003,6.185,6.531,4.63,7.099,-0.606,4.263
-6.502,-10.162,6.679,8.782,5.899,9.567,-0.799,4.022
-13.035,-20.971,2.21,3.374,1.31,4.029,-2.108,0.329
-14.381,-26.458,-1.073,-2.054,-2.697,-1.587,-2.895,-2.774
-10.037,-22.253,-0.252,-1.905,-2.396,-1.317,-2.956,-3.066
-7.88,-17.243,0.139,-0.294,-2.399,0.284,-3.546,-3.262
-11.31,-17.222,-2.157,-1.088,-5.446,-0.844,-4.209,-4.474
-16.054,-20.815,-3.796,-3.742,-7.68,-3.605,-3.693,-4.626
-18.413,-22.482,-2.703,-5.465,-6.301,-4.987,-2.474,-3.367
-18.324,-18.502,-1.02,-4.118,-3.781,-3.452,-2.608,-3.236
-16.667,-14.496,-0.707,-2.524,-2.651,-2.26,-4.6,-5.429
-14.017,-16.412,-0.913,-4.163,-2.481,-4.396,-6.057,-7.842
-10.785,-20.842,-0.603,-6.831,-2.568,-7.021,-5.89,-8.996
-7.982,-22.957,-0.207,-7.968,-2.558,-7.75,-6.169,-9.819
-7.409,-22.111,-0.12,-8.48,-2.085,-7.961,-7.149,-9.768
-7.802,-17.957,0.822,-7.346,-0.669,-6.744,-5.864,-6.694
-5.141,-11.092,3.58,-2.414,2.521,-1.879,-2.375,-1.995
-1.281,-6.902,5.061,2.544,5.025,2.899,-1.396,-0.263
-1.647,-9.36,1.269,1.374,1.691,1.427,-4.666,-2.492
-3.278,-12.959,-4.145,-3.725,-4.534,-3.892,-7.606,-4.262
0.649,-10.785,-2.732,-4.428,-2.145,-4.349,-6.952,-2.37
8.148,-3.988,5.171,1.242,9.524,1.779,-4.751,1.461
12.232,1.834,9.423,7.123,14.201,7.57,-1.393,5.192
11.782,1.828,6.205,8.057,5.074,7.947,4.928,8.666
10.872,-2.648,3.636,6.075,-2.331,5.806,10.824,10.579
10.892,-4.236,6.172,6.436,1.231,6.624,11.503,9.234
8.586,-2.759,7.559,8.13,4.763,8.672,8.058,5.682
2.976,-4.664,4.588,6.885,2.189,7.172,4.458,2.767
-1.074,-7.639,2.769,5.299,1.492,5.177,2.949,2.055
-0.461,-5.573,4.709,7.094,5.27,7.16,3.412,3.096
1.899,-1.182,6.212,9.245,6.616,9.95,4.644,4.897
3.283,0.692,5.251,8.665,4.212,9.586,5.698,6.563
4.098,1.309,5.069,7.489,5.063,7.959,5.74,7.229
4.572,2.973,7.949,8.073,11.873,8.132,4.387,6.426
3.828,3.554,10.971,8.499,17.7,8.77,1.816,3.682
2.434,1.347,10.769,6.373,16.974,7.096,-1.26,-0.065
4.011,1.203,10.561,4.716,15.038,5.419,-1.642,-0.59
11.171,7.882,15.134,8.513,18.272,8.841,3.442,4.202
19.408,14.788,20.281,15.52,21.579,15.787,9.804,8.925
21.054,10.942,18.306,18.323,17.718,18.865,10.83,7.834
15.999,-0.332,11.379,15.564,10.714,16.147,7.036,3.416
11.988,-4.853,7.334,11.084,7.434,11.264,3.88,1.863
14.674,1.793,8.146,7.205,7.341,6.862,4.319,4.192
22.74,11.48,12.805,7.661,10.129,7.053,7.825,7.708
30.924,16.455,20.229,14.227,16.486,13.476,12.691,11.705
33.26,14.949,24.155,19.63,19.076,18.47,16.352,15.102
28.244,9.71,20.615,18.79,13.595,17.307,16.539,15.3
22.562,6.776,16.888,17.717,9.753,16.637,14.049,13.256
22.351,8.838,19.001,20.594,14.533,20.249,10.988,12.149
25.446,11.549,22.562,23.639,21.516,23.489,9.034,13.393
27.19,12.407,23.247,26.038,23.261,25.596,11.502,17.18
25.481,12.766,22.708,30.515,20.897,29.957,17.98,20.803
20.04,11.673,22.461,33.887,19.871,33.548,20.26,19.01
12.921,9.137,19.84,29.943,18.396,29.726,15.316,12.454
8.499,8.035,13.32,20.364,10.031,19.902,11.937,9.139
9.822,7.763,8.806,14.345,1.048,13.542,15.233,12.726
15.262,6.529,12.268,16.179,3.877,15.247,19.186,18.444
19.842,7.026,19.623,20.417,15.004,19.48,18.878,21.954
19.88,9.262,22.808,21.229,21.081,20.198,16.167,22.791
17.167,8.668,20.455,19.078,18.683,17.771,13.069,20.217
17.44,7.743,17.662,17.88,14.732,16.2,10.306,15.005
22.325,12.233,18.78,19.874,15.105,18.091,10.059,12.494
25.63,16.31,21.383,22.128,17.955,20.766,12.062,14.596
21.365,11.429,19.647,20.364,17.408,19.52,11.94,15.685
12.898,4.219,14.264,16.732,13.102,15.903,8.838,13.431
8.438,4.837,11.061,16.18,9.909,15.05,6.745,12.119
8.507,7.008,10.407,17.502,8.62,16.361,6.513,12.943
6.653,0.587,8.059,17.111,6.094,16.281,6.034,13.25
2.174,-9.418,4.343,16.806,2.964,16.213,6.678,13.743
0.118,-12.838,3.106,19.149,2.239,18.65,10.862,16.638
0.275,-10.742,3.857,20.575,2.713,20.167,15.788,19.184
-0.263,-10.222,3.74,18.031,2.341,17.669,17.003,17.837
1.437,-9.646,4.508,16.235,4.279,15.871,15.694,15.935
7.643,-2.828,8.921,19.339,11.207,18.999,15.511,17.713
13.105,6.07,13.682,23.805,17.764,23.334,15.769,20.106
12.456,7.605,12.704,25.055,15.883,24.317,13.874,18.565
6.852,0.663,5.706,22.388,6.419,21.666,9.955,14.393
1.468,-7.716,-0.09,18.121,-0.031,17.588,6.536,11.784
0.046,-9.017,1.689,17.258,3.534,16.54,6.655,11.791
1.182,-1.919,8.116,21.458,10.815,20.366,10.478,12.197
0.81,4.423,11.479,24.224,12.088,23.303,13.906,11.488
-1.271,3.509,10.458,20.982,8.61,20.669,14.111,10.128
-0.305,1.902,10.109,17.179,7.976,17.027,13.962,10.074
6.897,8.302,13.565,19.273,12.474,18.756,17.483,13.803
16.894,19.766,19.889,25.968,20.703,25.317,23.563,20.834
24.218,26.744,26.47,32.109,30.628,31.707,28.191,27.276
26.887,25.351,28.786,34.064,34.94,33.804,30.088,29.773
23.816,17.25,22.817,30.101,26.635,29.82,28.901,26.504
15.189,5.837,11.634,22.028,11.829,21.927,23.111,17.872
6.742,-2.082,3.907,16.447,3.615,16.73,15.272,10.049
4.318,-1.103,3.506,17.773,5.247,18.167,11.358,9.91
6.571,4.792,6.128,20.907,9.571,20.831,11.873,14.126
9.673,8.183,7.187,19.017,11.002,18.25,12.742,14.541
12.718,7.744,6.273,14.23,9.366,13.082,12.699,11.519
14.82,6.28,4.255,12.059,5.973,10.802,11.965,10.023
15.586,7.559,3.704,14.288,4.673,12.952,10.883,10.907
18.108,14.507,8.204,20.997,10.109,19.785,12.273,13.55
23.677,23.543,15.535,29.51,18.554,28.731,17.263,17.514
28.348,26.835,19.233,33.995,21.679,33.634,22.236,20.468
29.808,24.627,18.871,32.402,20.651,32.264,24.354,21.074
29.82,25.168,19.475,28.741,22.424,28.623,25.161,21.336
28.802,29.401,21.756,26.968,26.333,26.582,26.447,22.874
26.647,29.908,22.055,26.711,27.471,26.018,26.372,24.265
25.589,25.444,19.54,25.436,25.85,24.766,22.927,23.547
25.527,19.882,15.75,21.94,22.69,21.462,17.665,20.526
23.306,13.048,10.957,17.18,16.871,16.826,12.981,16.176
19.948,7.563,6.516,13.991,10.376,13.745,9.846,11.907
19.974,10.422,5.666,14.103,8.194,13.773,8.839,9.284
22.795,18.108,8.954,15.337,11.292,14.571,10.008,9.279
23.67,18.039,12.647,15.158,15.363,14.04,12.282,11.49
22.799,11.102,14.269,15.304,17.727,14.22,14.668,14.583
23.973,12.092,16.251,19.06,20.998,18.048,16.714,17.226
24.73,20.925,18.621,23.675,24.127,22.604,17.653,18.083
18.442,20.452,15.66,21.847,19.599,20.797,17.079,16.457
6.785,7.205,7.13,12.95,8.569,12.029,14.72,11.954
0.768,-3.391,1.85,5.573,2.971,4.816,11.116,5.511
6.147,-1.988,4.733,6.881,6.725,6.343,10.084,2.631
15.267,3.171,10.816,14.384,12.043,14.108,13.826,7.482
20.174,3.089,16.33,22.111,16.244,22.004,19.541,16.311
23.182,3.686,23.512,29.059,23.848,28.752,25.109,23.837
25.926,11.547,29.196,33.807,30.493,32.971,28.549,27.255
24.129,19.75,26.355,32.078,27.456,30.969,26.756,24.681
17.753,21.379,18.761,26.229,19.55,25.347,21.811,18.453
11.787,19.617,15.194,23.329,16.54,22.61,18.531,14.24
10.339,19.941,16.11,24.549,18.061,23.64,17.167,13.777
14.307,22.782,17.307,25.233,19.266,24.263,15.383,13.07
19.464,24.606,16.904,21.82,18.802,21.002,12.566,9.086
21.899,25.07,16.158,17.3,18.415,16.291,10.425,5.669
23.162,26.913,16.265,16.353,18.988,14.893,9.832,6.601
25.235,29.449,15.983,17.513,18.658,16.086,9.503,8.572
27.318,30.63,15.275,19.09,16.902,18.258,10.281,9.591
26.625,29.333,15.521,21.335,16.088,20.93,12.605,11.605
21.546,24.848,15.759,21.352,17.086,20.758,12.339,12.645
15.833,20.023,14.852,19.652,17.301,18.612,9.469,11.269
13.992,18.66,13.708,20.646,14.808,19.447,9.971,11.53
14.488,19.883,12.793,22.313,11.969,21.233,13.121,14.121
13.094,19.516,11.403,20.215,11.16,19.214,12.298,14.37
10.109,15.659,10.203,16.841,11.089,15.978,8.637,12.219
10.029,13.871,11.301,17.532,11.161,16.984,9.061,13.145
14.15,20.313,14.798,22.912,13.482,22.351,13.215,18.796
17.908,28.119,17.498,28.027,17.304,26.957,14.253,24.152
17.209,26.171,15.46,27.578,16.225,26.271,10.178,23.699
14.516,19.123,9.336,23.41,8.027,22.624,6.148,18.903
15.69,20.349,6.148,22.147,2.714,21.939,6.008,16.473
20.113,29.719,9.95,23.959,8.635,23.541,6.745,16.614
20.587,33.158,14.859,23.433,17.857,22.362,4.47,13.719
15.834,24.059,14.311,20.598,18.202,19.31,2.455,9.671
13.688,15.465,11.73,20.987,12.755,19.98,5.934,11.191
17.402,19.736,13.629,25.279,12.993,24.515,12.021,16.33
18.446,26.59,16.774,27.132,16.995,26.417,14.557,17.394
11.6,21.974,14.715,23.568,14.996,22.998,14.507,14.902
6.843,13.661,11.906,20.183,11.095,19.804,16.469,16.341
12.611,15.686,15.34,21.623,14.735,21.155,19.508,21.167
20.693,23.336,20.5,24.557,21.05,23.886,19.792,21.844
22.354,24.652,21.233,25.73,21.783,25.099,19.506,19.638
21.676,21.431,21.165,27.003,21.01,26.481,22.697,21.283
23.537,22.098,25.15,29.735,25.909,29.145,27.577,25.983
26.177,27.041,31.232,33.526,34.353,32.922,32.082,30.495
27.585,30.903,34.385,36.954,38.292,36.55,36.156,34.016
28.15,32.326,33.302,37.832,35.405,37.575,38.042,34.627
28.623,33.898,31.953,37.359,32.33,37.042,37.907,33.04
29.285,36.128,33.075,38.31,34.004,37.797,38.297,33.616
30.953,39.156,35.136,40.325,37.731,39.591,39.63,37.573
35.143,43.551,37.391,42.356,40.386,41.647,41.322,42.067
41.034,47.072,41.445,45.192,43.305,44.871,44.313,46.28
46.423,50.985,48.981,51.445,49.671,51.452,50.937,54.888
51,59.264,58.232,60.915,58.237,60.873,59.788,66.862
53.327,65.359,62.636,65.782,62.004,65.559,62.599,68.481
53.022,61.874,61.442,62.636,60.798,62.316,57.866,58.339
55.817,57.241,64.21,61.467,64.984,61.124,57.698,57.245
65.84,62.343,75.521,69.564,78.377,69.3,68.795,73.373
78.617,75.177,86.967,79.567,90.98,79.302,81.581,87.675
85.177,85.058,88.059,80.363,91.523,79.847,83.976,83.47
81.875,83.641,80.562,73.585,82.667,73.055,78.414,72.012
76.565,75.66,77.077,72.036,78.852,72.004,77.484,75.268
75.725,71.398,78.851,75.877,81.211,76.081,79.095,83.617
72.999,69.276,73.333,70.626,75.054,70.336,69.652,69.679
66.006,64.708,63.264,59.493,63.211,58.611,56.924,48.136
65.08,63.335,64.261,60.729,63.458,59.662,59.901,54.036
72.174,67.376,71.474,69.796,70.917,68.87,70.334,72.632
75.416,68.765,67.465,67.797,66.568,67.259,66.598,67.284
70.008,64.762,54.439,56.26,52.533,56.066,50.794,45.341
62.979,61.354,46.572,48.215,43.917,47.871,40.054,35.462
58.098,60.261,44.82,44.73,41.911,43.95,38.277,37.724
52.969,58.388,41.835,40.678,38.771,39.779,37.239,35.359
49.643,57.253,38.923,37.544,35.614,36.873,35.217,29.489
53.986,60.163,42.932,41.117,39.48,40.718,39.293,35.232
63.011,64.385,52.349,50.889,49.376,50.736,49.768,51.965
65.391,64.937,56.676,56.888,55.008,56.833,54.977,59.146
56.8,61.074,50.396,51.473,49.973,51.189,47.747,46.043
45.444,53.983,40.595,39.786,40.647,39.163,37.134,28.904
41.972,45.584,37.808,33.603,38.375,32.899,35.849,28.664
47.038,40.347,42.697,37.033,44.396,36.544,42.558,42.594
51.472,40.724,46.117,42.513,48.834,42.338,45.558,50.832
49.989,43.978,42.706,42.127,46.039,42.139,40.212,44.898
45.86,45.483,36.59,36.323,40.321,36.186,33.208,35.107
43.23,44.233,33.972,31.704,37.394,31.162,32.602,33.967
43.572,44.843,36.65,33.755,38.633,33.033,39.155,42.333
45.276,48.654,40.308,38.26,40.151,37.81,45.241,48.584
45.043,49.395,39.725,36.534,37.924,36.333,44.105,43.173
42.188,45.109,36.222,30.748,34.385,30.606,39.279,33.984
40.103,42.323,34.948,30.028,34.711,30.301,38.138,34.434
43.287,45.164,36.817,33.813,38.742,34.767,40.394,41.362
50.512,50.088,37.311,34.093,40.148,35.141,40.586,41.922
53.358,50.234,32.708,29.588,34.265,30.111,36.482,34.771
46.083,42.393,23.888,24.397,23.314,24.642,29.264,28.317
30.931,28.963,12.693,17.978,10.801,18.447,19.997,24.121
13.887,13.22,0.285,7.362,-2.028,7.864,8.755,15.558
0.722,-2.254,-10.901,-6.156,-13.388,-6.053,-4.421,0.001
-6.509,-13.848,-18.66,-18.277,-21.511,-18.353,-17.144,-16.428
-9.759,-18.273,-22.614,-25.314,-26.097,-25.184,-25.005,-25.736
-11.355,-16.63,-23.937,-27.203,-27.829,-27.031,-27.322,-27.382
-13.05,-14.461,-24.656,-28.263,-27.98,-28.332,-28.527,-28.173
-16.166,-15.233,-26.293,-31.89,-28.509,-32.165,-31.759,-32.045
-19.763,-16.747,-29.278,-36.361,-31.389,-36.676,-35.774,-36.01
-21.115,-16.023,-32.441,-38.019,-35.637,-38.194,-38.403,-37.045
-20.56,-16.423,-34.433,-37.105,-38.224,-36.83,-40.381,-37.165
-21.497,-22.213,-35.956,-37.929,-39.066,-37.083,-43.623,-39.681
-23.845,-28.163,-37.83,-42.032,-40.382,-41.021,-46.304,-43.279
-25.145,-29.01,-39.607,-46.025,-42.618,-45.119,-45.696,-44.303
-26.546,-29.318,-41.243,-47.927,-44.518,-46.932,-43.754,-43.132
-29.062,-31.256,-42.092,-48.124,-44.809,-47.173,-42.694,-42.258
-29.808,-29.815,-40.717,-45.946,-43.215,-45.456,-41.255,-41.633
-28.047,-26.357,-38.161,-42.71,-41.108,-42.544,-39.013,-40.192
-26.141,-27.669,-36.354,-41.801,-39.448,-41.524,-36.985,-37.914
-24.725,-31.986,-34.861,-43.01,-37.699,-42.565,-35.495,-36.28
-25.604,-33.469,-34.799,-44.463,-37.409,-44.001,-36.274,-38.23
-34.96,-36.936,-42.799,-50.273,-44.956,-49.832,-44.61,-47.478
-59.041,-55.372,-66.927,-70.244,-68.32,-69.825,-67.624,-69.371
-97.224,-92.578,-107.109,-108.138,-107.839,-107.692,-106.543,-106.439
-138.661,-135.857,-150.496,-152.607,-150.964,-151.899,-149.795,-149.311
-169.407,-168.926,-181.339,-185.941,-182.202,-184.812,-181.437,-182.014
-183.337,-183.453,-193.898,-199.838,-195.712,-198.549,-195.483,-196.953
-183.964,-181.271,-192.718,-199.093,-195.056,-197.976,-195.89,-197.34
-179.73,-176.401,-186.371,-194.532,-188.208,-193.595,-190.095,-191.498
-177.198,-179.893,-181.76,-192.727,-183.088,-191.941,-185.755,-187.714
-176.644,-183.171,-180.759,-191.901,-182.612,-191.223,-185.968,-188.429
-177.181,-179.169,-183.101,-190.389,-185.665,-189.583,-188.733,-190.882
-179.628,-177.081,-187.7,-190.917,-189.664,-189.968,-191.388,-192.339
-181.062,-178.961,-189.778,-192.424,-190.168,-191.701,-191.265,-190.915
-177.761,-175.658,-186.122,-190.617,-185.359,-190.28,-187.325,-186.775
-172.5,-168.785,-181.207,-188.111,-179.695,-187.817,-183.163,-183.991
-168.977,-167.873,-178.476,-188.76,-175.889,-188.17,-181.021,-183.872
-163.64,-170.629,-172.671,-185.856,-169.215,-185.047,-176.193,-179.847
-152.179,-166.888,-160.437,-173.126,-157.466,-172.414,-165.618,-168.237
-139.425,-157.282,-148.73,-158.695,-147.31,-158.273,-155.084,-156.689
-133.41,-151.438,-144.492,-153.371,-144.251,-153.107,-150.885,-153.021
-132.979,-150.602,-144.771,-154.672,-145.166,-154.29,-150.964,-153.946
-129.936,-145.699,-142.308,-151.865,-143.614,-151.269,-148.617,-150.813
-121.126,-132.36,-135.349,-141.687,-137.257,-140.988,-141.399,-141.034
-111.078,-117.313,-127.798,-131.725,-128.922,-131.122,-133.081,-130.577
-105.582,-110.255,-123.098,-128.22,-122.84,-127.853,-127.853,-126.482
-106.877,-113.713,-121.639,-128.928,-120.892,-128.728,-126.234,-128.406
-110.457,-119.436,-121.17,-129.001,-120.624,-128.728,-126.017,-129.465
-108.752,-119.127,-118.534,-126.589,-117.88,-126.125,-124.601,-125.797
-101.062,-112.941,-112.661,-122.033,-111.824,-121.543,-120.694,-120.378
-94.485,-104.262,-106.258,-116.637,-105.918,-116.336,-115.441,-116.418
-97.034,-101.751,-105.384,-114.974,-105.646,-114.86,-113.132,-114.835
-109.039,-113.372,-112.095,-120.337,-111.997,-120.273,-116.673,-116.092
-118.716,-126.351,-117.64,-124.89,-117.005,-124.797,-120.591,-116.953
-115.59,-122.676,-113.625,-118.919,-113.926,-118.855,-116.946,-112.454
-105.459,-111.014,-105.562,-109.026,-107.723,-109.08,-108.701,-105.282
-101.291,-110.51,-104.165,-108.899,-107.277,-108.941,-106.348,-103.643
-106.189,-118.498,-109.603,-116.845,-112.53,-116.67,-111.704,-108.351
-112.45,-119.957,-112.986,-120.015,-115.443,-119.653,-115.496,-111.21
-114.113,-113.942,-110.425,-115.507,-112.419,-115.049,-111.956,-108.131
-113.431,-110.556,-107.069,-111.339,-108.765,-110.826,-106.133,-104.586
-111.168,-109.57,-105.123,-109.438,-107.053,-108.982,-102.289,-103.633
-104.819,-104.713,-101.129,-105.467,-103.574,-105.051,-97.397,-101.149
-100.711,-101.3,-97.226,-102.316,-99.602,-101.828,-91.567,-97.028
-106.195,-105.604,-97.933,-104.091,-99.301,-103.763,-89.192,-95.399
-112.468,-110.205,-98.672,-104.243,-98.645,-104.294,-88.102,-93.87
-106.419,-105.176,-92.335,-95.652,-91.225,-95.709,-82.006,-86.763
-91.894,-91.799,-81.401,-83.588,-79.899,-83.302,-71.715,-76.111
-82.926,-81.148,-74.122,-78.317,-73.004,-77.91,-64.36,-69.416
-83.393,-80.846,-72.889,-80,-72.434,-79.727,-63.433,-68.74
-85.574,-84.563,-72.373,-79.804,-72.101,-79.674,-64.86,-68.857
-84.281,-83.939,-68.941,-75.462,-68.504,-75.421,-63.706,-66.738
-81.258,-80.561,-64.751,-72.873,-64.563,-72.778,-60.381,-65.622
-76.909,-75.315,-60.076,-71.321,-60.324,-71.088,-56.473,-65.689
-69.55,-67.733,-52.889,-65.83,-52.848,-65.606,-51.669,-62.285
-62.376,-64.268,-46.951,-60.918,-46.442,-60.801,-48.203,-57.347
-60.751,-65.594,-46.982,-61.848,-47.32,-61.778,-48.797,-57.036
-63.899,-62.88,-49.187,-63.029,-51.106,-63.046,-50.495,-58.821
-64.942,-55.541,-47.035,-59.085,-49.556,-59.267,-48.325,-55.352
-59.485,-51.286,-40.74,-52.298,-43.194,-52.431,-42.401,-46.509
-53.346,-53.726,-36.26,-47.297,-38.832,-47.019,-38.311,-39.461
-53.1,-58.481,-36.428,-46.196,-38.939,-45.572,-39.132,-38.353
-51.608,-55.427,-35.634,-43.808,-38.154,-43.324,-38.98,-37.643
-42.25,-43.604,-30.247,-35.634,-33.373,-35.491,-33.355,-32.216
-34.93,-35.912,-26.787,-28.902,-30.207,-28.789,-28.422,-27.429
-36.591,-36.53,-28.987,-30.023,-31.815,-29.741,-28.867,-28.154
-37.081,-35.004,-29.451,-32.61,-31.829,-32.389,-29.059,-29.296
-28.938,-27.854,-22.999,-29.671,-25.683,-29.672,-24.24,-26.124
-19.425,-22.158,-15.523,-24.218,-18.508,-24.269,-18.635,-21.921
-16.753,-20.642,-13.997,-22.466,-16.28,-22.423,-17.575,-21.181
-20.087,-21.385,-17.174,-26.001,-17.501,-25.957,-19.981,-23.657
-24.41,-24.273,-19.732,-31.076,-17.815,-31.072,-21.989,-25.937
-27.175,-28.639,-19.998,-32.58,-17.222,-32.467,-21.938,-25.645
-28.915,-31.999,-19.445,-29.771,-17.862,-29.509,-19.605,-23.398
-30.428,-32.64,-17.779,-25.772,-18.107,-25.599,-15.54,-20.794
-31.364,-29.529,-14.117,-22.877,-15.335,-23.042,-11.786,-18.955
-31.267,-24.403,-10.445,-21.698,-11.439,-22.072,-9.967,-18.509
-29.948,-22.608,-7.931,-20.688,-8.559,-20.827,-8.61,-17.589
-26.879,-24.326,-4.169,-16.885,-4.946,-16.58,-5.394,-13.974
-24.172,-24.954,-0.677,-12.657,-2.265,-12.175,-3.512,-11.504
-24.865,-24.796,-3.35,-14.019,-6.057,-13.679,-7.866,-14.908
-25.613,-24.626,-9.638,-18.654,-13.058,-18.481,-13.935,-19.576
-22.488,-21.599,-10.65,-19.617,-13.896,-19.499,-13.861,-18.896
-18.248,-15.734,-5.863,-16.952,-8.324,-16.904,-9.386,-14.869
-15.048,-10.973,-1.286,-13.693,-3.065,-13.846,-6.562,-11.969
-11.479,-9.624,1.136,-10.377,-0.235,-10.725,-6.065,-10.202
-7.295,-8.231,3.924,-6.551,3.165,-6.82,-4.732,-7.907
-4.762,-5.005,6.931,-2.869,6.9,-2.838,-1.827,-5.615
-6.749,-5.673,5.655,-2.142,5.438,-1.873,-0.907,-5.408
-11.153,-10.419,0.616,-3.928,-1.126,-3.506,-2.837,-6.223
-11.377,-10.885,-0.614,-3.094,-3.99,-2.564,-2.391,-3.972
-6.04,-5.779,4.069,0.984,0.269,1.389,2.282,1.462
-0.446,-1.96,8.063,3.363,4.791,3.543,5.386,5.034
1.602,-1.577,7.785,2.683,5.276,2.987,3.589,4.432
2.604,1.4,8.321,3.687,6.769,4.349,2.209,4.41
6.439,10.969,13.792,9.402,13.057,10.119,6.699,9.372
10.297,20.223,19.528,15.668,18.382,16.105,14.857,16.446
9.463,19.731,20.441,17.49,17.645,17.714,21.776,20.865
6.156,11.195,18.686,15.291,15.117,15.605,25.239,21.975
5.359,5.308,18.181,13.062,15.752,13.64,25.581,21.957
8.168,8.116,20.038,14.798,18.443,15.473,25.704,23.44
11.663,13.818,23.006,19.538,20.676,20.034,27.373,26.299
12.657,14.171,24.182,21.425,21.685,21.529,27.957,27.05
13.274,12.819,24.023,20.006,23.192,19.619,27.582,26.036
19.535,20.35,29.16,23.481,30.005,22.963,33.683,30.386
32.22,36.379,43.458,36.851,44.421,36.744,50.171,43.97
44.609,49.532,60.511,53.703,60.872,53.906,68.701,60.563
48.548,51.282,68.607,61.231,69.222,61.242,75.696,69.362
41.671,42.176,62.37,53.847,64.072,53.624,66.716,64.916
32.787,31.287,50.454,42.084,52.549,41.966,53.284,54.068
33.5,29.392,45.404,39.082,46.582,39.188,48.607,48.518
41.932,37.566,47.104,43.048,47.192,43.187,50.516,49.576
46.251,45.46,47.241,44.334,46.988,44.343,49.989,49.609
43.09,45.454,44.672,41.235,44.395,41.161,47.015,45.966
39.636,41.628,44.194,39.018,43.447,38.892,46.825,43.522
40.717,39.634,46.528,40.383,44.852,40.239,49.636,45.487
44.918,40.941,49.892,45.026,47.468,45.082,52.334,49.541
48.529,45.534,53.734,51.464,50.844,51.722,53.818,52.357
48.75,49.999,56.212,55.75,52.841,55.816,54.813,53.534
47.513,52.885,56.642,56.477,53.249,56.178,56.359,54.796
47.298,56.261,56.733,56.157,54.018,55.769,58.062,55.921
44.783,55.14,55.608,54.741,53.543,54.457,57.8,55.073
40.441,48.64,54.043,53.92,52.451,53.646,56.838,54.952
42.239,49.267,57.378,58.451,57.023,58.135,59.111,59.328
47.854,54.448,62.757,61.739,65.312,61.408,60.725,62.307
44.93,45.578,58.555,52.101,64.39,51.726,54.063,55.518
35.324,28.549,45.078,37.033,50.985,36.715,44.329,44.482
34.678,28.175,38.328,34.918,40.795,34.752,43.606,42.02
46.51,44.777,45.826,46.322,45.978,46.016,51.09,49.083
58.294,56.402,55.851,56.046,57.028,55.394,56.331,55.839
63.009,55.454,58.263,57,60.824,56.34,56.62,57.211
65.121,52.68,57.022,53.989,59.527,53.635,56.333,55.67
66.73,53.864,56.536,51.089,59.356,50.928,55.264,53.144
65.426,56.258,54.265,48.767,57.854,48.604,51.698,49.977
62.158,57.719,49.324,47.346,52.057,47.121,49.549,48.073
59.62,56.04,45.486,47.064,46.766,46.726,51.399,49.046
57.753,50.875,44.355,47.461,45.944,47.034,53.009,51.534
55.406,46.574,43.239,47.216,46.082,46.877,50.843,52.122
52.554,45.058,40.71,44.995,43.724,44.727,47.508,49.089
49.514,43.62,38.696,41.725,40.292,41.303,46.201,44.947
46.996,42.683,39.129,40.803,38.851,40.276,45.779,43.295
47.013,46.526,42.376,44.085,41.803,43.628,44.702,44.909
51.184,54.953,48.214,49.695,49.583,49.197,45.565,49.505
58.592,61.971,55.268,55.867,58.16,55.199,51.874,57.018
65.003,63.472,59.989,61.751,61.22,60.991,60.97,64.323
65.847,60.832,60.4,64.358,58.972,63.546,65.47,66.911
61.824,57.17,58.908,61.546,57.545,60.703,63.479,65.067
58.861,55.874,58.968,57.099,58.993,56.376,61.075,63.121
63.812,62.887,63.873,59.31,63.452,58.802,64.724,65.49
77.216,78.8,73.764,70.379,72.11,70.053,73.338,72.701
87.405,89.244,80.197,78.687,79.08,78.483,77.771,77.56
83.736,83.04,76.605,75.049,77.213,74.737,74.036,74.668
74.142,71.518,70.446,69.399,71.762,68.709,70.965,71.311
73.357,68.961,71.177,73.36,72.234,72.464,75.749,76.038
82.018,74.954,77.689,82.615,78.871,81.969,84.83,86.442
91.909,85.88,86.331,90.674,88.002,90.281,94.097,96.821
100.481,99.117,96.969,99.307,99.272,98.688,103.361,105.698
108.889,108.147,106.931,108.147,110.085,107.131,110.626,112.294
114.341,108.454,110.548,111.771,113.647,110.768,112.745,114.381
113.475,103.685,107.403,109.883,108.83,109.241,110.524,112.252
110.755,103.575,104.671,110.159,104.093,109.711,109.259,111.097
114.506,114.185,108.382,118.232,106.666,117.682,113.41,115.06
123.63,127.967,115.999,129.325,114.071,128.727,120.697,121.478
129.436,133.14,121.636,135.156,120.344,134.727,125.533,125.952
129.07,129.811,124.019,134.441,123.875,134.152,126.358,127.424
126.774,126.219,125.386,131.722,125.947,131.311,125.728,126.88
127.393,128.33,127.748,131.89,127.91,131.244,127.417,127.296
132.882,136.471,132.082,136.899,131.271,136.166,133.156,131.534
140.373,146.002,138.664,144.74,137.628,143.961,141.123,139.088
145.544,153.567,147.11,152.441,147.118,151.484,149.051,147.727
147.881,159.125,154.532,157.367,155.917,156.41,154.196,153.789
147.023,158.974,155.292,155.233,157.525,154.756,151.864,152.028
139.182,147.902,145.907,143.722,148.323,143.767,140.577,141.09
124.424,130.441,129.682,128.212,131.416,128.241,125.509,126.467
110.155,117.351,114.989,116.991,115.707,116.617,113.362,114.859
102.8,110.934,107.872,111.372,108.952,110.733,106.641,108.039
102.864,106.67,106.865,107.226,109.645,106.587,104.055,103.817
106.306,103.296,105.932,103.027,108.764,102.508,102.943,100.058
105.182,98.618,100.349,98.01,100.974,97.701,98.864,94.751
95.023,89.733,90.436,90.274,90.257,90.071,88.918,86.802
82.087,81.635,80.621,82.716,81.789,82.267,77.55,79.034
72.976,77.149,72.35,78.622,73.449,77.892,70.487,73.697
65.163,69.202,62.259,73.521,61.24,72.921,65.036,67.335
56.529,57.731,51.36,64.425,49.172,64.112,56.72,58.049
51.778,53.822,47.282,58.438,46.105,58.068,50.155,52
52.899,60.151,52.151,61.345,52.469,60.657,51.419,53.938
54.966,66.928,58.452,67.736,58.753,66.974,56.83,58.551
54.513,66.532,60.11,69.065,59.159,68.588,59.209,58.875
51.915,60.023,56.879,63.162,55.67,62.845,56.381,54.531
48.44,53.931,50.527,54.681,50.566,54.17,50.633,48.743
46.544,52.49,44.719,49.569,45.522,48.957,46.161,44.462
46.827,52.552,43.011,49.097,43.517,48.748,45.432,43.101
46.024,51.213,45.055,50.555,46.034,50.498,47.141,44.31
42.266,49.961,47.54,50.577,50.291,50.601,48.497,46.197
38.288,48.651,47.799,48.461,51.4,48.426,48.424,46.879
37.199,46.307,45.636,46.443,47.689,46.298,47.087,45.796
37.573,43.841,42.153,43.977,42.346,43.71,43.501,42.47
35.095,41.053,38.159,38.851,38.895,38.407,37.057,36.971
28.667,36.083,32.967,32.292,35.68,31.766,28.877,30.51
22.778,28.362,25.908,26.745,29.132,26.519,21.388,24.633
22.282,21.27,20.269,24.202,22.405,24.416,18.551,22.189
25.768,18.873,19.908,25.103,21.555,25.389,21.187,24.014
27.555,20.559,22.442,26.508,24.896,26.491,23.763,25.369
25.847,23.319,22.572,26.435,25.628,26.158,22.036,22.944
21.535,22.463,17.03,23.694,19.381,23.499,16.423,17.645
13.042,13.636,5.018,14.482,6.139,14.569,7.024,8.791
4.748,4.407,-6.12,3.28,-5.627,3.479,-1.669,0.062
6.429,7.643,-4.803,3.567,-4.145,3.603,0.223,1.637
14.314,18.73,6.202,14.237,7.745,14.139,11.088,11.893
15.103,21.951,12.43,19.391,15.29,19.443,16.785,16.428
6.662,14.414,8.1,14.162,11.87,14.451,11.234,10.652
-4.306,3.797,-2.439,6.218,1.409,6.56,0.479,2.629
-12.532,-4.654,-13.343,0.27,-9.828,0.479,-9.095,-2.188
-16.047,-8.476,-20.773,-4.611,-17.893,-4.514,-16.116,-6.275
-17.586,-8.932,-25.394,-10.174,-23.635,-9.911,-21.918,-13.258
-18.716,-10.006,-27.893,-14.447,-26.672,-13.903,-25.37,-19.842
-15.989,-11.223,-25.3,-13.694,-22.579,-13.219,-24.066,-19.961
-11.422,-10.725,-19.688,-10.49,-14.548,-10.374,-20.993,-15.916
-13.719,-12.474,-20.735,-12.816,-15.381,-12.82,-22.471,-16.489
-23.536,-20.206,-30.568,-21.721,-27.433,-21.582,-29.161,-23.737
-31.297,-29.336,-38.021,-28.197,-36.305,-28.103,-34.566,-29.795
-32.508,-33.876,-37.067,-28.102,-35.027,-28.21,-34.931,-30.246
-32.819,-35.508,-35.486,-28.372,-33.161,-28.416,-34.736,-30.426
-36.688,-37.402,-38.862,-33.238,-36.317,-33.005,-37.387,-34.265
-42.095,-37.139,-43.17,-38.351,-40.028,-38.019,-40.05,-38.643
-45.185,-32.54,-45.127,-39.974,-42.569,-39.822,-41.115,-40.137
-43.287,-26.624,-45.616,-38.311,-45.234,-38.476,-41.614,-38.345
-36.364,-23.338,-44.01,-33.953,-44.902,-34.323,-39.974,-33.944
-29.388,-24.652,-40.61,-29.865,-40.547,-30.102,-36.229,-30.049
-29.314,-30.473,-40.83,-31.072,-39.721,-31.077,-36.678,-31.931
-36.334,-37.034,-47.642,-37.175,-47.099,-37.25,-44.681,-39.937
-45.038,-41.262,-57.17,-44.47,-57.552,-44.778,-54.636,-48.828
-52.148,-44.622,-64.312,-51.545,-64.863,-51.849,-60.146,-54.906
-53.293,-45.504,-64.222,-53.733,-64.887,-53.795,-59.022,-55.566
-44.375,-39.171,-54.765,-46.049,-55.541,-45.882,-51.651,-48.2
-34.539,-30.947,-44.498,-36.026,-44.449,-35.633,-43.816,-38.335
-39.2,-34.185,-46.921,-37.195,-46.073,-36.465,-45.056,-37.904
-57.662,-51.811,-62.959,-51.135,-63.36,-50.196,-57.596,-50.035
-74.205,-70.904,-79.822,-67.116,-82.697,-66.425,-73.427,-66.031
-77.996,-76.548,-86.32,-74.448,-90.16,-74.33,-82.262,-75.586
-72.004,-67.408,-81.955,-71.073,-84.872,-71.402,-79.796,-74.641
-66.147,-56.513,-73.879,-63.981,-75.986,-64.398,-71.343,-67.919
-65.804,-54.398,-67.918,-59.408,-70.308,-59.682,-64.506,-61.976
-67.838,-56.311,-63.493,-55.445,-66.304,-55.575,-60.357,-57.123
-67.373,-54.552,-58.767,-50.758,-60.978,-50.776,-57.724,-52.822
-64.811,-53.369,-56.467,-50.992,-56.996,-50.789,-58.392,-53.187
-64.103,-57.473,-59.79,-57.861,-58.853,-57.397,-62.367,-59.31
-65.881,-60.565,-65.416,-63.453,-64.386,-63.02,-65.234,-64.133
-66.474,-58.062,-66.86,-62.147,-66.304,-61.994,-63.724,-61.602
-63.385,-55.097,-63.045,-57.438,-62.159,-57.359,-59.497,-55.007
-58.648,-55.809,-58.886,-55.036,-57.229,-54.823,-57.191,-52.479
-56.476,-56.77,-59.211,-56.879,-57.724,-56.695,-60.455,-57.47
-57.257,-54.338,-63.309,-60.593,-63.033,-60.508,-66.904,-64.697
-57.604,-51.108,-66.264,-62.371,-66.827,-62.224,-69.393,-66.715
-58.403,-51.882,-67.115,-62.375,-67.751,-62.203,-66.493,-63.89
-66.448,-60.428,-71.893,-66.551,-73.07,-66.481,-66.558,-64.307
-81.84,-74.943,-82.569,-77.195,-84.708,-77.111,-74.682,-72.054
-87.959,-79.988,-86.241,-81.923,-88.299,-81.729,-79.49,-76.632
-72.8,-65.182,-72.77,-69.707,-74.094,-69.573,-69.386,-66.885
-55.577,-50.119,-58.362,-55.258,-60.082,-55.375,-57.127,-54.51
-58.111,-53.627,-60.684,-56.407,-63.827,-56.754,-58.73,-55.645
-67.92,-60.534,-68.151,-63.402,-71.934,-63.733,-64.587,-61.522
-67.076,-56.566,-66.252,-62.403,-68.819,-62.414,-62.986,-59.63
-62.342,-53.181,-61.743,-58.425,-62.277,-58.092,-60.79,-56.33
-62.557,-57.17,-62.058,-57.479,-62.201,-57.131,-62.599,-57.428
-63.265,-60.674,-62.745,-56.718,-64.637,-56.655,-62.13,-57.064
-61.377,-59.964,-59.891,-55.041,-62.944,-55.233,-57.927,-53.487
-61.238,-57.805,-56.954,-55.631,-58.86,-55.873,-56.123,-53.509
-64.708,-58.002,-57.493,-59.661,-57.546,-59.899,-58.402,-58.726
-65.596,-60.232,-57.255,-62.118,-56.431,-62.392,-57.846,-60.622
-59.634,-58.856,-51.597,-57.994,-50.773,-58.147,-50.986,-54.804
-54.143,-54.864,-46.742,-52.502,-46.228,-52.346,-46.118,-49.567
-55.872,-55.071,-49.104,-52.816,-48.843,-52.505,-49.01,-50.961
-59.33,-57.664,-53.222,-55.644,-52.891,-55.402,-52.81,-53.636
-58.402,-56.867,-53.555,-55.652,-53.053,-55.31,-52.199,-53.469
-54.197,-53.146,-52.334,-53.76,-52.09,-53.112,-50.171,-52.04
-48.778,-48.861,-51.168,-51.926,-51.69,-51.282,-48.356,-49.742
-43.322,-44.433,-48.621,-49.224,-50.148,-49.039,-45.344,-46.171
-37.633,-38.729,-43.271,-43.401,-45.805,-43.559,-40.483,-40.956
-32.04,-31.976,-36.893,-36.831,-40.067,-36.878,-35.648,-34.958
-31.329,-28.918,-34.65,-35.174,-37.743,-35.057,-34.603,-32.245
-36.279,-32.384,-36.391,-35.98,-38.693,-35.995,-36.259,-32.741
-39.916,-38.287,-36.485,-33.34,-37.579,-33.515,-35.904,-31.606
-40.145,-42.117,-34.687,-30.91,-34.721,-30.95,-34.561,-29.759
-41.224,-43.308,-34.824,-33.825,-34.628,-33.648,-35.896,-31.357
-42.101,-40.958,-35.425,-36.595,-35.714,-36.517,-37.418,-33.336
-38.289,-33.565,-32.058,-32.198,-32.733,-32.374,-34.265,-30.044
-33.634,-26.237,-27.405,-25.908,-28.562,-26.009,-29.471,-25.108
-36.581,-27.927,-29.513,-28.093,-32.027,-27.871,-31.376,-27.296
-44.471,-36.362,-37.364,-36.269,-41.079,-35.907,-39.188,-35.694
-45.651,-38.798,-39.664,-38.749,-42.735,-38.506,-42.266,-40.615
-39.306,-34.599,-33.367,-34.947,-34.647,-34.807,-37.351,-39.072
-38.571,-38.733,-30.224,-35.709,-30.453,-35.426,-34.307,-38.335
-49.548,-53.896,-37.426,-44.103,-37.576,-43.601,-39.663,-42.734
-59.982,-61.92,-44.369,-49.497,-44.266,-49.012,-44.841,-45.62
-57.138,-52.825,-39.491,-43.577,-38.353,-43.181,-39.721,-39.82
-45.568,-39.121,-28.236,-32.377,-26.196,-31.777,-28.925,-29.307
-37.44,-33.625,-22.851,-26.759,-21.474,-25.862,-23.797,-23.352
-36.121,-34.013,-26.042,-29.516,-26.425,-28.743,-27.239,-25.544
-36.607,-34.299,-31.35,-35.252,-32.404,-34.982,-33.15,-31.757
-35.307,-34.577,-32.208,-37.208,-32.471,-37.299,-34.823,-34.697
-33.12,-34.356,-28.226,-33.153,-28.269,-33.163,-31.227,-31.211
-30.154,-29.562,-23.224,-25.349,-24.338,-25.046,-25.304,-24.279
-25.452,-21.422,-20.066,-18.288,-21.854,-17.862,-19.818,-18.137
-22.441,-17.813,-20.389,-17.247,-21.451,-16.836,-17.861,-15.864
-24.731,-22.16,-23.69,-22.218,-23.678,-21.601,-20.584,-17.828
-27.757,-28.098,-25.15,-25.926,-24.668,-25.108,-22.915,-19.65
-25.649,-28.251,-22.13,-24.196,-21.168,-23.571,-20.254,-17.896
-21.78,-24.124,-19.546,-21.332,-17.393,-20.924,-16.223,-15.204
-21.087,-21.083,-20.506,-20.396,-17.305,-19.783,-14.828,-13.801
-20.542,-18.394,-20.271,-18.112,-17.529,-17.203,-13.496,-11.32
-17.085,-14.442,-16.831,-14.546,-15.706,-13.694,-11.198,-8.095
-14.317,-13.016,-14.95,-14.972,-14.793,-14.34,-11.377,-8.492
-15.496,-15.092,-15.366,-17.928,-14.723,-17.406,-13.18,-11.104
-19.237,-16.519,-13.426,-16.604,-11.753,-16.136,-12.058,-9.733
-23.363,-17.289,-9.627,-12.593,-7.151,-12.109,-9.165,-5.913
-27.619,-21.069,-10.11,-13.602,-6.992,-12.975,-10.285,-7.526
-32.426,-27.17,-16.088,-19.807,-12.905,-19.119,-16.309,-15.269
-35.695,-31.24,-20.911,-24.14,-18.924,-23.608,-21.864,-21.705
-33.435,-30.718,-19.437,-23.49,-19.206,-23.126,-22.735,-21.982
-25.85,-25.721,-14.362,-20.782,-14.832,-20.368,-19.799,-17.9
-18.262,-17.645,-10.253,-17.749,-10.006,-17.148,-15.731,-13.006
-13.877,-9.192,-7.087,-13.304,-5.908,-12.708,-11.531,-8.843
-11.59,-4.692,-3.949,-8.638,-2.697,-8.39,-8.11,-6.808
-11.012,-7.361,-3.079,-7.366,-2.485,-7.538,-7.881,-8.555
-12.387,-13.465,-5.188,-9.644,-5.099,-9.88,-10.934,-12.147
-12.743,-14.323,-6.021,-10.979,-5.725,-10.861,-12.831,-13.047
-8.743,-7.64,-2.236,-8.267,-1.489,-7.827,-9.718,-9.785
-2.85,-1.044,3.006,-3.538,3.527,-3.023,-3.291,-4.799
-0.995,-2.461,4.516,-0.634,4.318,0.061,1.396,-0.845
-2.67,-8.418,3.431,0.69,2.993,1.658,2.814,1.666
-0.939,-7.487,6.054,4.928,5.533,5.845,5.089,4.834
5.43,1.032,13.427,12.44,12.203,13.166,10.68,9.967
9.45,5.482,18.496,16.236,16.9,17.04,15.346,14.189
7.442,1.645,16.735,12.761,16.142,13.707,14.881,13.777
3.593,-2.652,12.077,7.801,12.783,8.564,11.144,9.857
0.828,-2.558,8.527,5.597,9.398,5.974,6.727,5.505
-2.587,-0.661,5.001,3.285,5.367,3.501,0.914,0.621
-6.217,1.204,0.538,-0.576,0.832,-0.143,-5.798,-5.355
-8.358,1.163,-4.199,-4.328,-3.609,-3.572,-11.096,-11.182
-11.012,-4.545,-9.021,-7.957,-8.353,-7.045,-14.216,-15.268
-15.324,-13.7,-12.885,-10.912,-12.439,-9.963,-14.938,-16.082
-17.455,-19.257,-13.74,-11.336,-13.64,-10.306,-13.027,-13.701
-13.013,-17.887,-10.186,-8.842,-10.332,-7.727,-9.034,-9.644
-2.191,-9.428,-2.647,-3.469,-2.584,-2.442,-3.456,-4.611
8.363,2.734,4.511,2.742,5.266,3.545,1.398,-0.938
10.018,8.963,4.98,3.689,6.296,4.41,0.955,-2.766
2.536,3.851,-1.763,-3.116,-0.51,-2.229,-5.145,-8.861
-4.872,-3.754,-8.594,-10.3,-7.8,-9.251,-10.759,-12.452
-5.668,-3.318,-9.318,-10.045,-8.771,-9.009,-11.031,-10.504
-1.933,1.765,-5.626,-5.104,-4.822,-4.024,-7.751,-6.353
2.448,3.03,-2.408,-2.134,-1.403,-0.874,-4.667,-3.089
5.989,1.883,-0.561,-0.972,0.119,0.216,-2.311,-0.283
7.064,3.353,0.519,0.63,1.113,1.414,-0.717,1.641
4.973,4.964,-0.698,0.151,0.843,0.703,-1.519,-0.19
2.286,3.364,-3.822,-3.926,-0.801,-3.218,-3.715,-5.121
1.533,1.712,-5.309,-7.387,-1.093,-6.533,-3.984,-8.139
1.707,1.456,-4.336,-7.562,0.566,-6.851,-2.804,-7.893
0.414,-0.398,-3.472,-6.874,1.352,-6.384,-2.671,-7.339
-1.673,-1.763,-2.961,-5.651,0.935,-5.177,-1.725,-5.905
-1.729,1.478,-1.091,-1.837,2.062,-1.153,2.372,-1.319
0.306,5.932,1.087,2.85,4.752,3.733,6.427,3.338
2.089,6.463,1.161,4.832,5.973,5.681,6.834,3.87
3.354,4.039,0.041,3.814,5.153,4.544,5.282,1.821
5.331,2.778,0.541,2.764,4.816,3.503,4.674,0.975
5.709,3.481,0.813,2.227,4.088,2.938,2.963,0.241
0.405,0.379,-4.73,-2.399,-1.743,-1.816,-3.87,-4.757
-7.758,-9.759,-14.676,-11.363,-11.147,-10.705,-12.826,-12.822
-10.402,-17.059,-19.386,-15.981,-15.143,-15.015,-15.424,-16.723
-6.568,-13.881,-16.128,-13.315,-11.688,-12.023,-10.951,-14.773
-3.716,-9.917,-13.671,-12.199,-9.39,-10.63,-8.109,-13.755
-3.366,-11.668,-15.117,-15.475,-10.846,-13.858,-9.187,-15.433
0.158,-9.705,-12.747,-14.336,-8.312,-13.074,-6.532,-13.21
5.531,-2.056,-6.132,-7.285,-1.591,-6.486,-0.039,-7.245
3.88,-1.861,-5.579,-4.786,-1.19,-4.093,-0.262,-6.687
-5.447,-12.002,-12.824,-10.142,-8.975,-9.277,-8.653,-12.837
-11.05,-17.537,-17.197,-14.302,-14,-13.374,-13.36,-16.113
-6.535,-10.468,-13.637,-11.784,-10.628,-10.844,-8.762,-11.852
-0.663,-1.981,-9.099,-7.374,-5.721,-6.3,-2.979,-5.99
-2.954,-3.111,-10.134,-7.172,-6.279,-6.118,-3.442,-4.63
-10.608,-10.945,-15.19,-11.281,-11.205,-10.538,-7.879,-7.224
-17.046,-19.114,-20.057,-15.96,-16.548,-15.465,-11.971,-10.846
-20.799,-25.521,-22.856,-18.856,-20.259,-18.284,-15.248,-14.68
-22.182,-27.702,-22.829,-19.628,-20.865,-18.852,-17.196,-18.137
-21.183,-22.789,-20.361,-18.195,-18.492,-17.464,-16.287,-19.273
-19.858,-15.441,-18.884,-16.406,-17.293,-16.016,-14.828,-18.487
-22.254,-16.812,-22.59,-18.864,-21.729,-18.645,-18.306,-20.557
-26.644,-25.701,-28.565,-24.384,-28.223,-23.769,-25.153,-25.753
-23.78,-25.58,-26.923,-23.373,-26.57,-22.158,-24.744,-24.984
-14.325,-14.863,-17.443,-15.301,-16.742,-13.95,-15.412,-16.372
-10.324,-10.755,-11.784,-11.53,-10.613,-10.553,-9.137,-11.194
-12.902,-15.188,-12.825,-12.921,-11.366,-12.377,-10.214,-12.796
-14.609,-16.27,-14.693,-11.612,-13.383,-11.159,-12.619,-13.642
-16.156,-16.22,-18.861,-11.458,-17.956,-10.699,-16.391,-13.591
-20.921,-23.213,-28.628,-19.958,-27.928,-18.916,-24.564,-18.669
-26.052,-31.172,-38.413,-31.314,-37.581,-30.324,-32.829,-27.744
-26.663,-30.228,-41.006,-35.227,-39.869,-34.32,-34.954,-33.628
-22.592,-23.459,-37.263,-31.224,-35.828,-30.194,-31.381,-32.686
-19.901,-20.961,-33.524,-26.302,-31.994,-25.292,-27.578,-28.353
-22.966,-25.771,-32.748,-25.301,-31.302,-24.587,-26.59,-26.157
-26.632,-29.973,-31.873,-26.21,-30.608,-25.69,-26.239,-26.778
-24.895,-25.29,-28.714,-25.157,-27.759,-24.669,-24.213,-26.798
-21.749,-16.361,-26.052,-23.814,-25.16,-23.483,-21.914,-25.404
-23.325,-13.577,-26.393,-25.489,-25.08,-25.408,-21.814,-25.433
-27.605,-17.682,-27.984,-27.574,-26.6,-27.488,-23.978,-27.507
-29.348,-23.325,-28.056,-26.4,-27.317,-25.908,-25.571,-27.939
-28.418,-28.79,-27.151,-24.99,-26.608,-24.007,-24.62,-25.117
-28.549,-33.502,-27.843,-27.416,-26.454,-26.263,-23.736,-23.407
-30.751,-34.688,-30.113,-31.47,-27.903,-30.49,-25.891,-26.51
-32.296,-32.635,-31.98,-33.966,-30.14,-33.256,-29.31,-31.474
-32.19,-32.194,-33.319,-35.61,-32.946,-35.088,-31.318,-33.602
-33.019,-35.22,-34.84,-37.268,-35.583,-36.829,-32.377,-33.448
-36.398,-38.174,-36.195,-38.407,-36.716,-37.96,-33.797,-34.657
-38.808,-37.118,-36.536,-38.404,-36.649,-37.934,-35.09,-37.023
-34.523,-30.865,-34.243,-35.977,-35.162,-35.599,-33.851,-36.232
-24.916,-22.356,-28.74,-30.224,-31.056,-29.958,-28.899,-30.543
-18.251,-17.023,-22.496,-22.304,-25.265,-22.034,-22.66,-23.175
-17.504,-17.676,-18.21,-15.318,-20.271,-15.04,-18.12,-17.474
-18.583,-22.032,-16.592,-12.832,-18.123,-12.6,-16.13,-14.165
-18.626,-25.11,-16.572,-14.411,-18.495,-14.162,-15.647,-12.598
-17.149,-23.195,-15.625,-14.332,-18.036,-14.029,-14.337,-10.802
-15.48,-17.914,-13.13,-9.781,-15.761,-9.57,-11.47,-6.95
-17.179,-16.649,-12.097,-5.848,-15.231,-5.851,-9.561,-3.192
-21.609,-22.037,-13.336,-6.534,-16.654,-6.578,-9.595,-3.17
-22.946,-26.758,-13.641,-8.528,-15.623,-8.36,-9.111,-6.133
-20.134,-25.852,-12.384,-9.277,-12.25,-8.995,-7.672,-8.805
-17.995,-22.497,-11.78,-10.741,-10.61,-10.552,-7.431,-9.98
-19.093,-21.552,-12.195,-13.055,-11.383,-12.821,-8.464,-10.674
-21.942,-24.653,-12.827,-13.853,-12.617,-13.454,-9.06,-11.994
-23.561,-27.672,-12.875,-12.201,-12.6,-11.825,-8.555,-12.697
-21.655,-25.959,-11.469,-8.982,-10.625,-8.713,-7.415,-10.705
-16.274,-21.01,-8.635,-5.743,-7.694,-5.496,-5.768,-6.864
-10.054,-15.939,-5.573,-3.622,-5.522,-3.349,-3.995,-3.973
-6.904,-12.067,-4.321,-2.843,-5.457,-2.508,-4.112,-3.703
-7.783,-11.449,-5.339,-3.126,-7.148,-2.897,-6.704,-5.257
-9.54,-15.408,-6.427,-4.062,-8.735,-4.26,-9.273,-6.596
-9.957,-21.103,-6.427,-5.582,-9.848,-6.122,-10.539,-7.355
-8.813,-22.237,-5.912,-7.211,-10.689,-7.665,-11.187,-8.193
-5.586,-15.958,-4.616,-7.168,-9.94,-7.409,-11.007,-8.513
-1.914,-7.265,-2.671,-4.939,-7.777,-5.208,-9.753,-7.812
-0.915,-1.213,-1.625,-2.708,-6.568,-3.161,-8.396,-6.994
-1.766,1.369,-2.395,-2.94,-7.113,-3.484,-8.272,-7.376
-1.247,-1.321,-4.877,-6.386,-8.645,-6.919,-10.093,-9.369
1.306,-6.958,-8.294,-10.599,-11.09,-11.128,-12.904,-11.554
3.678,-6.802,-10.529,-11.242,-13.512,-11.714,-14.582,-11.955
3.342,-0.983,-9.711,-7.699,-13.424,-7.907,-13.983,-10.613
0.071,0.968,-7.04,-4.407,-10.792,-4.227,-12.34,-9.876
-4.496,-2.711,-5.459,-4.892,-8.717,-4.529,-11.994,-11.339
-8.134,-6.556,-5.389,-7.747,-8.209,-7.48,-12.582,-13.018
-8.809,-8.887,-5.121,-9.722,-7.372,-9.58,-11.6,-12.414
-6.745,-8.985,-4.47,-9.87,-5.875,-9.759,-9.365,-10.742
-3.216,-4.384,-3.715,-8.874,-4.613,-8.695,-7.744,-9.935
1.009,1.942,-2.215,-7.36,-3.314,-7.121,-6.559,-9.475
3.54,3.632,-1.208,-6.64,-2.745,-6.657,-6.025,-9.286
2.12,0.835,-2.655,-7.909,-4.633,-8.411,-7.416,-10.446
-0.787,-0.9,-4.445,-9.483,-7.012,-10.091,-9.306,-11.642
-0.048,1.487,-2.479,-7.682,-5.435,-7.933,-8.46,-9.736
5.267,6.618,2.66,-1.895,-0.281,-1.92,-4.875,-4.539
11.183,11.787,6.683,4.079,3.625,3.933,-1.598,0.545
14.402,13.519,7.737,6.146,4.596,5.938,-0.569,1.933
14.321,8.78,6.517,2.743,4.181,2.738,-1.832,-1.813
11.797,1.852,4.155,-2.79,3.251,-2.675,-3.953,-7.374
8.99,0.729,2.619,-4.268,2.983,-4.388,-4.639,-8.778
7.994,3.869,2.438,-2.255,3.283,-2.705,-3.76,-5.927
8.318,4.583,1.783,-2.093,1.407,-2.554,-2.962,-3.58
7.829,3.529,0.417,-2.896,-2.272,-3.067,-2.207,-2.473
7.053,4.105,0.079,-1.234,-3.888,-1.382,-0.574,-0.431
9.48,5.309,1.982,1.825,-1.391,1.21,1.734,2.372
15.266,6.623,6.679,4.76,5.847,3.937,3.912,5.005
18.606,9.386,11.374,6.717,13.994,6.359,5.04,6.577
15.558,11.602,9.737,4.954,12.964,5.052,4.75,5.253
10.104,11.518,2.025,-0.078,2.105,0.065,3.859,1.894
7.817,11.673,-3.066,-3.039,-5.498,-2.837,3.539,0.365
9.102,12.803,-1.61,-1.65,-3.902,-1.223,4.333,2.134
12.233,13.576,2.454,1.661,0.893,2.02,5.657,5.336
16.726,15.405,6.134,4.801,4.848,4.643,6.66,7.982
20.889,17.081,8.617,6.032,7.643,5.47,6.769,8.648
20.845,13.331,7.577,2.854,7.102,2.381,4.6,5.617
16.435,5.573,3.004,-3.401,2.703,-3.681,0.858,0.731
14.13,1.553,1.179,-5.753,0.789,-6.114,0.585,0.624
17.243,3.562,5.65,-1.56,5.963,-2.115,4.928,5.368
20.524,7.747,10.313,2.431,11.869,1.746,7.294,6.16
20.599,11.943,10.335,2.595,11.708,1.785,4.969,1.491
19.86,15.887,8.947,3.329,8.509,2.481,3.151,-0.922
18.433,15.802,7.827,5.373,6.324,4.693,3.497,0.45
15.332,9.442,5.204,5.665,4.363,5.105,2.325,1.116
13.236,3.819,3.743,6.44,3.7,5.715,0.261,1.765
13.7,6.285,6.321,10.029,6.319,9.149,1.514,5.035
15.969,14.521,10.031,13.564,9.536,12.781,6.627,9.182
20.858,22.202,13.212,16.36,11.54,15.634,13.152,13.178
28.152,27.519,18.401,21.157,15.801,20.152,19.486,18.74
34.63,32.137,24.756,26.773,22.97,25.332,24.436,24.577
36.949,34.522,26.324,27.907,26.085,26.388,25.403,25.472
34.142,31.301,20.791,23.049,20.776,21.985,21.044,19.466
29.384,24.878,14.016,17.288,13.303,16.724,14.571,12.107
27.058,21.01,11.348,14.072,10.788,13.588,9.988,9.001
26.872,20.683,11.218,11.79,11.522,11.164,8.182,9.525
25.955,21.004,11.901,11.38,11.816,10.789,9.276,12.034
24.692,21.112,14.853,15.286,12.819,14.807,12.788,15.857
24.959,22.703,18.54,20.004,15.231,19.476,15.09,17.656
27.691,26.53,19.84,21.748,17.084,21.221,14.184,16.497
33.81,30.192,20.195,22.273,18.597,21.953,14.047,17.172
41.106,31.387,21.613,22.637,20.706,22.309,17.244,20.532
44.886,33.641,23.484,22.643,22.689,21.932,21.139,22.489
44.905,41.137,26.933,25.153,25.859,24.285,25.201,24.7
44.369,48.438,32.567,30.764,30.984,30.217,30.802,30.61
44.153,47.512,36.58,35.206,34.047,34.951,35.521,36.367
44.944,43.616,37.875,38.156,34.299,37.827,38.137,39.004
48.931,47.513,40.651,43.418,37.081,42.685,41.616,42.003
53.272,54.595,44.393,47.945,41.648,46.656,44.774,45.426
52.082,53.152,43.909,45.84,41.211,44.216,42.878,44.56
46.546,45.243,39.296,40.017,35.908,38.48,37.044,39.327
41.636,39.493,34.415,36.477,31.131,35.188,32.108,34.158
38.764,36.837,31.663,36.151,29.139,34.992,29.983,32.304
38.429,35.325,32.739,37.604,30.222,36.464,30.133,33.918
40.106,35.529,36.384,38.88,33.284,37.806,30.575,35.471
39.953,37.13,38.176,38.249,35.195,37.424,29.455,34.037
36.204,38.109,37.361,36.619,35.367,36.122,28.357,32.41
31.698,36.842,36.89,35.849,35.743,35.509,29.585,33.697
29.139,33.405,36.682,35.681,35.714,35.329,31.407,35.159
29.313,30.285,35.173,35.351,34.279,34.926,31.471,34.13
32.341,30.704,34.726,35.714,34.147,35.064,31.448,33.32
37.152,35.123,38.173,37.433,37.765,36.472,33.425,34.685
40.279,39.147,42.417,38.361,42.153,37.328,35.21,35.023
38.274,37.37,41.997,35.561,42.314,34.647,34.023,32.332
33.14,31.706,38.533,31.598,39.374,30.684,32.367,30.458
30.203,29.01,38.634,32.32,39.101,31.335,34.173,32.809
30.263,29.123,42.689,36.767,42.119,35.783,37.904,37.031
31.069,28.12,44.972,39.721,43.724,38.775,39.351,39.521
33.07,28.923,43.486,41.27,42.241,40.414,37.985,40.175
36.987,34.803,41.662,44.237,40.625,43.485,36.859,40.868
40.675,41.007,41.924,47.807,40.937,47.047,37.954,42.328
42.131,41.713,43.756,50.006,42.29,49.21,40.604,44.158
41.956,38.375,46.398,51.639,44.093,50.951,44.06,46.555
40.881,36.051,48.392,53.171,46.093,52.644,47.133,48.841
38.2,36.367,47.844,53.077,46.312,52.593,47.341,48.867
35.023,37.911,45.849,51.671,44.189,51.229,44.995,47.104
33.811,38.009,44.384,49.822,41.934,49.654,43.023,45.848
33.88,34.919,42.99,46.873,40.897,47.068,41.94,44.531
34.128,33.113,42.521,44.987,41.795,45.3,41.55,42.626
35.862,37.488,44.778,46.2,44.709,46.435,42.915,41.969
38.174,42.623,47.023,46.232,46.534,46.303,44.382,41.945
39.652,42.897,46.873,43.24,46.038,42.864,44.113,41.213
42.512,43.025,47.823,42.898,47.196,41.927,44.823,42.464
46.21,44.461,51.847,46.707,51.122,45.505,48.283,46.773
45.537,41.147,55.296,49.211,53.485,48.236,51.38,49.57
39.016,34.811,54.52,47.354,51.27,46.746,50.599,46.892
31.478,32.277,48.816,41.942,44.88,41.65,45.196,40.018
28.069,31.634,40.78,34.887,36.995,34.748,37.676,33.317
28.752,29.122,35.598,29.788,32.048,29.463,32.653,30.285
29.277,28.284,35.275,29.075,31.874,28.39,32.217,30.768
28.247,32.303,36.768,31.062,33.746,30.284,34.245,31.94
29.343,38.809,38.313,33.694,35.507,33.113,36.461,32.524
33.327,42.918,39.801,35.559,36.545,35.114,37.466,32.717
35.516,41.306,39.157,34.2,35.355,33.653,36.059,31.948
35.019,37.271,37.265,32.002,33.576,31.229,34.711,32.104
35.967,37.511,38.868,35.499,35.673,34.603,37.441,36.322
37.516,41.279,42.908,42.317,39.842,41.471,41.693,41.076
34.551,41.344,42.827,43.113,39.498,42.273,41.14,39.767
27.77,35.836,37.775,37.242,34.297,36.316,36.045,33.848
22.46,30.321,32.896,31.884,29.558,31.028,31.951,29.946
19.909,27.879,30.482,29.637,27.541,28.92,30.604,29.425
18.037,25.351,29.29,28.123,26.902,27.399,30.102,29.877
18.059,22.879,29.948,27.592,27.768,26.961,31.055,31.812
22.763,26.694,33.936,30.425,31.52,30.034,35.372,36.027
28.167,34.153,37.517,33.945,35.335,33.52,39.896,38.864
26.76,31.539,34.66,31.97,33.421,31.227,38.425,36.338
19.874,18.857,28.113,26.086,27.389,25.127,32.131,31.077
14.778,13.133,26.134,23.949,25.226,23.077,28.81,28.898
11.963,16.68,27.238,23.96,26.528,23.465,29.197,28.618
7.857,14.826,23.938,18.499,24.063,18.389,26.925,24.717
4.765,7.457,18.503,11.141,18.959,11.048,22.239,19.432
8.233,9.759,19.237,12.285,18.654,11.812,22.009,20.478
17.329,23.388,26.21,21.432,24.025,20.6,27.244,27.834
24.169,32.27,31.665,28.32,28.831,27.633,31.478,33.122
25.636,29.165,32.087,28.966,29.636,28.682,31.964,32.565
27.417,24.768,31.814,28.445,29.695,28.077,32.734,31.059
32.409,27.308,33.97,29.55,31.815,28.63,35.274,31.793
35.825,32.098,35.703,29.65,33.414,28.513,36.062,31.65
33.02,30.875,33.611,26.811,30.895,26.07,33.188,28.009
25.788,23.5,28.996,23.161,25.692,22.808,29.15,23.366
19.984,17.741,26.139,21.825,22.97,21.417,27.625,21.756
17.475,16.484,26.612,22.341,24.502,21.75,29.239,23.387
15.506,16.516,28.725,23.27,27.634,22.674,31.705,25.46
13.561,17.723,31.017,24.797,30.098,24.188,33.003,26.195
14.109,21.412,33.056,25.681,31.703,24.971,32.792,26.211
18.547,26.618,34.877,25.296,33.244,24.748,32.052,27.243
24.921,30.659,35.83,25.19,34.404,25.081,31.264,28.868
28.78,30.695,34.896,25.527,33.967,25.508,29.807,28.878
28.997,28.854,33.778,26.913,33.327,26.383,28.499,28.239
29.626,29.9,35.242,30.246,35.062,29.3,28.893,29.356
31.677,32.034,37.742,31.931,37.735,31.165,28.948,29.856
31.011,30.507,37.13,28.476,37.249,27.892,25.666,26.126
26.949,26.953,32.782,22.562,32.495,21.609,21.476,20.453
23.183,25.385,27.592,18.316,26.135,17.023,20.268,17.276
20.595,24.458,23.37,16.439,20.848,15.533,20.202,16.307
16.652,20.472,19.563,15.289,17.09,15.111,17.639,14.626
11.674,14.618,16.683,13.931,15.149,14.03,14.338,12.627
10.661,12.174,17.201,14.069,16.294,14,14.892,13.706
16.199,15.286,21.098,16.625,19.824,16.403,19.266,17.988
24.233,21.302,24.919,18.84,22.98,18.503,23.171,21.111
28.959,25.226,25.716,17.919,23.731,17.495,24.112,20.638
28.252,22.592,23.458,14.858,21.667,14.626,22.736,18.924
23.832,14.844,20.329,12.532,18.205,12.618,19.867,17.945
17.994,8.168,17.435,10.687,14.96,10.826,15.353,15.823
12.759,6.005,14.372,7.557,12.216,7.554,10.389,11.526
10.189,6.954,12.498,5.218,10.833,5.205,8.319,8.213
9.287,8.302,13.594,6.533,12.222,6.739,10.784,8.528
6.323,7.993,15.594,9.036,14.815,9.432,14.375,10.019
1.346,4.337,15.086,8.111,15.167,8.422,14.08,8.631
-0.536,-0.84,13.639,5.329,13.975,5.448,10.919,5.784
2.984,-2.484,15.386,6.313,15.217,6.414,11.001,6.41
8.424,0.912,19.72,10.932,19.351,11.075,15.836,10.711
13.47,7.318,23.056,14.199,23.214,14.262,20.728,14.61
18.215,14.073,23.795,13.834,24.197,13.982,21.756,15.442
20.53,17.461,21.905,11.306,21.412,11.815,18.779,13.389
18.409,16.102,18.475,9.116,16.258,9.781,13.846,10.396
13.585,12.744,15.596,8.516,12.074,9.05,9.275,8.301
9.81,10.629,14.602,9.024,11.17,9.545,6.629,7.771
9.495,10.762,15.554,9.607,13.043,10.14,6.726,8.845
12.414,12.147,18.044,10.061,16.259,10.342,9.815,11.48
17.21,14.225,20.811,11.194,19.507,11.188,14.324,14.864
21.686,16.285,20.873,11.857,19.747,11.748,16.271,15.969
23.059,16.123,16.358,9.874,14.474,9.687,13.219,12.751
21.288,14.043,10.018,7.15,6.76,6.958,7.465,8.352
18.443,12.355,5.586,5.886,1.449,5.97,2.353,6.229
14.664,10.028,2.907,4.152,-1.847,4.548,-1.498,5.015
10.525,7.001,1.244,2.367,-4.502,2.796,-3.82,3.408
8.847,7.652,2.362,4.066,-3.55,4.478,-2.721,3.492
9.434,11.44,6.391,8.241,1.978,8.815,2.039,6.059
8.668,11.985,9.874,10.652,6.833,11.238,6.925,8.673
6.314,9.317,10.813,10.679,7.594,10.994,8.805,9.899
6.719,9.703,11.669,11.003,7.926,11.259,9.012,11.183
11.415,13.567,14.343,11.882,11.022,12.518,9.556,12.576
16.478,15.624,17.057,11.231,14.517,12.247,9.713,11.922
18.353,14.469,18.282,9.967,15.806,11.01,9.359,10.161
16.951,13.063,18.104,10.411,15.201,11.218,9.393,9.984
14.714,13.686,16.795,11.444,14.187,12,9.579,10.541
14.045,15.242,15.094,10.321,13.732,10.826,9.83,10.201
14.528,13.866,13.781,7.541,13.537,8.22,10.342,10.421
14.901,9.667,13.32,6.81,13.575,7.591,10.363,12.309
14.815,7.3,13.839,8.553,14.453,9.149,9.255,13.26
14.014,7.194,14.913,9.197,15.693,9.487,8.425,11.647
13.634,6.787,16.339,8.925,16.479,8.996,10.261,11.09
14.301,6.281,17.089,10.407,16.03,10.382,13.497,13.582
14.008,7.014,15.044,11.884,13.16,11.886,13.882,15.137
12.594,10.325,11.058,11.294,9.079,11.38,11.525,14.464
12.515,16.347,9.142,11.43,7.403,11.589,10.658,15.67
13.586,21.542,9.966,13.92,8.185,14.171,11.538,18.606
13.221,21.232,9.473,15.042,7.262,15.281,10.459,17.996
12.066,17.099,7.023,13.783,4.542,13.772,8.059,13.933
12.285,14.638,6.513,13.705,4.2,13.548,8.468,11.58
10.453,10.105,6.708,12.235,4.956,12.43,10.18,10.639
3.291,-1.731,4.119,6.061,3.265,6.746,9.373,8.511
-3.169,-11.466,2.913,3.154,2.767,3.853,9.21,9.065
-2.885,-9.44,7.446,8.999,7.698,9.399,13.633,14.243
0.417,-2,13.729,15.528,14.972,15.808,18.881,17.862
2.41,2.155,17.349,16.625,19.831,16.781,20.467,17.065
5.209,4.691,19.168,16.263,21.406,15.985,20.038,16.05
9.874,10.806,20.99,18.349,21.728,17.79,20.991,17.422
13.354,21.406,23.554,22.658,23.471,22.314,23.975,20.709
13.748,29.758,25.908,26.943,26.138,26.841,26.481,24.254
12.27,27.621,24.978,27.26,25.856,27.139,25.009,24.823
11.471,18.981,20.726,22.789,22.208,22.668,19.807,21.159
11.825,14.053,17.417,18.487,19.154,18.553,15.157,16.601
11.454,13.618,16.616,17.087,18.029,17.347,13.711,14.688
10.613,13.374,15.722,15.295,16.547,15.495,13.951,14.659
10.688,12.165,13.15,11.824,13.27,11.842,13.264,13.766
9.442,8.628,8.902,9.051,8.183,9.165,10.514,11.289
4.776,1.764,3.156,6.38,2.219,6.741,6.712,8.303
0.318,-3.624,-1.975,2.642,-1.883,2.981,4.529,6.149
-0.003,-2.799,-4.134,0.35,-2.838,0.466,4.795,5.253
1.693,0.725,-4.172,1.148,-2.886,1.092,5.273,4.898
2.356,2.681,-3.198,4.137,-2.414,3.915,5.406,5.49
2.732,4.879,-0.217,8.479,1.135,8.03,7.296,8.279
3.439,7.41,4.534,13.278,7.032,12.787,11.138,12.597
3.087,6.293,8.62,17.306,11.119,17.222,14.545,16.524
1.874,2.557,10.477,19.302,11.8,19.698,15.768,18.387
2.62,3.402,11.206,19.355,11.823,19.7,15.246,17.666
6.535,10.572,12.95,18.969,14.015,18.937,14.31,15.965
11.362,15.696,16.661,18.025,18.546,17.806,14.169,15.362
15.502,13.735,21.849,16.523,24.588,16.241,16.076,15.907
18.807,10.393,25.756,16.101,29.371,15.751,19.484,15.731
18.954,10.004,24.506,15.768,28.337,15.536,21.712,14.206
14.28,9.145,18.663,13.543,22.172,13.569,21.313,12.983
9.225,5.558,12.857,10.463,16.843,10.686,19.046,12.473
9.244,2.519,9.021,8.048,14.225,8.555,16.223,11.929
12.987,3.234,6.588,6.878,12.237,7.725,13.849,11.669
16.611,7.941,6.705,7.274,12.23,8.008,12.058,11.318
20,14.238,8.633,7.783,14.687,7.949,10.057,9.592
22.482,16.844,6.755,5.585,12.819,5.312,7.026,6.089
21.128,13.677,-0.319,1.323,4.04,0.936,3.523,2.665
16.718,8.817,-5.523,-0.572,-2.565,-0.976,1.454,2.388
13.137,3.977,-5.359,0.108,-1.871,-0.293,1.345,4.103
12.33,-1.057,-4.435,-0.657,0.128,-0.96,1.55,3.789
14.344,-1.097,-5.477,-2.207,-0.55,-2.411,1.067,2.006
17.539,6.802,-6.553,-0.948,-1.372,-1.227,0.346,1.745
18.48,14.817,-7.023,1.913,-1.306,1.436,-0.418,2.486
16.015,14.168,-8.078,2.176,-2.565,1.639,-1.354,1.929
13.105,7.415,-8.733,0.005,-4.853,-0.395,-1.899,0.513
11.872,3.433,-7.064,-0.53,-5.023,-0.883,-1.466,0.402
9.635,4.044,-4.844,0.423,-3.187,-0.03,-1.021,0.652
3.713,4.192,-4.638,-0.462,-1.88,-0.905,-1.77,-0.541
-2.093,2.761,-4.34,-1.544,-0.228,-2.007,-2.235,-0.709
-2.82,2.318,-1.409,0.569,2.89,-0.162,0.206,2.359
-0.08,2.019,2.599,4.359,5.723,3.43,5.121,5.961
2.619,0.577,6.124,7.167,8.461,6.378,9.726,7.48
4.21,-0.709,8.954,8.722,12.107,8.263,12.65,8.156
2.856,-2.48,9.324,8.4,13.973,8.172,13.955,9.297
-2.641,-7.511,5.454,4.546,11.097,4.24,12.627,8.686
-9.046,-14.363,-1.12,-2.668,4.788,-3.175,7.672,3.667
-10.991,-15.805,-5.718,-9.364,0.062,-9.811,2.002,-3.046
-6.814,-9.44,-5.583,-11.549,0.178,-11.69,0.436,-5.795
-0.888,-3.073,-3.478,-9.955,2.706,-9.809,2.731,-4.235
1.818,-0.955,-2.568,-7.077,4.38,-6.883,4.528,-2.405
0.253,0.415,-3.03,-4.224,4.409,-4.327,4.571,-1.633
-3.966,0.505,-5.541,-3.833,1.697,-4.254,4.388,-1.182
-6.172,-1.187,-9.788,-5.851,-2.851,-6.122,3.999,-1.347
-2.66,0.336,-12.46,-5.544,-5.401,-5.382,2.916,-1.831
2.022,3.788,-12.588,-2.373,-5.672,-2.102,1.433,-2.18
1.827,2.33,-12.282,-1.818,-6.046,-1.807,-0.266,-3.402
-1.615,-3.894,-12.265,-6.052,-6.109,-6.303,-2.545,-6.413
-4.717,-8.939,-12.757,-11.1,-5.748,-11.572,-6.221,-10.845
-7.151,-8.803,-14.256,-12.993,-6.632,-13.581,-10.629,-15.141
-8.571,-5.418,-14.857,-12.269,-7.314,-12.553,-13.173,-17.59
-8.63,-4.813,-12.322,-11.29,-4.736,-11.174,-12.949,-17.738
-9.418,-8.809,-8.685,-10.926,-0.545,-10.987,-12.394,-16.778
-12.005,-13.133,-7.822,-11.213,0.117,-11.679,-13.375,-16.515
-12.515,-13.031,-8.612,-10.396,-2.998,-10.696,-13.181,-15.772
-7.396,-5.645,-6.167,-5.57,-3.294,-5.337,-8.479,-10.705
-0.493,5.979,-1.017,1.076,1.641,1.475,-2.467,-2.993
1.369,12.13,0.611,3.128,4.837,3.247,-1.635,-0.332
-1.331,9.278,-2.202,0.502,2.736,0.363,-5.277,-3.128
-1.6,5.63,-2.499,0.845,2.326,0.756,-5.349,-1.495
2.791,6.386,2.632,6.576,7.857,6.862,0.825,7.141
6.716,7.69,6.656,10.786,12.391,11.53,6.047,11.621
6.307,7.302,4.638,9.84,10.049,10.528,5.423,6.487
2.394,5.147,-0.309,6.59,4.532,6.56,2.139,0.03
-2.617,0.228,-4.738,2.175,0.424,1.454,-1.26,-2.574
-7.28,-4.566,-9.681,-3.401,-3.59,-4.258,-5.773,-5.22
-11.838,-5.714,-15.946,-7.569,-9.704,-8.137,-10.344,-8.968
-14.637,-3.551,-20.124,-7.231,-14.879,-7.347,-11.464,-9.373
-11.877,1.021,-18.689,-2.391,-14.451,-2.075,-8.209,-5.262
-6.148,4.608,-14.4,2.42,-10.379,2.846,-4.293,-1.595
-4.996,1.76,-13.003,2.695,-8.495,2.803,-3.74,-2.306
-8.164,-5.371,-14.642,0.066,-9.288,-0.036,-5.664,-4.356
-9.365,-9.493,-15.671,-1.248,-9.965,-1.007,-6.627,-3.415
-8.263,-9.594,-15.671,-2.212,-10.52,-1.537,-6.768,-2.058
-8.448,-7.712,-15.42,-5.702,-10.634,-5.095,-8.186,-4.861
-9.347,-3.609,-13.358,-9.506,-7.733,-9.271,-9.805,-9.622
-8.057,-0.247,-9.155,-10.208,-2.021,-10.055,-9.53,-11.309
-2.957,-0.327,-4.545,-7.843,3.102,-7.381,-6.813,-9.03
5.668,1.176,0.091,-3.58,6.043,-2.929,-1.259,-4.5
12.747,6.379,3.291,-0.76,6.568,-0.304,4.183,-1.005
11.031,8.141,0.546,-4.134,2.319,-3.896,2.478,-3.499
2.114,4.334,-8.272,-12.025,-7.033,-11.69,-7.642,-12.371
-4.395,0.442,-15.704,-17.566,-15.062,-16.915,-18.076,-20.678
-6.543,-3.982,-17.452,-19.045,-16.949,-18.172,-22.709,-23.02
-10.227,-11.531,-17.85,-19.516,-16.882,-18.662,-23.398,-21.44
-14.77,-16.485,-19.552,-18.766,-18.731,-17.994,-22.156,-19.051
-16.32,-15.241,-19.344,-15.584,-19.454,-14.773,-18.206,-15.83
-17.883,-13.442,-16.597,-12.734,-17.151,-11.907,-13.27,-12.407
-21.511,-13.347,-13.983,-11.54,-13.961,-10.924,-10.095,-9.799
-21.83,-10.401,-11.649,-9.312,-10.557,-9.014,-8.384,-7.047
-15.563,-4.767,-9.734,-5.969,-7.844,-5.88,-7.819,-4.696
-7.517,-0.873,-9.986,-3.821,-8.422,-3.844,-8.401,-4.06
-3.519,1.036,-11.109,-2.831,-11.001,-2.895,-7.699,-3.209
-4.364,1.267,-10.589,-2.269,-11.915,-2.2,-5.108,-1.376
-8.201,-2.374,-9.537,-2.578,-11.407,-2.219,-4.127,-1.647
-14.177,-9.189,-10.216,-5.316,-11.716,-4.644,-6.907,-5.689
-19.607,-14.916,-11.006,-9.871,-11.808,-9.029,-10.203,-9.842
-17.717,-15.213,-7.218,-9.954,-8.05,-9.237,-7.796,-7.42
-7.536,-8.946,1.031,-2.544,-0.815,-2.051,0.469,1.348
0.373,-0.809,6.746,4.784,4.042,5.311,6.461,6.909
-0.441,4.639,7.894,6.769,5.389,7.461,7.391,6.659
-2.849,9.11,10.099,8.253,8.388,8.847,9.117,8.485
-1.155,11.857,12.684,10.44,11.633,10.746,11.678,12.317
0.234,6.793,9.419,7.368,9.117,7.579,9.875,10.043
-2.451,-3.789,2.146,-0.373,2.77,-0.021,5.136,2.012
-7.009,-10.909,-2.804,-5.513,-1.942,-5.062,2.015,-4.367
-11.791,-13.064,-4.847,-5.682,-4.581,-5.272,1.126,-5.746
-17.788,-12.63,-6.751,-4.732,-6.888,-4.37,0.694,-4.696
-23.526,-9.661,-9.596,-5.931,-9.569,-5.617,-1.533,-5.306
-23.823,-6.609,-11.754,-7.829,-11.69,-7.595,-5.099,-7.512
-17.199,-7.307,-10.611,-7.483,-11.128,-7.18,-5.919,-7.745
-10.78,-10.427,-7.418,-5.552,-8.449,-5.027,-3.56,-5.9
-11.621,-10.652,-6.714,-4.188,-6.969,-3.617,-2.62,-5.3
-16.755,-6.739,-9.37,-3.559,-7.934,-3.189,-4.589,-6.883
-19.597,-4.556,-13.053,-4.795,-10.925,-4.589,-7.531,-9.503
-20.873,-8.746,-18.172,-10.567,-16.952,-10.302,-11.663,-13.318
-23.938,-15.929,-25.345,-19.233,-25.326,-18.816,-17.458,-18.445
-27.844,-22.407,-31.199,-26.009,-31.508,-25.593,-22.877,-23.602
-31.308,-28.411,-32.554,-29.332,-32.316,-29.016,-25.911,-27.207
-34.275,-32.027,-30.729,-30.214,-29.734,-29.876,-26.352,-28.287
-35.651,-32.684,-29.159,-30.605,-27.566,-30.327,-25.388,-28.198
-34.911,-33.912,-29.081,-32.767,-26.765,-32.856,-24.583,-29.51
-34.029,-35.732,-30.397,-36.422,-27.181,-36.772,-25.323,-33.014
-34.985,-35.507,-33.087,-39.394,-29.339,-39.459,-27.737,-37.053
-36.318,-34.551,-34.424,-39.997,-30.812,-39.607,-28.981,-37.538
-34.988,-34.214,-30.305,-36.189,-27.454,-35.739,-25.063,-31.212
-30.26,-30.492,-20.571,-26.709,-19.027,-26.436,-15.725,-20.395
-24.673,-22.85,-10.179,-16.13,-9.899,-15.873,-6.872,-11.93
-22.885,-19.915,-5.182,-12.295,-5.366,-11.948,-4.714,-10.349
-25.669,-23.709,-5.984,-14.792,-6.005,-14.453,-6.943,-12.622
-25.971,-22.942,-6.397,-15.049,-6.386,-14.771,-6.588,-12.591
-20.594,-14.285,-3.828,-10.797,-4.244,-10.503,-3.639,-9.691
-17.084,-8.641,-2.918,-7.407,-4.047,-7.026,-2.886,-7.384
-18.61,-9.466,-4.393,-5.37,-5.993,-4.824,-3.301,-5.556
-18.882,-9.719,-3.642,-1.546,-5.014,-0.849,-1.12,-2.435
-16.097,-8.099,-1.482,1.609,-2.423,2.1,1.206,-0.202
-13.998,-7.803,-2.631,0.604,-3.851,0.601,-0.769,-1.551
-12.877,-7.573,-6.613,-2.143,-8.903,-2.276,-6.014,-5.157
-11.7,-5.203,-9.048,-2.946,-12.576,-2.778,-10.09,-8.062
-10.919,-0.327,-7.533,-1.099,-11.829,-0.87,-9.573,-8.029
-9.938,5.607,-4.422,0.922,-8.602,0.879,-5.908,-5.715
-9.07,6.581,-4.968,-1.781,-7.985,-1.944,-5.67,-6.102
-9.12,0.131,-8.802,-8.614,-10.061,-8.707,-10.033,-10.469
-8.447,-6.104,-9.355,-11.884,-9.443,-11.929,-11.301,-12.298
-7.138,-7.285,-6.182,-9.284,-6.219,-9.212,-7.164,-8.899
-7.717,-7.568,-5.085,-6.431,-5.433,-6.157,-4.464,-5.667
-9.55,-9.025,-6.216,-6.472,-6.582,-6.222,-5.87,-5.838
-10.687,-9.41,-6.11,-8.073,-6.281,-8.143,-7.689,-7.909
-11.917,-9.223,-5.695,-10.807,-5.9,-11.128,-8.747,-10.849
-13.29,-10.66,-6.078,-14.992,-6.995,-15.226,-10.036,-13.601
-13.182,-14.144,-4.995,-18.111,-6.884,-18.044,-10.018,-13.466
-12.39,-17.883,-2.177,-16.612,-4.597,-16.422,-7.484,-9.497
-13.784,-20.18,-1.602,-12.784,-4.316,-12.835,-5.797,-5.696
-17.872,-22.029,-5.782,-12.988,-8.579,-13.278,-8.716,-6.75
-20.999,-21.969,-10.877,-15.664,-13.269,-15.878,-13.66,-10.519
-20.838,-17.114,-12.086,-13.757,-14.361,-13.814,-15.487,-11.596
-20.533,-11.826,-11.061,-9.198,-14.313,-9.135,-14.316,-10.556
-22.255,-12.197,-12.04,-9.138,-16.517,-8.774,-13.727,-11.124
-22.456,-15.068,-14.122,-11.974,-18.905,-11.375,-14.401,-12.151
-18.544,-12.75,-13.239,-10.558,-17.855,-10.234,-13.766,-9.73
-15.254,-7.034,-10.551,-5.483,-15.247,-5.515,-11.785,-5.305
-18.741,-6.908,-11.893,-4.139,-16.256,-4.03,-12.671,-5.283
-27.38,-12.956,-17.737,-7.92,-21.036,-7.561,-17.683,-10.957
-33.978,-17.874,-21.757,-10.291,-24.51,-10.089,-21.832,-15.731
-34.997,-18.625,-21.192,-8.406,-24.564,-8.426,-21.956,-15.59
-32.937,-17.563,-20.487,-7.889,-24.286,-7.737,-21.414,-14.616
-29.837,-14.883,-21.317,-10.996,-24.236,-10.657,-22.177,-15.67
-25.216,-9.213,-19.524,-11.479,-21.233,-11.474,-21.41,-15.196
-21.265,-4.551,-15.874,-8.27,-17.358,-8.796,-19.385,-12.431
-20.217,-3.823,-15.628,-7.013,-17.573,-7.656,-19.431,-11.761
-18.316,-0.914,-16.816,-6.3,-18.874,-6.775,-20.138,-12.918
-11.713,7.538,-13.214,-0.734,-14.736,-1.228,-17.389,-10.69
-3.039,14.939,-5.457,7.248,-6.056,6.658,-10.884,-4.232
2.609,16.614,0.046,10.944,0.378,10.54,-4.094,1.325
1.867,13.582,-1.424,7.982,-0.755,7.84,-2.06,1.065
-5.323,6.349,-8.847,1.496,-8.825,1.293,-7.013,-4.215
-12.759,-1.017,-15.38,-2.894,-16.541,-3.272,-13.21,-8.388
-12.422,-0.541,-14.904,-2.206,-16.907,-2.335,-13.347,-7.317
-5.195,6.534,-9.473,1.573,-11.525,1.93,-8.85,-3.345
0.713,10.744,-5.487,4.269,-6.955,4.561,-5.631,-0.727
1.345,9.391,-4.945,3.415,-5.926,3.138,-4.806,-0.988
-0.946,7.095,-5.253,1.05,-6.494,0.568,-3.534,-2.832
-3.291,7.191,-3.623,1.228,-5.435,1.071,-0.11,-3.215
-4.905,9.479,0.19,3.924,-1.79,4.008,4.106,-0.848
-6.94,10.691,3.158,5.415,1.46,5.404,6.44,1.207
-10.392,7.977,3.118,4.567,2.238,4.406,6.625,0.705
-13.386,3.401,2.02,3.728,2.267,3.593,6.558,0.004
-12.758,0.955,2.177,4.411,2.702,4.426,6.767,1.371
-8.486,1.649,3.438,6.355,3.069,6.393,6.723,3.734
-4.67,3.208,4.321,7.759,3.183,7.539,6.017,4.223
-4.965,1.899,2.81,5.719,1.79,5.29,3.137,0.929
-7.946,-2.867,-1.611,0.608,-2.247,0.362,-2.336,-4.023
-9.811,-7.095,-6.335,-3.199,-7.087,-3.22,-7.247,-6.502
-10.351,-8.67,-9.012,-3.574,-10.641,-3.81,-9.217,-6.224
-11.123,-8.816,-10.102,-2.531,-12.892,-3.131,-10.092,-6.265
-10.751,-7.732,-10.645,-2.109,-13.971,-2.589,-11.751,-7.783
-8.344,-6.422,-11.423,-3.497,-14.442,-3.444,-13.191,-9.485
-6.478,-7.225,-13.259,-7.14,-15.748,-6.83,-13.843,-11.072
-6.213,-8.201,-14.899,-10.35,-17.157,-10.318,-14.499,-12.989
-5.269,-5.446,-13.729,-9.53,-16.034,-9.867,-14.365,-13.475
-3.361,-1.784,-10.392,-5.561,-12.765,-5.947,-12.465,-10.946
-3.186,-3.119,-8.536,-2.981,-10.921,-3.219,-10.514,-8.047
-5.342,-7.537,-9.11,-4.038,-11.46,-4.209,-10.243,-7.861
-7.481,-9.037,-9.704,-6.343,-11.603,-6.521,-10.684,-9.102
-9.002,-8.458,-9.942,-7.12,-11.141,-7.27,-11.024,-9.565
-12.492,-10.225,-12.147,-6.972,-13.961,-7.117,-13.065,-10.405
-17.923,-12.589,-15.383,-6.901,-19.762,-7.181,-16.894,-12.61
-20.125,-10.895,-14.779,-5.11,-21.597,-5.574,-17.974,-13.062
-16.447,-6.683,-9.095,-0.633,-16.107,-0.989,-13.773,-9.145
-9.256,-2.449,-1.742,4.897,-7.345,5.05,-6.805,-2.468
-0.265,5.162,5.587,10.617,0.989,11.141,0.497,4.132
7.044,14.312,10.773,14.335,6.123,14.651,4.7,6.763
6.45,14.435,8.359,11.631,3.3,11.582,0.676,2.125
-0.594,4.205,-1.488,3.672,-6.734,3.664,-9.84,-6.122
-5.871,-5.309,-10.56,-3.469,-15.518,-3.16,-18.623,-11.264
-7.866,-8.472,-13.986,-7.998,-17.987,-7.501,-22.036,-13.225
-10.606,-9.014,-14.74,-11.968,-17.389,-11.443,-23.155,-16.503
-13.191,-10.231,-16.773,-16.037,-18.265,-15.422,-25.104,-21.811
-12.492,-11.754,-19.901,-19.032,-20.957,-18.292,-27.49,-25.597
-9.739,-12.318,-21.962,-20.166,-23.702,-19.523,-28.773,-26.447
-6.315,-11.801,-21.905,-19.961,-24.607,-19.627,-28.532,-26.221
-1.252,-10.465,-19.564,-18.754,-21.76,-18.591,-26.492,-25.312
3.933,-7.484,-16.192,-16.82,-16.795,-16.59,-23.437,-23.208
6.287,-2.604,-14.5,-15.577,-14.695,-15.321,-22.34,-21.94
5.187,-0.421,-15.973,-16.462,-17.079,-16.301,-24.857,-23.414
1.644,-5.866,-19.392,-19.087,-20.826,-18.897,-28.543,-25.583
-1.928,-14.024,-22.054,-21.272,-23.13,-20.858,-29.824,-25.519
-3.786,-17.004,-22.95,-22.127,-24.181,-21.522,-28.85,-24.717
-5.09,-15.504,-23.097,-22.329,-24.564,-21.738,-27.914,-25.797
-5.949,-12.503,-21.406,-20.025,-22.452,-19.481,-25.606,-25.741
-4.903,-8.541,-16.343,-13.553,-17.232,-12.826,-20.011,-20.854
-4.205,-6.967,-11.517,-7.72,-13.386,-6.728,-15.262,-14.93
-7.123,-10.42,-11.26,-8.286,-14.493,-7.344,-15.568,-13.615
-11.454,-15.041,-13.68,-13.119,-17.505,-12.501,-18.087,-16.416
-13.058,-16.692,-14.937,-16.584,-18.484,-16.086,-18.731,-19.741
-11.732,-15.827,-14.476,-16.659,-17.607,-15.976,-17.649,-20.63
-9.291,-12.795,-12.305,-12.882,-15.6,-12.14,-15.586,-16.845
-7.056,-8.447,-8.76,-6.329,-12.733,-5.835,-12.799,-10.34
-6.468,-7.598,-7.079,-2.532,-11.202,-2.241,-11.652,-7.356
-6.115,-9.398,-7.49,-3.627,-10.696,-3.367,-12.03,-8.841
-0.352,-5.09,-3.529,-2.281,-5.643,-2.188,-8.208,-7.19
11.207,4.363,5.616,5.022,4.256,4.765,0.467,0.523
19.239,7.952,9.802,9.981,9.454,9.493,5.036,6.101
17.979,3.231,4.674,7.497,5.446,7.131,1.811,4.565
12.631,-3.431,-1.483,2.573,-0.391,2.657,-2.326,0.831
9.285,-7.802,-3.191,-1.262,-2.476,-0.8,-3.897,-2.062
9.481,-7.309,-3.048,-3.537,-2.539,-3.151,-5.28,-4.826
13.734,-0.463,-1.522,-2.072,-0.804,-1.905,-4.882,-4.625
19.894,6.679,2.523,0.73,3.595,0.993,-0.533,-0.418
21.992,6.363,5.202,-0.521,6.679,-0.023,3.171,2.309
17.322,1.068,2.708,-4.271,4.617,-3.643,1.449,0.111
10.827,-2.478,-2.256,-6.752,0,-6.082,-3.191,-3.919
9.246,-1.489,-3.978,-7.206,-1.612,-6.691,-5.051,-5.57
12.901,4.362,-0.789,-4.217,1.231,-4.077,-2.908,-4.022
15.823,10.38,3.171,1.254,4.506,1.169,-0.255,-1.675
14.125,9.645,4.018,4.538,4.915,4.663,0.857,-0.48
10.753,4.268,3.221,4.545,4.113,5.031,1.77,0.198
9.468,1.419,3.792,4.157,4.714,4.692,3.196,0.884
8.979,1.564,5.396,4.529,6.387,4.828,4.061,1.146
7.416,2.007,6.336,4.836,7.895,4.922,4.176,1.705
6.708,2.823,6.577,4.412,9.086,4.369,4.466,3.008
8.991,3.784,7.505,4.024,10.42,3.869,6.029,4.445
13.206,3.764,10.492,6.214,12.803,6.045,9.942,6.944
16.881,3.899,14.592,11.753,15.926,11.766,14.837,11.35
18.419,5.688,16.401,16.109,16.875,16.428,16.6,14.969
15.988,5.609,13.655,13.481,13.468,13.99,12.989,13.825
8.851,-1.255,7.672,5.079,7.794,5.468,6.148,7.711
0.845,-11.319,1.454,-2.516,3.208,-2.489,-0.194,0.631
-2.722,-15.528,-3.286,-6.798,-0.177,-7.055,-3.958,-3.87
0.005,-12.157,-5.667,-9.04,-3.079,-9.225,-4.693,-5.213
6.13,-7.359,-5.388,-9.284,-4.315,-9.183,-3.244,-4.754
9.011,-5.59,-4.845,-8.503,-4.21,-8.302,-2.006,-4.519
4.968,-7.653,-6.781,-9.368,-5.236,-9.223,-2.839,-5.259
-1.106,-12.333,-9.69,-12.007,-7.5,-11.656,-5.049,-6.154
-2.9,-15.873,-10.564,-14.2,-8.828,-13.452,-6.842,-7.276
-1.44,-15.532,-9.844,-14.551,-9.069,-13.779,-7.435,-8.764
-1.211,-12.775,-9.11,-12.19,-9.663,-11.804,-6.611,-8.116
-3.242,-11.238,-7.665,-7.348,-10.041,-7.258,-4.207,-3.662
-5.118,-11.749,-4.124,-1.999,-7.73,-1.965,-0.534,2.142
-3.835,-10.229,1.402,3.276,-1.489,3.236,4.372,7.313
-0.001,-5.748,5.268,6.439,4.689,6.203,8.591,10.962
0.417,-4.991,1.571,0.999,2.837,0.703,6.388,8.471
-4.534,-9.09,-7.635,-11.128,-6.31,-11.153,-2.213,-0.907
-8.301,-10.604,-12.132,-17.205,-11.336,-16.917,-7.586,-7.713
-8.125,-9.965,-9.792,-14.583,-8.695,-14.288,-6.009,-7.022
-6.794,-12.181,-6.459,-11.487,-4.896,-11.364,-3.283,-4.439
-2.87,-12.272,-2.537,-8.827,-1.176,-8.657,-0.987,-2.381
4.067,-6.241,3.056,-4.023,4.149,-3.557,3.061,1.262
7.398,-1.532,5.725,-1.422,6.986,-0.857,6.295,4.538
3.946,-3.275,2.446,-4.423,4.029,-4.088,5.352,4.086
-0.443,-6.761,-3.163,-9.136,-1.155,-8.935,1.785,1.002
-0.551,-7.094,-6.095,-10.785,-3.578,-10.437,-0.681,-1.064
2.596,-3.758,-5.156,-8.951,-2.651,-8.555,-0.685,-0.901
6.204,1.862,-3.193,-6.949,-1.498,-6.828,-0.411,-0.977
8.607,6,-3.85,-7.945,-3.039,-8.168,-2.555,-3.374
8.639,4.583,-7.465,-10.015,-7.103,-10.339,-6.163,-5.955
6.575,-1.268,-10.552,-8.203,-10.553,-8.314,-7.581,-5.185
5.409,-5.99,-9.737,-2.993,-10.182,-2.837,-5.296,-1.52
8.143,-5.277,-4.938,0.292,-5.691,0.331,-1.13,1.778
13.348,0.532,1.746,1.522,0.661,1.039,3.147,4.165
16.622,7.638,8.39,5.404,6.689,4.545,7.776,7.826
16.017,12.162,12.765,10.627,10.484,9.928,12.163,12.188
12.679,12.47,11.908,10.636,9.515,10.442,13.086,13.155
8.822,10.509,6.846,6.026,4.519,6.241,9.847,10.211
6.378,8.832,3.597,3.857,0.997,4.109,6.608,8.095
4.896,7.099,5.046,5.248,2.061,5.253,6.36,8.753
3.736,6.585,8.887,6.289,5.963,6.02,8.698,9.873
4.799,11.365,12.741,6.917,10.106,6.452,11.943,10.422
8.728,20.491,15.401,9.547,12.529,9.008,14.005,11.177
12.692,26.473,16.701,13.251,13.052,12.746,14.593,12.523
13.567,23.39,16.441,13.443,12.461,12.953,14.318,13.26
12.13,14.427,14.675,9.229,11.583,8.824,13.031,12.617
12.104,8.549,13.83,6.731,12.307,6.649,12.191,12.685
13.122,8.504,14.08,8.119,13.544,8.388,12.451,13.891
11.014,9.57,11.355,7.497,10.757,7.833,10.831,12.915
6.858,10.51,5.852,3.987,4.75,4.186,6.698,9.809
6.468,13.085,3.53,3.82,2.2,4.01,4.459,9.389
8.411,10.885,4.868,5.856,3.601,6.236,5.57,11.817
5.007,-1.733,3.318,2.9,1.926,3.329,5.828,11.316
-1.406,-11.989,-1.016,-2.119,-2.749,-1.954,4.267,7.768
-1.029,-6.13,-1.105,-1.046,-2.999,-1.126,4.479,6.727
4.543,5.15,2.46,2.882,0.502,2.718,6.069,7.524
6.091,4.814,3.595,2.404,1.402,1.965,5.764,6.347
3.149,-3.696,2.39,0.099,0.122,-0.768,3.846,5.015
0.243,-7.882,1.087,0.145,-0.853,-0.759,1.389,4.79
-2.628,-7.054,-1.868,-0.373,-3.702,-0.911,-2.606,2.775
-5.115,-6.244,-6.032,-2.95,-8.61,-3.27,-7.122,-0.256
-3.5,-3.85,-7.055,-3.041,-10.714,-3.418,-8.932,-0.194
1.022,-0.162,-4.222,0.511,-7.993,0.158,-7.811,2.399
1.916,-2.868,-2,1.504,-4.474,1.377,-6.366,3.512
-3,-12.365,-2.619,-3.081,-3.635,-2.984,-5.716,2.209
-10.106,-18.175,-3.711,-7.988,-4.475,-7.848,-5.665,0.268
-14.893,-15.082,-2.93,-9.172,-4.31,-9.167,-6.056,-1.335
-15.123,-10.195,-0.958,-8.949,-2.579,-8.989,-5.958,-2.576
-12.317,-9.77,0.442,-9.431,-0.814,-9.239,-4.489,-3.168
-8.228,-8.872,2.511,-8.368,1.527,-8.006,-1.373,-2.028
-3.485,-4.084,6.777,-4.753,5.77,-4.559,2.821,0.753
-1.86,-3.122,9.18,-3.029,8.586,-3.042,5.387,1.96
-5.26,-8.648,6.289,-5.668,6.837,-5.641,4.611,0.267
-7.618,-10.191,2.928,-7.179,4.357,-7.05,3.421,0.072
-5.397,-3.143,3.508,-2.829,4.741,-2.733,4.397,3.797
-3.642,3.096,4.668,3.455,5.078,3.409,5.376,7.096
-5.279,1.729,3.404,6.467,3.403,6.188,4.622,7.391
-7.523,-2.912,2.034,7.693,2.32,7.295,4.128,8.173
-9.482,-5.734,1.929,9.686,2.188,9.519,4.96,10.802
-13.572,-8.495,0.206,9.252,-0.397,9.323,4.318,10.807
-20.012,-14.296,-5.883,2.557,-7.091,2.558,-1.088,5.055
-26.275,-22.172,-15.283,-8.144,-16.293,-8.15,-10.618,-3.817
-31.116,-28.602,-24.059,-16.919,-24.955,-16.8,-19.771,-11.232
-33.645,-29.696,-27.811,-19.965,-29.164,-20.093,-24.589,-14.831
-31.316,-24.85,-24.972,-18.241,-27.037,-18.842,-25.01,-14.938
-22.908,-16.496,-18.25,-14.833,-21.158,-15.599,-22.991,-13.178
-11.395,-5.936,-10.612,-10.17,-14.203,-10.91,-18.863,-10.637
-2.561,2.321,-3.058,-4.319,-6.357,-5.002,-12.84,-7.93
1.141,2.287,3.03,-0.743,0.919,-1.097,-7.735,-6.036
3.109,-2.864,6.093,-1.701,4.915,-1.663,-5.952,-5.574
5.252,-5.719,6.084,-5.357,5.348,-5.373,-6.77,-6.9
5.927,-3.889,5.017,-8.331,4.742,-8.618,-7.776,-9.154
6.201,1.106,5.928,-7.441,5.736,-7.675,-6.566,-9.05
7.082,3.836,7.692,-4.201,6.943,-4.295,-3.498,-5.833
4.552,-1.81,4.204,-5.825,3.334,-6.189,-2.892,-4.487
-3.012,-12.894,-5.691,-14.332,-5.444,-15.029,-7.298,-8.193
-9.972,-18.774,-14.043,-21.455,-12.147,-21.986,-12.562,-12.611
-11.097,-14.958,-14.413,-20.162,-11.626,-20.365,-12.924,-12.224
-7.132,-8.155,-9.489,-13.23,-6.985,-13.496,-8.832,-7.811
-2.786,-4.866,-5.612,-7.385,-3.772,-7.879,-5.597,-4.234
-2.227,-3.595,-5.268,-5.181,-3.77,-5.597,-5.668,-3.649
-4.952,-2.175,-7.21,-5.427,-5.959,-5.597,-7.338,-4.481
-6.675,-0.974,-10.175,-6.921,-9.132,-7.115,-9.609,-5.467
-4.783,0.151,-13.166,-8.656,-11.806,-9.068,-11.992,-6.67
-1.832,-1.36,-15.097,-9.717,-13.052,-10.109,-12.398,-7.636
-1.128,-5.196,-15.098,-8.897,-12.836,-9.112,-9.598,-6.788
-0.531,-3.42,-12.237,-5.439,-10.435,-5.688,-4.946,-3.212
2.23,3.284,-8.359,-2.885,-7.085,-3.244,-2.057,-0.082
2.74,3.227,-8.433,-5.907,-7.254,-6.297,-4.656,-2.575
-2.214,-5.501,-13.184,-12.621,-11.581,-13.283,-11.305,-9.665
-7.224,-12.847,-16.732,-17.069,-14.431,-18.191,-15.562,-14.182
-6.915,-13.557,-15.296,-17.353,-12.651,-18.56,-14.447,-13.007
-4.013,-11.357,-12.048,-16.258,-9.815,-17.054,-11.817,-10.083
-2.839,-9.769,-10.611,-15.588,-9.131,-15.942,-11.345,-8.878
-2.031,-7.503,-9.704,-14.334,-8.618,-14.561,-11.324,-8.378
1.322,-2.994,-6.647,-11.377,-5.681,-11.626,-8.843,-6.617
5.589,0.597,-2.313,-7.396,-2.1,-7.619,-5.168,-3.929
6.951,-0.299,-0.028,-4.884,-1.328,-5.155,-3.52,-2.135
5.139,-2.04,0,-4.683,-2.144,-5.013,-3.494,-1.579
4.104,1.066,1.81,-3.412,0.726,-3.514,-1.211,-0.088
7.014,7.434,6.587,1.151,7.539,1.376,4.357,3.386
11.656,11.667,9.297,5.318,11.158,5.492,8.339,5.866
13.447,11.679,6.59,5.195,7.687,5.005,6.722,4.708
12.829,10.192,2.831,3.857,2.709,3.375,3.34,2.929
13.91,11.391,3.717,7.12,2.914,6.433,4.339,5.137
15.346,12.752,6.666,12.172,5.677,11.294,7.553,8.797
12.147,7.836,4.695,10.013,3.598,9.155,6.142,7.379
6.692,1.047,-0.938,2.032,-2.179,1.425,1.222,2.178
5.912,2.338,-3.128,-1.612,-4.4,-1.898,-0.847,-0.29
9.333,8.403,-1.512,-0.24,-2.642,-0.131,-0.15,-0.221
9.902,7.757,-1.345,-1.59,-2.061,-1.141,-1.195,-2.317
4.12,-0.909,-4.102,-7.049,-3.982,-6.609,-4.451,-6.752
-3.294,-8.099,-6.22,-11.076,-5.182,-10.931,-6.803,-10.117
-5.142,-7.257,-5.015,-11.076,-3.689,-11.122,-6.787,-10.918
-0.308,-0.833,-1.95,-9.017,-1.464,-9.016,-5.726,-9.803
6.877,6.559,1.132,-5.511,-0.009,-5.446,-4.319,-6.813
11.971,11.792,4.736,-0.69,2.596,-0.718,-1.512,-2.466
12.271,11.179,8.495,2.155,6.887,1.935,2.312,0.378
8.581,5.025,11.102,2.408,10.6,2.084,5.494,0.801
4.411,-0.03,13.471,4.529,13.562,4.322,7.977,2.227
1.117,-0.023,15.895,8.287,16.446,8.306,9.547,5.796
-1.579,3.01,16.568,9.33,17.675,9.498,9.327,8.564
-1.671,6.931,16.473,9.707,17.3,9.924,9.284,10.35
2.119,9.661,17.816,12.718,17.504,12.877,11.639,12.982
6.587,9.693,18.323,14.742,17.41,14.692,13.784,14.487
8.574,9.801,14.857,12.894,14.248,12.69,11.715,11.939
9.234,11.128,9.092,10.317,8.748,10.273,6.165,7.012
9.915,9.313,3.884,8.968,3.716,9.211,0.613,3.44
8.751,4.002,-0.829,6.797,-0.455,7.11,-3.879,1.602
5.71,1.435,-4.397,4.32,-4.088,4.571,-6.898,0.493
4.17,3.924,-4.299,4.709,-5.389,5.022,-6.502,1.309
4.166,7.233,-1.159,7.279,-3.276,7.748,-2.759,4.311
1.967,6.457,0.513,7.766,-0.859,8.204,0.566,5.769
-3.129,0.346,-2.157,3.402,-2.44,3.44,-0.511,2.043
-7.041,-6.024,-6.35,-3.511,-6.745,-3.86,-5.156,-4.191
-6.014,-8.558,-7.293,-7.438,-8.024,-7.625,-8.013,-6.751
-1.074,-10.417,-4.898,-7.365,-4.59,-7.14,-6.288,-4.908
3.945,-11.47,-2.571,-7.734,-0.31,-7.497,-2.465,-2.913
6.999,-6.013,-0.969,-9.483,2.645,-9.467,1.25,-2.133
8.136,3.144,1.928,-8.881,6.262,-8.833,5.27,-0.7
7.555,5.461,5.544,-5.821,10.671,-5.665,8.843,1.11
6.765,-0.889,7.59,-3.346,13.097,-3.385,10.734,1.753
7.588,-7.251,8.616,-1.367,13.656,-1.714,11.993,2.1
8.034,-8.392,9.833,1.103,14.481,0.691,12.986,3.378
5.51,-6.504,10.084,2.786,15.015,2.559,12.409,4.708
2.146,-3.101,8.44,3.424,13.431,3.35,10.511,4.91
1.07,2.018,6.129,4.357,10.2,4.221,8.71,4.268
2.148,5.908,5.018,5.354,7.97,5.209,7.683,3.945
4.969,6.556,6.413,5.892,8.971,5.935,7.923,4.72
10.047,7.755,10.433,7.68,12.621,7.642,9.595,6.289
15.032,11.359,14.374,10.941,14.897,10.467,11.249,7.203
17.188,13.863,14.943,12.706,12.947,12.098,11.432,6.893
19.227,16.611,13.889,12.845,10.363,12.54,11.314,7.236
23.571,22.821,15.025,13.713,11.786,13.533,12.628,9.115
24.922,24.857,16.194,13.248,14.505,12.926,13.89,9.613
18.573,15.098,12.988,8.336,13.202,8.096,12.354,6.146
10.312,3.146,8.525,2.926,9.948,2.993,9.647,1.727
7.863,2.159,9.028,2.847,10.33,3.061,9.857,1.199
8.927,6.258,12.124,5.182,12.779,5.473,11.765,3.146
8.244,2.382,11.679,3.488,12.794,4.046,11.239,3.014
8.02,-4.405,9.748,-0.522,12.879,0.196,9.399,1.607
10.398,-2.054,10.85,-1.394,16.071,-0.999,9.253,1.946
9.56,2.553,10.974,-0.984,16.47,-0.997,8.298,1.686
1.727,-3.795,5.368,-4.128,9.164,-4.024,3.58,-2.417
-6.781,-14.884,-0.416,-8.179,1.317,-7.684,-1.02,-6.805
-9.482,-17.083,0.279,-8.208,0.698,-7.667,-1.283,-7.023
-9.085,-12.539,3.342,-6.665,2.954,-6.395,-0.271,-5.868
-12.065,-12.378,1.12,-8.07,0.605,-8.044,-2.67,-8.068
-19.271,-18.759,-6.046,-10.471,-5.242,-10.596,-7.318,-12.1
-25.967,-25.812,-12.613,-10.514,-9.882,-10.699,-10.375,-13.592
-29.563,-31.212,-16.295,-10.601,-13,-10.776,-11.468,-13.085
-31.324,-35.611,-17.646,-12.49,-15.207,-12.713,-11.689,-13.315
-31.086,-35.296,-15.899,-11.801,-14.214,-12.043,-9.828,-12.631
-27.066,-26.696,-10.531,-5.9,-9.258,-5.923,-5.102,-8.358
-20.02,-14.232,-3.691,1.649,-3.251,1.924,0.471,-2.222
-14.017,-5.578,1.284,7.151,0.779,7.493,4.204,2.219
-12.463,-3.409,2.457,9.525,2.026,9.829,4.814,3.785
-13.001,-4.101,1.652,9.198,2.292,9.629,3.674,3.916
-9.924,-2.538,3.063,8.878,3.911,9.389,3.976,4.524
-2.767,0.293,6.74,9.762,5.791,10.028,6.015,5.181
2.518,0.201,7.956,8.705,5.036,8.686,6.084,3.674
2.133,-1.094,6.068,5.675,3.282,5.666,2.975,0.666
-0.714,-0.219,6.183,5.363,4.932,5.453,0.778,-0.21
-2.321,1.55,8.984,7.721,8.459,7.685,2.423,1.67
-4.588,1.903,8.521,7.316,7.833,6.997,4.833,2.218
-9.8,-0.896,2.089,1.384,1.996,0.888,3.036,-1.89
-14.382,-6.797,-5.136,-7.344,-3.862,-7.742,-2.427,-8.097
-13.305,-10.995,-6.269,-12.333,-4.57,-12.405,-5.553,-10.264
-7.614,-10.366,-0.765,-9.149,0.234,-8.914,-3.18,-6.462
-2.652,-7.52,5.451,-2.063,6.295,-1.846,1.179,-1.381
-0.802,-3.34,7.926,1.919,9.235,1.791,3.374,0.5
-0.11,2.131,8.017,3.067,8.747,2.687,4.069,0.629
1.079,3.997,8.543,4.659,7.806,4.337,5.72,2.46
2.294,0.766,10.218,6.558,8.887,6.309,8.672,6.222
3.848,-0.19,12.813,8.914,11.943,8.695,12.44,10.747
5.145,3.237,13.911,11.298,13.166,11.346,14.635,13.654
1.688,0.933,8.801,8.365,7.451,8.726,10.254,9.937
-7.322,-9.996,-2.289,-1.864,-3.649,-1.661,-0.786,-1.036
-14.25,-16.865,-12.01,-11.522,-11.955,-11.84,-10.874,-11.359
-14.38,-15.434,-15.175,-14.319,-13.704,-14.787,-14.451,-14.599
-12.715,-16.609,-13.558,-13.055,-12.471,-13.07,-13.444,-13.12
-12.805,-20.619,-10.102,-10.591,-10.575,-10.197,-11.069,-10.972
-11.946,-17.212,-7.313,-7.179,-8.327,-6.896,-8.727,-9.317
-11.184,-10.668,-8.74,-6.54,-9.018,-6.668,-8.806,-10.146
-13.246,-10.319,-12.404,-10.43,-12.543,-10.855,-11.298,-13.402
-13.376,-9.361,-10.978,-12.535,-11.926,-12.959,-11.173,-13.913
-8.068,-2.194,-4.417,-8.626,-5.393,-8.922,-6.149,-9.528
-3.322,1.329,0.081,-4,0.497,-4.26,-0.308,-4.899
-4.775,-3.755,0.603,-4.251,2.704,-4.411,2.664,-3.631
-10.812,-9.991,0.29,-7.604,3.207,-7.47,3.076,-4.447
-16.84,-13.09,-0.054,-9.043,2.481,-8.773,3.104,-4.651
-18.738,-14.129,0.174,-6.315,1.723,-6.279,4.841,-2.548
-15.504,-12.463,2.534,-1.733,3.107,-1.863,7.963,1.239
-10.654,-8.689,5.148,0.92,4.583,1.036,9.704,4.075
-8.459,-7.251,4.746,0.98,3.241,1.408,8.832,4.524
-9.71,-9.559,2.016,0.584,1.18,0.971,7.088,3.627
-11.377,-10.947,0.607,0.947,1.959,0.995,6.524,2.983
-11.871,-8.484,1.247,0.636,3.934,0.32,6.095,2.232
-13.475,-4.455,0.769,-1.085,2.55,-1.577,2.929,-0.139
-15.361,-1.25,-1.294,-1.4,-1.374,-1.804,-1.441,-2.523
-14.015,-1.249,-2.378,-0.501,-3.597,-0.693,-2.865,-2.382
-10.951,-6.124,-2.626,-2.902,-4.181,-2.999,-1.878,-1.486
-9.128,-10.611,-2.939,-6.624,-4.802,-6.764,-1.124,-1.882
-8.048,-9.352,-2.241,-5.964,-4.331,-6.18,-0.714,-2.173
-6.886,-6.761,-0.198,-2.4,-1.623,-2.667,0.37,-0.888
-5.331,-6.42,2.862,0.922,2.577,0.699,3.165,2.257
-2.417,-3.698,6.885,5.278,6.71,5.047,7.185,6.612
1.971,2.112,10.175,10.117,9.272,9.627,9.931,9.712
6.215,5.356,10.477,11.768,9.718,11.068,10.143,9.36
8.772,5.506,8.596,10.433,9.054,9.973,8.947,7.046
9.867,6.739,7.939,10.508,9.572,10.488,8.69,6.88
10.361,10.39,10.443,14.139,12.886,14.349,11.335,10.666
10.06,13.644,13.736,18.144,16.654,18.481,15.215,15.09
8.591,12.223,13.729,17.508,16.887,17.986,15.976,15.164
7.286,7.908,10.78,12.756,14.538,13.097,13.168,11.082
7.011,8.186,8.585,9.701,13.293,9.634,10.993,8.217
4.567,12.061,6.931,10.087,12.316,9.904,10.878,8.638
-1.63,10.452,3.438,10.522,9.121,10.659,10.018,9.123
-5.926,2.967,0.082,9.767,5.8,10.112,8.002,8.783
-4.939,-2.707,-0.579,8.986,4.834,9.177,6.988,9.507
-3.043,-3.141,-0.158,8.499,4.481,8.376,6.677,9.899
-1.756,1.071,0.504,8.708,4.043,8.264,5.984,7.899
1.883,7.559,2.598,9.205,5.456,8.66,5.593,5.217
5.452,11.373,3.986,7.419,6.976,7.166,5.181,3.403
4.885,11.094,1.989,3.056,5.438,3.056,3.397,1.359
2.639,10.131,-1.418,-0.505,2.56,-0.737,0.626,-1.57
1.275,8.128,-4.282,-2.335,-0.082,-2.95,-2.13,-4.702
-1.693,1.034,-8.215,-5.59,-4.844,-6.285,-5.023,-7.871
-7.278,-8.358,-12.935,-10.556,-10.822,-11.197,-7.766,-10.847
-11.067,-10.919,-14.154,-12.057,-12.299,-12.629,-8.204,-11.428
-9.548,-5.65,-10.97,-8.294,-8.469,-8.469,-5.75,-8.62
-5.82,-1.181,-8.396,-5.206,-5.528,-4.794,-4.074,-6.076
-5.156,-1.748,-9.08,-6.418,-6.428,-5.96,-5.644,-7.023
-8.894,-3.904,-10.907,-8.493,-8.429,-8.567,-8.328,-10.043
-14.281,-4.724,-13.286,-10.066,-10.732,-10.395,-10.932,-13.401
-16.883,-4.9,-16.434,-13.361,-13.633,-13.364,-14.267,-16.985
-14.651,-5.741,-17.385,-16.225,-13.834,-15.911,-16.128,-18.706
-10.509,-6.96,-14.772,-14.807,-10.264,-14.621,-14.094,-16.252
-8.678,-6.87,-12.695,-11.238,-8.202,-11.437,-11.519,-12.406
-10.793,-5.466,-15.108,-10.595,-11.865,-11.009,-13.44,-12.52
-15.658,-5.848,-20.429,-13.635,-18.581,-13.994,-18.732,-17.003
-19.821,-9.124,-24.226,-17.082,-22.911,-17.286,-21.978,-21.158
-20.72,-11.417,-25.014,-18.742,-23.432,-18.788,-21.493,-22.076
-18.934,-9.653,-23.755,-18.239,-21.936,-18.201,-19.589,-20.767
-16.096,-7.056,-20.158,-15.712,-18.484,-15.755,-17.377,-18.573
-13.361,-7.933,-15.467,-14.072,-14.069,-14.271,-15.723,-16.966
-11.121,-10.325,-14.722,-17.451,-13.991,-17.637,-16.971,-18.44
-8.721,-10.181,-18.904,-23.528,-19.373,-23.506,-20.353,-22.184
-5.523,-7.775,-20.649,-24.658,-22.02,-24.536,-20.994,-22.831
-2.515,-5.927,-15.656,-19.464,-17.451,-19.462,-17.311,-18.285
-1.5,-7.044,-9.803,-14.008,-12.36,-14.142,-13.468,-12.98
-2.249,-10.887,-7.82,-11.31,-11.391,-11.434,-11.852,-10.288
-2.975,-12.972,-7.134,-9.917,-10.986,-9.775,-11.065,-9.406
-3.288,-10.106,-7.198,-10.228,-10.357,-9.681,-11.632,-10.2
-3.807,-5.917,-11.134,-13.217,-13.292,-12.667,-14.467,-13.146
-3.832,-5.093,-16.473,-15.908,-17.789,-15.991,-16.401,-15.676
-1.852,-6.395,-16.404,-14.395,-17.134,-15.168,-14.626,-14.766
2.078,-5.291,-10.635,-9.706,-11.288,-10.51,-11.279,-11.617
5.6,0.192,-5.461,-6.172,-6.651,-6.41,-9.501,-9.575
5.136,6.128,-4.819,-5.982,-6.588,-5.741,-9.917,-9.897
-1.475,5.484,-8.228,-8.678,-9.707,-8.395,-12.432,-12.007
-10.503,-0.709,-12.776,-11.669,-13.071,-11.51,-15.625,-13.99
-13.682,-2.182,-14.268,-11.57,-13.553,-11.363,-15.934,-13.257
-9.124,2.494,-12.053,-9.764,-10.964,-9.349,-12.622,-10.274
-4.047,2.267,-10.236,-10.728,-8.983,-10.207,-9.006,-8.133
-3.259,-5.723,-11,-14.014,-9.879,-13.637,-7.417,-7.954
-4.563,-12.603,-12.495,-16.086,-11.958,-16.004,-8.177,-8.977
-5.659,-15.178,-13.495,-17.081,-13.414,-17.191,-11.025,-11.019
-6.744,-17.304,-14.644,-18.691,-14.578,-18.663,-14.041,-13.38
-6.803,-17.87,-15.445,-18.957,-15.476,-18.683,-14.315,-13.628
-4.584,-13.091,-14.893,-16.005,-15.582,-15.787,-11.847,-10.901
-2.58,-6.642,-14.422,-12.831,-16.042,-12.783,-10.048,-7.909
-4.397,-6.771,-15.774,-12.291,-18.14,-12.237,-10.834,-6.743
-9.736,-15.243,-18.022,-13.222,-21.237,-13.256,-12.658,-6.77
-14.406,-24.592,-18.757,-13.811,-22.981,-14.056,-13.428,-6.887
-14.781,-27.712,-17.025,-13.993,-21.39,-14.053,-12.598,-6.439
-11.651,-25.134,-14.847,-14.324,-18.284,-13.844,-11.035,-5.623
-8.806,-20.75,-13.94,-14.102,-16.506,-13.431,-9.391,-5.22
-8.583,-17.329,-12.234,-11.882,-14.184,-11.51,-6.995,-4.66
-9.117,-14.571,-7.478,-7.345,-8.506,-7.217,-3.34,-2.51
-8.197,-9.553,-2.482,-2.176,-2.739,-1.973,0.029,0.237
-8.752,-4.249,-1.724,0.904,-1.89,1.318,1.109,0.981
-13.182,-5.408,-3.992,1.182,-4.217,1.705,1.025,0.545
-16.992,-12.191,-4.684,0.502,-4.846,0.925,2.537,2.074
-16.91,-16.614,-4.052,-0.586,-4.323,-0.343,4.408,4.218
-16.668,-17.004,-6.005,-4.094,-6.169,-3.871,2.348,2.177
-18.927,-16.915,-10.49,-9.508,-9.984,-9.166,-3.64,-3.81
-21.575,-16.185,-14.523,-13.156,-13.744,-12.813,-9.249,-8.823
-22.361,-14.001,-17.594,-14.459,-17.886,-14.212,-12.617,-11.177
-19.874,-11.955,-19.624,-15.041,-21.686,-14.745,-14.626,-12.504
-14.024,-9.977,-18.724,-14.168,-21.867,-13.782,-15.179,-13.02
-8.117,-6.846,-14.865,-11.717,-17.677,-11.403,-13.776,-11.808
-5.562,-4.619,-10.844,-10.16,-12.224,-9.893,-11.21,-9.324
-5.017,-5.708,-8.035,-10.087,-7.97,-9.672,-8.445,-7.124
-3.239,-7.11,-5.577,-9.639,-4.968,-9.025,-6.046,-6.251
-0.233,-4.867,-3.456,-7.63,-3.277,-6.963,-4.765,-6.18
1.84,-0.724,-2.012,-3.704,-2.964,-3.229,-4.138,-4.858
0.869,0.759,-1.643,-0.6,-4.009,-0.312,-3.714,-2.824
-3.673,-2.367,-4.215,-3.59,-7.387,-3.075,-5.823,-4.722
-7.521,-7.478,-8.473,-10.957,-11.395,-10.03,-10.507,-10.701
-4.919,-8.807,-8.254,-13.781,-10.804,-12.916,-12.058,-13.49
1.502,-4.082,-2.219,-9.879,-5.09,-9.497,-7.875,-10.197
3.041,1.648,2.842,-6.377,-0.242,-6.306,-3.32,-6.812
0.486,4.666,3.822,-5.913,1.4,-5.943,-2.034,-6.489
2.872,7.823,5.574,-3.458,4.003,-3.658,-0.636,-4.858
8.587,9.932,9.421,0.988,8.32,0.717,2.341,-0.812
7.084,5.083,9.798,1.364,9.028,1.259,2.899,0.304
-1.039,-2.55,5.489,-1.583,4.64,-1.565,0.339,-2.267
-4.856,-1.418,2.259,-0.545,0.369,-0.68,-1.096,-2.822
-1.624,9.047,2.676,5.24,-0.589,4.819,0.191,0.252
2.014,17.342,3.325,8.495,-0.177,8.04,2.224,3.128
4.24,17.72,2.597,6.975,0.109,6.793,4.055,4.576
9.049,16.412,3.177,6.925,1.521,6.942,6.114,6.515
15.35,17.095,5.861,10.179,4.275,10.269,7.81,8.737
16.138,14.032,6.723,10.913,4.957,11.216,7.38,8.924
8.599,3.929,2.369,6.387,0.372,7.025,3.878,5.897
-1.438,-7.114,-5.164,-0.613,-7.279,0.313,-1.781,0.432
-6.963,-12.236,-10.912,-6.695,-12.614,-5.671,-7.302,-4.956
-7.173,-11.069,-12.474,-8.759,-13.077,-7.942,-9.819,-6.93
-5.781,-6.694,-11.318,-6.013,-10.635,-5.611,-8.762,-5.097
-5.605,-2.124,-9.774,-2.376,-8.882,-2.365,-7.142,-3.161
-5.706,0.566,-8.349,-1.409,-8.762,-1.548,-7.085,-3.257
-4.271,0.774,-6.871,-1.965,-8.446,-1.943,-8.109,-3.732
-3.225,-1.216,-6.266,-1.951,-7.52,-1.745,-10.008,-3.651
-4.907,-3.149,-7.212,-1.541,-7.747,-1.458,-12.153,-3.475
-6.906,-1.501,-8.867,-1.293,-9.705,-1.504,-12.688,-2.647
-6.471,2.875,-9.756,-0.546,-11.469,-0.9,-11.521,-1.254
-4.842,5.502,-9.002,0.985,-11.083,0.646,-10.191,-0.757
-3.192,5.398,-7.215,2.128,-8.893,1.785,-8.988,-1.001
-1.579,4.6,-5.904,2.295,-6.444,1.879,-7.663,-0.467
-1.898,3.607,-5.613,2.094,-4.705,1.675,-6.834,0.645
-4.416,2.127,-5.656,1.352,-4,1.102,-6.639,0.842
-4.957,1.189,-4.656,0.346,-3.122,0.31,-5.485,0.83
-0.702,3.047,-0.479,2.223,0.746,2.25,-0.936,3.874
6.22,10.08,7.651,9.424,8.114,9.438,6.972,10.58
11.426,19.863,15.236,17.397,14.22,17.526,13.101,15.733
10.691,22.98,14.413,17.158,12.465,17.403,11.141,13.783
3.808,16.128,3.737,7.899,1.978,8.01,1.885,6.166
-4.248,8.756,-8.944,-1.136,-10.368,-1.207,-7.255,-1.035
-10.042,5.652,-17.074,-5.815,-18.176,-5.731,-12.167,-5.389
-13.693,0.734,-20.63,-9.662,-20.861,-9.283,-13.554,-7.43
-13.918,-4.811,-19.954,-10.551,-19.226,-10.177,-11.126,-5.651
-10.221,-1.396,-15.688,-4.951,-15.01,-4.815,-6.498,-1.207
-6.573,8.392,-12.217,0.385,-12.86,0.388,-5.02,0.292
-5.352,12.569,-11.592,-0.649,-13.746,-0.573,-7.283,-1.783
-4.514,11.289,-11.102,-3.846,-13.817,-3.623,-9.039,-3.083
-3.322,12.959,-9.904,-4.83,-12.308,-4.505,-9.812,-3.413
-3.11,16.073,-9.171,-4.668,-11.047,-4.265,-10.851,-4.671
-3.812,13.408,-8.445,-4.239,-9.931,-3.804,-10.259,-4.834
-4.869,6.216,-7.798,-2.741,-9.047,-2.456,-7.831,-2.062
-6.05,2.748,-8.043,-0.679,-9.068,-0.715,-6.337,1.457
-4.962,8.073,-6.834,1.877,-7.685,1.521,-4.87,4.531
-0.417,17.619,-2.792,5.341,-3.656,4.86,-1.558,7.505
2.66,21.859,-0.916,6.513,-1.996,6.16,-0.328,7.531
1.495,19.924,-3.422,3.931,-4.848,3.748,-2.963,4.373
2.058,19.84,-3.311,3.761,-5.218,3.628,-3.019,4.558
8.034,23.997,3.484,10.007,0.886,9.926,2.721,10.122
13.497,25.319,10.262,16.384,7.119,16.402,8.034,14.416
13.482,21.301,10.421,16.83,7.509,16.846,7.587,13.737
11.24,19.297,6.38,15.187,4.195,15.09,3.652,11.358
10.598,21.587,3.159,16.491,1.139,16.326,0.271,9.515
11.006,23.496,1.849,18.335,-0.858,18.129,-1.488,7.503
10.854,23.459,1.629,16.87,-1.832,16.559,-1.748,5.981
9.438,19.162,1.31,12.988,-2.154,12.759,-1.103,5.798
7.138,11.009,-0.05,10.332,-2.801,10.56,-0.662,5.908
4.979,7.716,-1.888,11.555,-3.865,12.168,-0.669,5.836
4.329,10.892,-3.43,15.258,-5.065,15.78,-0.978,6.316
5.232,11.994,-4.562,16.717,-6.311,16.991,-1.549,7.286
4.651,8.932,-5.042,14.168,-7.03,14.407,-1.351,8.144
2.399,8.26,-3.699,12.269,-5.979,12.525,1.505,9.69
2.957,13.007,0.429,14.517,-2.35,14.715,7.232,13.033
5.437,16.251,5.026,16.413,2.042,16.766,12.774,16.63
5.249,12.701,8.039,15.822,5.482,16.603,16.534,19.319
4.709,9.695,12.275,18.72,10.064,19.69,21.183,23.107
6.381,12.539,18.228,23.836,16.016,24.481,26.121,26.669
6.095,14.027,20.862,22.446,19.163,22.729,26.319,25.195
2.583,10.287,18.913,16.67,18.672,16.946,22.303,20.331
0.114,8.234,16.503,14.989,17.892,15.319,19.669,17.933
0.003,11.033,15.168,16.019,17.545,16.283,19.114,17.35
-0.694,11.335,12.681,13.568,15.489,13.953,16.635,14.119
-3.483,4.801,9.295,9.057,12.389,9.618,12.171,9.607
-4.873,-0.65,9.244,8.452,12.587,8.808,10.803,9.211
0.46,4.127,14.83,13.1,18.266,13.125,14.914,13.689
11.421,15.681,22.227,18.766,25.546,18.75,20.444,18.183
19.879,22.229,24.821,20.645,27.985,20.742,22.352,18.549
22.587,20.959,21.52,19.506,24.363,19.69,20.733,16.237
24.654,19.801,18.391,20.207,20.307,20.452,19.522,15.801
27.88,21.655,19.391,23.239,20.305,23.484,20.838,18.517
29.029,23.472,22.918,26.205,23.872,26.387,24.096,22.646
28.32,26.147,27.43,29.692,29.136,29.838,28.369,27.175
26.921,29.318,31.1,32.73,33.121,32.92,31.558,30.092
23.064,27.467,30.499,31.5,32.375,31.78,30.998,28.56
17.462,20.205,25.403,26.727,27.167,27.065,26.949,23.608
14.089,13.849,19.652,22.807,21.227,23.001,22.224,19.312
14.719,11.583,17.123,20.952,18.312,20.855,19.627,18.071
16.703,10.208,18.268,19.479,19.503,19.382,20.043,19.047
15.565,6.698,19.233,17.554,21.682,17.824,21.163,19.748
10.565,4.088,16.992,15.671,21.154,16.146,20.437,18.784
5.451,5.253,13.44,14.134,18.283,14.435,18.454,16.566
3.028,6.17,11.425,12.551,15.557,12.665,16.667,13.821
4.017,4.739,11.828,11.973,14.683,12.065,15.69,11.949
7.639,3.69,14.158,14.122,16.073,14.136,16.109,12.453
9.6,1.386,15.743,16.24,17.553,16.053,16.785,13.36
7.041,-2.82,14.647,14.637,16.864,14.402,15.794,11.582
3.747,-3.93,12.769,11.526,15.307,11.685,13.925,8.685
3.048,-2.49,11.124,8.773,13.982,9.507,12.044,7.004
2.417,-3.275,7.572,4.13,10.696,4.96,8.343,4.605
0.529,-4.683,2.79,-0.561,5.259,-0.132,3.139,0.73
0.973,-2.74,1.212,-0.546,2.13,-0.463,0.641,-1.192
3.896,-0.183,3.209,2.448,3.464,2.522,1.797,-0.168
3.987,-2.209,4.103,3.271,5.756,3.627,2.699,0.657
1.382,-5.071,3.005,2.572,6.649,3.119,2.452,0.426
2.149,-1.551,3.715,3.769,7.7,4.012,3.791,0.977
6.29,3.99,6.642,4.938,9.723,4.697,6.393,1.834
7.264,2.139,8.144,2.542,11.332,2.196,7.576,0.972
3.342,-5.103,7.037,-1.048,11.42,-1.216,7.125,-1.171
0.903,-7.47,6.098,-0.875,11.091,-0.942,6.808,-1.898
3.963,-1.929,6.816,2.275,11.694,2.24,7.276,-0.451
7.492,3.402,7.122,3.099,11.865,3.058,7.356,0.526
6.512,2.533,6.16,0.868,10.575,0.607,6.524,-0.174
3.625,0.048,6.072,-0.46,9.838,-1.106,6.315,-0.384
2.064,-0.276,7.236,-0.143,10.398,-0.982,7.339,0.366
-0.14,-2.58,6.984,-0.618,9.868,-1.277,7.41,-0.111
-4.105,-7.856,4.439,-1.734,7.458,-2.029,5.152,-1.742
-5.498,-9.604,2.423,-0.815,5.606,-0.901,2.892,-1.889
-1.533,-4.986,2.683,2.17,5.388,1.925,2.952,-0.205
3.63,-0.161,3.21,3.83,4.892,3.19,3.943,0.803
5.702,0.09,2.555,3.283,3.699,2.404,3.643,0.492
4.902,-0.311,1.148,2.972,2.771,2.268,1.353,-0.002
2.808,2.772,-1.13,2.89,1.002,2.569,-2.533,-1.292
2.219,6.688,-3.054,1.427,-1.218,1.342,-5.471,-3.584
5.228,6.85,-2.587,-0.459,-0.969,-0.478,-5.156,-4.858
8.949,3.476,-0.837,-1.329,1.57,-1.315,-2.855,-3.873
10.372,1.424,0.416,-0.742,4.088,-0.824,0.036,-1.036
11.415,3.829,2.016,2.278,6.471,1.909,3.964,2.723
13.726,9.107,4.332,6.794,8.741,6.296,7.465,5.672
14.997,14.086,6.053,9.448,9.763,9.251,8.529,6.813
12.918,16.192,6.66,9.447,9.591,9.666,8.488,7.268
9.001,13.773,6.201,8.433,9.077,8.747,8.867,7.461
7.541,8.27,5.695,7.378,9.374,7.446,9.535,6.98
9.75,4.134,6.947,7.088,11.507,6.862,10.643,6.808
11.6,3.876,8.804,7.246,13.935,6.94,10.957,6.449
11.47,6.939,9.341,6.693,14.921,6.638,9.492,4.437
13,11.255,10.355,6.608,15.72,6.971,8.932,2.983
17.085,13.994,13.427,8.571,17.148,8.994,10.906,4.455
20.669,16.152,16.802,12.011,18.115,11.943,13.3,7.247
22.422,19.626,18.36,15.248,18.046,14.655,14.379,9.131
22.494,20.337,17.739,15.959,17.042,15.229,14.104,9.567
21.725,16.921,16.749,14.485,16.071,13.96,13.643,9.61
22.369,15.578,17.122,14.446,16.46,14.275,14.558,10.855
24.797,18.266,17.717,16.088,17.463,16.136,16.458,12.655
25.871,19.812,16.616,15.87,16.957,15.833,17.388,12.596
22.304,16.327,13.307,11.757,13.793,11.478,15.263,9.284
14.397,8.97,8.137,4.963,8.472,4.499,8.859,3.084
5.858,1.706,2.041,-1.602,2.444,-2.008,-0.034,-4.098
-0.773,-4.25,-3.95,-7.045,-3.253,-7.074,-7.426,-9.916
-4.18,-8.891,-7.423,-10.679,-6.367,-10.418,-9.582,-11.94
-0.734,-7.191,-4.385,-7.871,-2.937,-7.892,-4.568,-7.94
9.437,3.347,4.133,2.395,5.938,1.814,4.313,0.136
17.996,15.297,10.462,11.351,12.533,10.556,9.715,5.878
18.878,19.924,10.243,11.322,12.328,10.593,8.465,5.743
14.316,14.956,6.475,5.328,8.103,4.616,3.69,1.885
8.621,5.563,2.83,0.482,3.668,-0.153,-0.849,-2.292
5.503,1.238,0.923,-0.777,0.915,-1.18,-3.105,-4.402
7.53,6.061,2.426,0.838,1.74,0.565,-1.618,-2.74
12.733,13.985,7.533,5.265,6.623,4.892,3.331,2.448
16.904,16.628,13.177,10.924,12.348,10.456,8.734,8.22
18.939,12.751,16.322,13.903,15.427,13.499,11.976,11.64
19.606,7.903,16.44,12.61,15.457,12.225,12.889,12.154
18.624,6.282,13.889,9.131,13.067,8.547,11.583,10.192
17.26,8.789,10.255,6.543,9.492,5.752,8.559,6.773
19.152,15.904,8.637,7.089,7.385,6.333,6.088,4.542
24.255,23.803,9.282,9.715,7.202,9.223,5.243,4.843
27.839,25.731,9.667,11.002,7.019,10.817,5.081,6.06
28.219,22.208,9.987,10.739,7.132,10.65,6.044,7.452
28.069,18.853,11.806,11.38,8.585,11.185,8.554,9.639
28.268,17.33,13.804,12.546,10.084,12.449,10.501,11.416
27.511,17.171,14.608,12.374,11.166,12.665,11.228,11.454
25.737,18.824,15.439,11.888,13.248,12.324,12.932,10.934
23.757,21.183,16.632,12.585,15.434,12.607,15.109,10.749
20.969,20.766,15.887,12.265,14.765,11.742,14.29,9.47
15.716,14.976,12.157,8.082,11.201,7.4,10.522,6.487
8.943,6.439,7.922,2.426,7.926,1.838,7.498,3.664
4.342,0.595,6.016,0.675,7.17,0.116,6.74,2.53
3.301,-1.616,6.439,3.356,8.276,2.819,7.047,2.69
3.254,-2.739,7.349,5.912,9.374,5.511,7.912,3.47
2.582,-1.687,8.218,6.108,10.243,5.896,9.682,4.967
3.492,2.556,9.501,5.306,11.327,5.308,11.041,6.378
6.611,3.67,9.75,3.415,10.827,3.672,9.537,5.538
9.014,-0.958,8.319,0.245,8.662,0.657,6.385,2.882
9.832,-2.927,7.424,-1.557,8.218,-1.332,5.315,1.323
9.588,1.237,6.999,-1.131,8.949,-1.376,5.124,0.507
7.199,4.199,5.301,-0.503,7.299,-1.043,2.518,-1.371
3.844,1.686,4.411,0.357,5.066,-0.095,0.411,-1.946
3.668,-1.354,6.471,2.533,6.17,2.121,3.061,1.442
7.523,0.17,8.397,4.507,8.717,3.792,7.236,5.597
11.747,3.627,7.297,4.614,8.726,3.715,7.376,5.848
14.562,5.096,5.654,3.717,7.317,3.109,4.703,3.363
17.888,6.829,5.97,3.084,7.441,2.788,3.768,2.084
22.245,10.685,7.192,3.213,8.751,2.852,5.615,3.102
25.001,11.599,8.17,3.499,9.809,3.007,8.594,5.292
25.573,7.075,9.305,3.185,11.202,2.699,11.755,7.297
28.265,5.129,12.49,4.94,15.668,4.293,16.561,9.78
34.627,11.098,18.664,10.797,23.807,9.817,23.88,14.268
38.947,18.111,24.398,16.681,30.534,15.621,29.759,18.406
36.894,19.081,26.266,18.717,31.663,17.923,30.229,18.964
31.133,14.994,25.79,18.141,29.879,17.7,27.92,17.694
27.266,11.207,25.863,17.598,29.491,17.321,27.602,18.035
28.047,12.439,26.825,18.584,31.008,18.183,29.179,20.228
28.432,14.705,26.066,19.238,31.37,18.729,28.519,21.327
21.065,9.011,20.823,15.641,27.296,15.26,23.086,18.449
10.026,-0.325,13.827,10.402,20.166,10.095,16.063,13.625
5.2,-2.491,9.871,9.448,13.897,8.937,11.666,10.623
4.442,-2.254,7.339,9.296,8.709,8.548,8.44,7.83
0.754,-7.686,4.383,4.641,5.186,3.962,5.453,4.304
-1.594,-12.011,5.886,1.831,7.929,1.476,7.714,5.599
2.937,-8.604,12.651,6.717,15.762,6.57,15.793,12.881
8.588,-2.863,16.571,12.06,19.679,11.833,21.488,18.155
8.227,-0.636,13.119,10.674,15.565,10.233,19.722,16.735
3.739,-0.743,6.427,6.719,7.939,6.126,14.115,12.753
1.122,-1.002,1.685,6.011,2.305,5.393,10.078,10.888
2.078,-2.05,-0.079,6.602,0.251,6.011,8.916,10.7
3.602,-3.592,-0.664,4.791,-0.131,4.207,8.566,9.822
3.644,-4.571,-1.395,2.144,-1.205,1.692,7.775,8.315
3.297,-6.983,-2.578,1.148,-3.584,1.068,6.98,7.364
2.563,-12.526,-5.207,0.426,-6.768,0.636,5.398,6.131
-1.203,-17.492,-9.642,-1.746,-9.841,-1.681,2.159,3.768
-7.262,-17.223,-12.657,-3.933,-10.717,-4.145,-0.032,2.506
-9.147,-13.12,-10.02,-3.475,-7.031,-3.62,2.269,4.41
-2.876,-8.921,-2.036,0.617,0.822,0.704,8.185,7.91
7.083,-4.389,6.813,6.491,9.265,6.525,14.287,11.041
13.43,1.386,12.669,10.732,14.742,10.496,18.462,13.991
13.119,5.252,14.397,11.764,16.354,11.446,19.873,16.423
7.837,2.383,12.569,10.119,15.351,9.989,18.131,16.329
2.351,-7.016,8.79,6.088,12.843,6.166,13.652,12.698
0.833,-15.139,5.312,0.993,9.246,1.153,8.21,7.276
1.361,-17.018,2.658,-2.624,5.031,-2.424,3.697,2.443
-1.297,-17.973,-0.794,-4.735,0.669,-4.408,-0.108,-1.368
-7.134,-21.537,-4.618,-6.413,-2.588,-5.962,-3.451,-4.053
-10.818,-22.09,-5.123,-5.595,-2.065,-5.334,-3.541,-3.887
-9.131,-16.031,-0.656,-1.247,2.997,-1.411,0.965,-0.654
-5.077,-9.58,4.318,1.4,7.679,1.151,4.87,1.603
-3.425,-10.606,4.256,-1.913,6.406,-1.811,2.923,-0.341
-4.579,-16.098,0.531,-6.845,1.149,-6.612,-1.974,-3.642
-5.847,-15.915,-1.064,-7.184,-1.731,-7.211,-3.585,-3.762
-5.467,-8.856,1.258,-3.007,-0.432,-3.064,-0.738,-0.379
-3.728,-4.074,3.818,0.876,1.32,1.101,2.802,3.215
-2.689,-6.767,2.494,0.537,-0.327,0.75,2.996,3.659
-4.463,-11.725,-2.355,-2.973,-4.919,-3.084,-0.352,1.045
-8.637,-13.586,-6.63,-6.136,-8.826,-6.207,-3.575,-1.462
-12.24,-14.339,-8.255,-8.428,-10.345,-8.043,-4.697,-2.842
-13.161,-15.644,-8.164,-10.211,-10.144,-9.746,-5.166,-4.397
-12.702,-16.2,-6.84,-9.986,-8.594,-9.978,-5.29,-5.463
-13.422,-17.437,-5.658,-8.97,-7.446,-9.225,-4.954,-5.703
-16.005,-20.645,-7.641,-11.125,-9.623,-11.234,-6.488,-7.261
-19.647,-24.672,-12.564,-16.317,-14.336,-16.281,-10.775,-10.487
-22.566,-28.407,-15.938,-19.863,-17.196,-19.863,-14.84,-13.25
-22.068,-28.175,-14.383,-18.918,-15.589,-19.073,-15.435,-13.912
-18.726,-21.975,-10.385,-16.364,-12.175,-16.671,-13.521,-13.093
-16.773,-17.003,-9.485,-16.785,-11.784,-17.026,-13.337,-13.281
-16.931,-18.659,-11.68,-18.958,-14.024,-18.892,-15.068,-14.619
-16.039,-20.346,-11.57,-17.685,-13.773,-17.401,-14.337,-14.099
-13.342,-15.549,-7.535,-12.408,-9.362,-12.243,-10.303,-10.761
-11.376,-8.602,-4.19,-8.269,-5.136,-8.405,-7.483,-7.807
-10.986,-6.449,-5.125,-8.907,-5.428,-9.203,-8.821,-8.372
-8.945,-8.817,-7.33,-10.87,-8.111,-11.153,-10.841,-10.246
-4.186,-11.315,-6.913,-9.142,-8.369,-9.455,-9.501,-9.044
-1.696,-13.674,-6.962,-7.28,-7.98,-7.645,-7.944,-6.71
-5.016,-18.885,-11.869,-12.036,-12.004,-12.326,-10.865,-8.456
-10.524,-23.383,-18.099,-19.532,-18.481,-19.792,-15.556,-12.757
-13.351,-19.42,-19.778,-21.081,-21.494,-21.513,-17.051,-14.462
-14.754,-9.921,-18.652,-18.389,-21.027,-18.993,-16.581,-13.957
-18.194,-5.963,-19.795,-18.235,-21.385,-18.844,-17.508,-14.106
-22.673,-11.547,-23.137,-20.379,-23.826,-20.935,-19.013,-14.426
-25.82,-21.752,-25.883,-21.561,-26.3,-22.047,-19.353,-14.355
-26.097,-27.288,-26.167,-20.723,-26.234,-21.03,-18.516,-14.12
-22.802,-23.205,-23.429,-17.994,-23.168,-18.092,-16.682,-12.952
-19.881,-17.599,-20.626,-16.01,-20.78,-16.035,-15.349,-12.39
-21.392,-17.711,-20.962,-16.751,-21.789,-16.777,-15.861,-14.478
-25.649,-19,-22.984,-17.662,-23.838,-17.722,-16.999,-17.22
-30.094,-19.233,-24.058,-17.169,-24.448,-17.466,-18.058,-18.507
-33.518,-22.579,-24.194,-17.856,-24.211,-18.485,-19.902,-19.408
-33.931,-27.748,-23.754,-20.243,-23.521,-20.854,-21.968,-20.814
-29.643,-26.569,-20.525,-19.652,-19.936,-19.927,-21.446,-20.988
-20.893,-15.258,-12.513,-13.374,-11.601,-13.568,-16.132,-17.612
-11.31,-2.527,-3.428,-5.959,-2.537,-6.446,-8.366,-11.56
-5.806,0.858,0.403,-2.598,0.972,-3.256,-3.56,-6.688
-4.473,-1.755,-0.941,-1.963,-1.006,-2.466,-3.342,-4.817
-3.776,-0.311,-2.403,-0.814,-3.515,-1.154,-5.01,-4.68
-3.493,4.763,-3.248,-0.848,-5.042,-1.234,-7.616,-5.945
-5.642,6.822,-6.542,-4.578,-7.828,-5.073,-11.999,-9.035
-9.097,4.845,-12.024,-9.515,-12.445,-10.064,-16.999,-12.763
-11.217,0.976,-17.104,-12.959,-17.635,-13.551,-21.311,-16.151
-12.113,-4.017,-21.787,-16.752,-22.943,-17.372,-25.887,-19.803
-14.325,-9.141,-27.349,-22.359,-28.164,-22.928,-31.146,-24.058
-18.855,-12.613,-32.824,-27.232,-32.24,-27.651,-34.897,-28.021
-22.299,-12.416,-35.492,-28.969,-33.752,-29.199,-35.067,-30.362
-20.523,-8.185,-33.636,-27.979,-31.825,-28.052,-32.063,-29.892
-14.422,-3.056,-28.249,-25.004,-27.088,-25.009,-27.387,-26.264
-8.697,-0.006,-22.622,-20.511,-22.075,-20.64,-22.663,-21.203
-6.898,1.39,-20.042,-16.641,-19.902,-17.089,-20.154,-18.081
-9.21,1.778,-20.833,-15.464,-21.149,-16.046,-20.639,-18.198
-12.989,0.024,-21.604,-15.485,-22.318,-15.669,-21.255,-18.5
-15.153,-3.754,-19.185,-13.784,-20.068,-13.501,-19.103,-16.011
-14.319,-6.155,-14.275,-10.097,-15.422,-9.913,-15.103,-12.014
-11.069,-3.9,-9.242,-5.785,-10.678,-5.934,-11.378,-8.622
-7.682,1.85,-5.585,-1.855,-6.79,-1.948,-8.559,-6.128
-6.248,8.085,-4.045,0.622,-4.852,0.742,-7.114,-5.099
-6.544,12.319,-4.042,0.815,-5.124,0.825,-7.47,-5.92
-6.979,11.089,-4.252,-0.639,-6.211,-0.851,-8.616,-7.127
-5.589,6.348,-3.822,-1.151,-6.509,-1.298,-8.88,-6.992
-2.058,5.764,-2.782,0.665,-5.64,0.69,-8.201,-5.941
0.276,9.28,-2.453,2.297,-5.238,2.223,-8.045,-5.945
-0.34,11.406,-2.716,2.768,-5.83,2.495,-8.447,-6.657
-1.085,11.605,-1.448,4.063,-5.231,3.908,-8.081,-5.77
-0.179,11.183,0.434,4.71,-3.469,4.929,-7.48,-3.795
1.344,10.964,-0.099,2.775,-3.3,3.245,-8.195,-2.97
1.625,10.058,-3.142,0.483,-5.451,0.93,-10.221,-3.815
-0.292,7.441,-6.753,-0.461,-8.553,-0.154,-12.373,-5.793
-2.094,8.445,-9.195,-0.291,-11.285,0.052,-13.295,-7.521
-2.123,14.408,-10.25,-0.285,-13.528,0.315,-13.379,-8.232
-2.701,15.428,-11.087,-2.818,-15.699,-2.047,-14.217,-9.086
-2.94,10.818,-10.201,-5.477,-15.205,-4.854,-13.663,-8.928
1.92,12.856,-5.196,-2.512,-9.176,-2.231,-8.535,-4.995
8.961,20.762,-0.302,2.873,-2.531,2.862,-3.393,-0.631
9.061,20.699,-2.422,1.222,-3.749,1.106,-6.498,-2.755
2.3,13.012,-9.577,-6.876,-11.499,-6.902,-16.138,-10.288
-1.659,11.941,-12.582,-10.383,-15.273,-10.278,-20.731,-14.026
0.554,19.199,-8.744,-4.968,-11.142,-4.88,-15.789,-10.133
1.463,20.884,-5.671,0.218,-7.246,0.222,-10.506,-5.529
-4.074,12.11,-8.507,-2.184,-9.292,-2.161,-11.78,-5.832
-11.494,3.601,-12.964,-7.399,-12.791,-7.372,-15.166,-8.026
-15.52,0.463,-15.416,-9.782,-14.819,-9.811,-16.696,-9.46
-16.209,-3.209,-17.21,-10.661,-17.374,-10.569,-18.49,-11.712
-14.282,-7.207,-17.007,-11.523,-18.249,-11.289,-20.559,-13.853
-10.183,-5.481,-12.363,-10.649,-14.638,-10.697,-19.768,-13.332
-6.134,-0.217,-6.502,-7.189,-10.134,-7.797,-16.637,-11.474
-4.021,1.509,-4.603,-4.089,-8.908,-4.903,-15.222,-11.151
-5.037,-1.536,-8.015,-5.76,-11.336,-6.237,-17.534,-13.008
-8.405,-4.716,-13.711,-11.401,-15.726,-11.48,-21.173,-15.454
-9.323,-3.535,-16.357,-13.922,-18.402,-13.838,-21.661,-15.42
-6.2,0.968,-13.937,-9.764,-16.83,-9.526,-17.664,-11.486
-5.071,3.171,-10.977,-4.509,-14.293,-4.099,-13.265,-6.848
-8.931,0.886,-11.678,-3.459,-14.92,-3.091,-12.298,-5.316
-11.69,-1.423,-12.632,-3.278,-15.729,-3.106,-11.974,-5.154
-8.915,-0.745,-8.9,0.42,-11.97,0.433,-7.238,-2.254
-3.969,0.337,-2.272,5.472,-5.441,5.381,0.864,2.822
-0.425,0.725,3.159,8.823,-0.051,8.622,7.35,6.9
0.696,2.446,5.406,9.305,2.27,9.014,9.46,8.37
-1.158,5.25,3.371,5.835,0.501,5.603,7.464,6.792
-4.425,5.637,-0.906,0.664,-3.055,0.682,3.895,3.588
-7.619,0.842,-3.152,-2.87,-4.7,-2.563,1.435,1.448
-11.095,-6.662,-2.242,-4.927,-4.197,-4.459,0.669,1.265
-14.43,-11.735,-0.506,-5.661,-3.329,-5.217,0.566,1.797
-17.429,-13.294,-0.019,-4.085,-3.061,-3.694,-0.238,1.744
-19.867,-13.015,0.043,-1.112,-2.457,-0.564,-1.344,1.51
-19.005,-10.325,1.701,1.367,-0.236,2.034,-0.869,2.16
-13.351,-4.005,4.427,2.345,2.156,2.579,0.296,2.745
-7.097,2.304,5.644,1.481,2.267,0.99,-0.833,1.387
-5.119,2.582,4.495,0.105,0.596,-0.61,-3.599,-0.851
-5.23,-1.16,3.547,1.449,0.14,1.154,-4.146,-0.504
-2.942,-0.986,5.216,6.318,2.199,6.544,-1.593,3.087
0.421,4.694,8.278,11.819,4.969,12.268,1.632,7.207
2.861,11.643,10.938,15.947,7.226,16.363,4.68,10.362
5.077,15.568,11.977,17.45,8.045,17.747,6.712,11.698
5.384,13.397,8.3,13.711,4.227,13.869,3.91,8.591
2.064,7.05,-0.399,4.874,-4.116,4.932,-3.947,1.132
-2.15,2.244,-8.114,-4.166,-10.784,-4.142,-10.072,-5.41
-3.513,1.474,-9.525,-8.445,-11.317,-8.417,-9.571,-6.704
-2.042,2.31,-5.648,-7.035,-7.612,-6.8,-5.033,-3.826
-1.734,1.064,-1.396,-3.58,-4.52,-2.922,-1.622,-0.869
-5.264,-2.103,-0.229,-2.838,-4.388,-2.058,-1.711,-0.687
-10.724,-5.959,-2.312,-6.75,-6.088,-6.324,-4.893,-3.483
-15.38,-12.426,-6.298,-13.404,-8.78,-13.312,-9.474,-8.133
-17.096,-18.272,-8.687,-17.244,-10.774,-17.259,-11.885,-11.994
-15.218,-16.063,-6.247,-14.983,-8.848,-15.024,-9.594,-12.227
-14.742,-10.546,-2.497,-12.11,-4.892,-12.071,-6.136,-10.604
-20.064,-14.885,-3.032,-14.815,-4.273,-14.499,-6.562,-11.37
-25.539,-26.937,-5.309,-18.166,-6.019,-17.498,-8.987,-13.213
-24.007,-31.089,-3.011,-13.833,-4.73,-13.077,-7.771,-11.054
-17.98,-24.739,2.916,-4.65,-0.298,-4.217,-3.031,-5.342
-13.686,-18.78,6.434,1.313,2.438,1.413,0.243,-1.2
-11.758,-15.284,6.798,4.518,2.441,4.689,1.329,0.689
-9.021,-8.301,8.697,9.379,4.016,9.839,3.85,3.576
-5.031,-0.269,12.863,13.035,8.303,13.558,7.544,6.617
-1.478,2.596,15.343,11.079,11.144,11.25,8.91,6.661
2.389,3.427,15.381,7.981,10.907,7.627,8.096,5.257
7.348,7.593,15.429,9.514,10.243,9.052,7.565,5.699
10.264,11.977,15.17,12.15,10.064,12.201,7.051,6.903
8.037,11.601,11.872,9.996,7.763,10.508,4.546,5.549
3.487,8.192,6.082,4.835,2.682,5.158,0.533,1.766
2.798,7.457,2.763,2.602,-0.527,2.556,-1.422,-0.608
6.522,11.488,3.782,3.551,0.7,3.608,-0.429,-0.244
8.768,15.603,4.178,1.98,1.308,2.345,-1.176,-0.816
6.514,14.533,0.801,-3.921,-2.113,-3.481,-6.135,-4.315
2.785,8.511,-2.421,-8.949,-5.082,-8.622,-10.409,-7.208
1.358,0.757,-1.472,-8.651,-3.54,-8.56,-9.015,-6.003
2.92,-5.794,2.43,-4.513,0.43,-4.621,-3.66,-1.998
4.116,-8.78,6.108,-0.65,3.304,-0.676,1.042,1.466
1.317,-7.601,8.392,1.313,4.746,1.5,3.938,3.389
-4.531,-5.468,8.806,1.543,5.308,1.923,5.293,3.855
-10.692,-6.334,5.857,-0.333,3.206,0.218,2.684,1.475
-14.842,-8.115,1.17,-2.406,-1.064,-1.939,-3.562,-2.983
-14.012,-6.224,0.001,-0.532,-2.365,-0.402,-7.218,-4.849
-8.949,-1.918,2.985,4.624,0.572,4.515,-5.287,-2.213
-5.714,-0.643,4.598,6.188,2.592,6.03,-2.387,0.577
-8.163,-5.286,2.251,0.87,1.106,0.843,-2.551,-0.724
-12.217,-11.852,-0.167,-4.925,-0.723,-4.578,-3.906,-4.012
-11.112,-13.21,0.174,-4.906,-0.772,-4.255,-3.984,-4.851
-5.607,-8.81,0.084,-2.695,-1.536,-2.199,-4.616,-4.334
-3.05,-5.115,-3.656,-4.394,-5.16,-4.196,-8.192,-6.48
-5.875,-6.276,-8.563,-8.466,-9.343,-8.304,-12.871,-10.274
-8.772,-10.371,-10.832,-10.377,-11.096,-10.28,-15.038,-11.844
-7.54,-12.843,-11.031,-10.732,-11.256,-10.836,-14.369,-11.477
-3.771,-10.533,-11.617,-11.82,-12.167,-11.89,-13.474,-11.802
-1.03,-6.33,-13.063,-12.712,-14.226,-12.554,-14.1,-12.894
-0.81,-6.474,-14.868,-13.069,-16.3,-12.811,-15.661,-13.681
-2.386,-10.538,-16.459,-14.912,-16.921,-14.748,-16.719,-14.383
-5.715,-14.398,-17.528,-18.799,-16.463,-18.821,-17.299,-15.742
-10.21,-17.629,-17.884,-22.122,-16.369,-22.195,-17.666,-17.124
-10.785,-16.816,-15.495,-21.103,-14.52,-20.991,-15.668,-16.029
-4.35,-7.525,-9.63,-15.348,-9.122,-15.11,-10.514,-11.577
3.4,3.178,-3.945,-8.947,-3.963,-8.868,-5.714,-6.41
5.8,5,-0.118,-4.434,-0.976,-4.61,-3.075,-2.257
4.509,0.548,5.914,1.029,4.481,0.787,1.536,3.193
6.873,0.146,16.964,10.033,15.446,9.895,11.919,12.028
14.618,6.87,28.363,18.672,26.874,18.533,23.375,20.516
19.785,13.649,32.569,21.276,30.638,20.95,27.055,22.811
17.083,13.438,29.079,18.617,26.055,18.101,22.069,19.423
11.296,6.671,23.787,14.74,20.184,14.092,15.104,15.095
7.105,-2.316,18.908,10.043,15.879,9.365,9.518,10.945
4.385,-8.597,13.231,4.8,10.568,4.34,4.411,6.512
4.847,-7.327,10.021,3.166,7.041,3.06,1.974,4.858
10.648,1.171,12.614,6.894,9.922,6.897,4.716,7.419
18.907,9.209,16.496,10.041,14.642,9.825,7.992,9.149
25.986,10.807,17.036,7.23,15.132,6.782,6.95,6.854
31.88,10.876,18.338,4.311,15.626,3.798,6.279,6.037
35.922,16.706,23.726,8.385,21.056,7.882,10.761,10.571
35.276,23.127,26.853,13.077,25.452,12.678,14.669,14.184
31.361,20.295,23.735,11.135,23.763,10.975,13.075,12.409
30.132,11.75,21.617,8.416,23.02,8.418,10.97,11.266
33.15,8.368,25.08,10.403,27.725,10.327,12.183,14.603
36.379,10.548,27.546,12.65,29.529,12.41,14.126,17.364
37.577,11.007,24.724,12.123,23.89,11.763,15.549,17.232
37.214,9.701,21.959,13.32,19.088,12.802,17.763,18.608
34.947,12.535,23.434,19.289,20.714,18.638,20.529,22.776
30.634,17.53,26.255,23.981,24.413,23.435,22.223,24.937
25.888,16.336,27.23,20.751,26.103,20.549,22.392,22.713
22.088,9.422,27.023,14.308,26.432,14.491,22.303,20.155
19.49,6.435,27.357,13.665,26.589,14.132,23.326,21.193
18.184,10.832,28.744,19.169,26.849,19.774,25.606,24.894
18.133,15.524,30.884,25.005,27.769,25.581,28.428,28.617
19.832,15.224,33.885,28.171,30.312,28.5,31.566,31.572
23.768,13.857,37.813,29.816,34.336,29.798,34.881,34.126
28.616,17.049,41.094,30.937,37.693,30.833,37.05,35.787
32.463,22.756,41.558,30.509,38.136,30.598,36.648,35.262
34.135,24.481,39.125,28.083,35.794,28.245,33.83,32.424
32.836,22.111,35.932,25.44,33.101,25.455,30.42,29.329
28.674,20.75,33.224,24.262,31.255,24.124,27.863,27.79
22.398,19.37,29.239,23.433,28.011,23.284,25.429,26.661
15.633,14.118,22.747,20.685,22.053,20.781,22.79,24.536
12.311,9.672,16.848,17.573,16.684,18.085,22.055,23.469
14.597,10.755,14.389,16.965,15.02,17.726,23.299,24.572
18.168,11.312,12.829,15.11,15.092,15.854,22.368,22.993
18.349,6.287,9.814,8.037,13.948,8.68,18.098,15.633
16.497,1.905,8.371,2.259,12.631,2.734,15.459,8.74
13.381,2.121,9.437,3.231,11.814,3.453,15.875,7.491
5.396,-1.769,7.43,3.117,8.239,3.205,13.674,6.602
-5.348,-12.643,0.935,-3.669,1.894,-3.515,7.632,1.735
-9.886,-17.565,-2.621,-8.601,-0.818,-8.33,4.498,-1.332
-6.844,-12.022,0.61,-5.253,3.003,-4.965,7.136,2.052
-4.589,-9.101,4.434,0.098,7.035,0.282,10.1,6.582
-7.181,-15.36,3.712,0.868,5.908,0.996,9.47,6.658
-9.936,-21.28,2.442,-0.522,3.989,-0.394,8.408,5.472
-9.099,-19.616,5.044,0.863,6.191,0.833,10.195,8.057
-7.242,-16.178,8.044,4.263,8.664,4.008,12.377,12.498
-6.493,-16.133,8.559,6.518,8.487,6.242,12.886,14.894
-3.076,-12.53,12.173,9.876,11.787,9.803,15.73,17.252
3.776,-1.801,20.675,15.821,20.423,16.014,22.019,21.389
7.155,4.834,24.432,17.107,24.563,17.415,24.425,22.113
5.558,1.582,19.098,10.133,19.666,10.286,19.981,16.733
5.108,-1.734,12.784,3.022,13.596,2.877,14.978,10.927
6.866,0.845,10.753,1.738,11.738,1.401,13.165,9.065
7.639,3.635,10.205,2.94,11.357,2.632,12.779,9.757
7.074,1.568,8.833,2.688,9.752,2.59,12.7,10.842
4.987,-4.043,6.714,0.946,7.323,1.175,12.432,11.027
0.204,-8.8,3.304,-1.462,4.443,-0.989,10.576,9.627
-5.571,-9.485,-1.344,-3.992,0.748,-3.586,7.363,7.9
-9.792,-8.987,-6.188,-6.542,-3.868,-6.308,3.971,6.465
-13.055,-13.34,-11.127,-10.035,-9.039,-9.755,-0.228,3.109
-16.635,-20.424,-15.383,-13.725,-13.031,-13.411,-4.976,-2.166
-20.681,-23.282,-17.715,-15.471,-14.925,-15.372,-8.211,-6.109
-25.033,-24.159,-19.021,-15.383,-16.617,-15.376,-9.658,-7.648
-27.996,-28.099,-19.307,-13.752,-17.945,-13.503,-9.609,-7.036
-28.13,-29.368,-16.551,-9.438,-15.687,-8.931,-7.078,-3.321
-28.013,-23.024,-11.969,-4.261,-10.439,-3.605,-3.14,1.767
-30.603,-16.856,-9.153,-1.97,-6.47,-1.231,-0.724,4.094
-33.744,-18.395,-8.088,-2.004,-4.695,-1.406,0.134,3.579
-34.773,-25.861,-7.189,-2.125,-3.406,-1.768,1.365,3.029
-34.443,-32.2,-6.858,-3.248,-2.497,-2.935,2.868,2.674
-32.293,-30.566,-6.761,-5.354,-2.127,-5.057,3.497,1.698
-28.056,-24.144,-6.99,-6.942,-2.92,-6.828,2.265,-0.185
-25.838,-22.21,-10.085,-9.736,-6.657,-9.727,-1.798,-3.935
