EEG 1,EEG 2,EEG 3,EEG 4,EEG 5,EEG 6,EEG 7,EEG 8
-3.581,11.582,-1.955,4.809,1.426,5.555,7.039,17.731
-4.268,13.601,-1.608,6.241,0.245,6.823,9.239,17.623
-2.227,13.896,2.23,8.285,3.937,8.794,12.262,20.615
2.952,15.944,8.567,13.471,10.123,13.959,17.888,27.561
6.913,17.425,14.725,20.196,15.57,20.615,24.088,33.397
5.452,12.754,17.652,22.367,18.643,22.696,25.529,33.114
1.002,5.907,17.19,20.159,19.527,20.516,22.766,29.294
0.344,6.522,17.823,21.54,21.034,21.916,23.017,29.355
5.329,13.775,21.812,27.766,24.556,28.019,27.972,34.539
10.536,18.21,25.197,30.047,27.418,30.307,30.813,37.779
11.056,16.51,24.832,25.646,27.231,26.196,28.073,35.203
8.215,13.388,22.26,21.348,24.652,22.174,23.978,31.485
4.455,11.182,18.524,19.446,20.569,20.249,21.474,29.837
0.35,7.972,14.211,16.599,16.789,17.185,18.746,27.17
-0.7,6.104,12.779,13.622,16.974,14.154,15.612,22.63
3.528,9.481,15.182,13.585,20.47,14.289,14.997,20.239
8.368,14.885,17.603,15.638,22.938,16.45,17.469,21.722
9.563,17.457,17.449,17.12,22.915,17.962,19.612,23.8
9.45,17.731,15.486,17.087,21.051,18.067,18.994,23.708
12.348,19.881,14.84,17.45,19.679,18.484,18.318,24.387
18.289,26.767,18.092,22.276,21.882,23.014,21.504,29.713
22.851,33.528,23.187,31.432,26.53,31.742,27.051,36.851
22.355,31.512,25.12,36.64,28.785,36.765,30.044,40.627
17.688,22.219,21.431,32.849,24.977,33.022,29.316,40.985
13.103,16.42,15.677,27.282,17.959,27.459,27.289,40.165
12.298,17.729,13.981,26.719,15.772,26.758,25.218,39.004
14.847,20.082,16.692,27.313,19.463,27.248,23.466,38.224
16.488,20.578,18.435,25.177,21.122,25.146,22.51,37.806
14.852,21.66,17.2,24.282,18.393,24.313,22.033,36.512
13.449,24.345,16.939,28.15,18.146,28.257,22.261,35.196
16.705,27.537,20.214,32.897,23.572,33.123,23.641,36.547
23.794,30.795,24.632,34.323,29.765,34.565,25.966,40.674
30.693,35.908,28.059,35.431,33.152,35.639,30.218,45.129
35.334,43.866,31.387,39.77,35.747,40.166,36.033,47.856
37.874,50.315,35.252,44.382,39.913,45.073,39.456,48.249
38.613,50.752,38.315,45.935,44.505,46.67,39.069,47.357
38.352,47.317,38.755,45.488,46.194,45.945,38.003,46.344
38.186,43.798,36.241,43.734,43.663,43.757,37.854,45.284
38.135,40.516,32.682,40.422,39.446,40.243,37.617,44.568
38.577,37.866,30.525,38.013,36.836,38.222,37.148,44.578
40.294,37.668,30.097,37.923,36.646,38.793,36.573,43.919
41.33,39.419,29.025,36.74,36.633,37.882,34.211,40.467
39.015,40.15,25.571,32.152,34.264,33.047,29.44,34.819
34.495,38.49,21.663,27.556,30.461,28.014,25.456,30.698
30.141,34.842,19.647,26.194,27.701,26.25,24.693,29.955
26.495,29.375,19.217,26.625,26.395,26.436,25.966,31.122
25.12,25.189,20.868,27.944,27.412,27.84,28.849,33.711
27.503,27.317,25.77,31.946,32.249,32.217,33.588,37.411
29.546,32.694,29.999,36.167,36.845,36.749,36.532,38.702
26.113,32.427,28.231,34.832,35.088,35.513,33.834,35.355
22.174,28.511,23.895,30.323,30.462,30.979,28.709,31.87
26.225,30.786,24.742,30.775,31.471,31.123,27.509,33.744
32.955,37.141,29.509,35.772,36.15,35.611,30.516,38.673
32.252,38.919,31.643,38.713,36.972,38.377,33.849,40.866
28.502,38.279,31.905,38.892,36.196,38.807,36.926,40.675
29.813,39.874,34.249,38.916,39.479,39.136,40.464,41.643
33.144,40.226,36.775,38.103,43.506,38.572,41.977,42.899
35.493,38.789,37.317,37.249,43.569,37.977,40.948,42.83
42.023,43.024,39.789,41.341,43.727,42.242,42.561,45.043
54.264,55.748,47.56,52.21,49.568,53.09,50.491,53.416
64.879,69.441,56.678,64.292,57.978,65.162,60.98,64.339
67.06,74.927,60.342,69.872,61.639,70.994,66.528,69.002
61.952,71.219,57.455,67.417,59.533,68.784,64.451,64.747
57.102,65.572,53.242,62.46,56.645,63.709,59.733,59.293
57.103,64.156,51.4,59.448,55.273,60.46,57.673,59.156
59.082,67.297,51.615,58.963,54.384,59.909,58.944,62.177
60.621,72.691,54.601,61.66,55.743,62.456,62.744,65.37
63.279,77.071,60.227,66.143,60.703,66.514,67.224,68.603
65.725,76.244,62.584,66.605,63.827,66.616,67.589,68.98
64.151,69.159,57.245,60.231,59.965,60.182,61.404,63.318
59.354,60.536,48.326,51.039,52.038,51.033,52.891,54.455
54.378,54.957,40.996,42.633,44.561,42.76,46.854,46.87
50.138,52.644,37.027,37.025,40.011,37.583,44.672,42.596
47.842,52.397,38.521,37.891,41.881,38.994,46.846,43.331
47.946,52.632,44.292,43.789,48.789,45.047,51.817,47.86
48.671,52.798,48.528,47.509,53.201,48.435,55.673,51.595
50.688,56.301,49.955,48.322,53.691,48.925,57.748,53.851
55.776,65.062,52.842,51.927,56.446,52.593,60.9,57.914
61.505,74.37,58.183,58.485,63.283,59.397,65.491,63.775
64.43,78.154,62.074,62.158,68.593,63.149,68.484,67.613
64.525,75.06,61.772,60.449,68.098,61.304,68.01,67.283
63.886,69.516,59.17,57.593,64.373,58.339,65.605,64.869
64.419,67.127,58.11,58.511,62.329,59.372,64.153,64.164
65.922,67.925,59.126,61.299,62.601,62.342,64.372,65.911
64.975,67.021,58.072,59.493,61.228,60.539,63.335,66.083
58.889,61.719,51.917,52.187,55.354,53.069,58.356,61.723
51.682,55.399,44.336,45.962,48.247,46.568,51.532,56.385
50.466,53.157,41.215,45.791,45.397,46.053,46.966,54.747
55.353,56.887,42.686,49.925,46.461,50.033,45.82,56.233
60.452,65.746,45.084,55.054,47.332,55.417,47.253,58.642
62.726,75.305,47.04,60.032,47.225,60.774,50.376,61.72
62.345,78.922,48.438,63.284,47.211,64.025,53.106,64.352
59.111,73.869,48.471,63.455,47.139,63.882,53.207,64.805
53.511,62.136,47.116,61.663,47.055,62.022,50.668,63.457
47.038,49.157,44.338,59.252,46.502,59.884,46.365,60.801
40.409,41.925,39.478,55.939,43.505,56.594,41.069,56.733
34.252,41.356,33.25,50.331,37.082,50.524,36.142,52.68
31.618,42.655,28.688,43.71,30.377,43.65,33.212,50.208
36.324,45.255,29.968,42.629,29.924,42.878,34.101,50.283
45.268,50.281,37.252,49.433,37.182,49.826,38.304,53.154
49.162,53.371,43.837,55.308,43.998,55.373,41.027,55.501
46.938,53.521,45.078,53.622,44.836,53.644,39.559,53.656
46.212,56.263,44.365,49.434,44.349,50.002,37.284,49.613
46.7,59.773,43.976,46.979,45.047,47.89,36.659,46.558
42.411,56.041,41.403,43.017,43.025,43.643,36.067,43.495
37.02,46.921,38.099,37.754,39.781,38.1,35.583,40.016
38.365,42.395,38.596,36.394,40.861,36.852,37.058,38.818
44.671,45.618,41.931,39.576,44.515,40.101,39.293,40.761
49.977,51.68,45.04,44.223,46.581,44.525,40.342,43.971
53.836,57.257,48.433,48.97,48.985,49.024,41.079,46.854
55.476,61.142,50.95,51.786,52.379,51.733,41.739,48.15
50.006,59.613,48.143,49.712,50.883,49.685,40.411,47.01
38.939,51.175,40.369,44.047,42.29,44.123,37.221,43.998
32.206,42.132,34.3,39.843,33.958,39.984,34.874,40.581
34.228,39.658,34.062,40.102,32.133,40.25,34.927,38.651
38.146,42.142,36.263,42.083,33.445,42.227,36.046,39.071
35.743,41.712,35.035,39.958,31.718,40.085,34.896,39.044
28.581,36.752,30.363,33.851,27.591,34.003,30.448,35.633
25.936,35.432,28.596,31.14,26.893,31.307,26.867,32.045
30.232,40.655,32.095,34.204,30.591,34.213,27.347,32.479
33.224,42.488,34.363,35.924,32.293,35.888,28.426,33.439
29.94,34.38,29.896,30.837,27.711,31.247,25.082,29.041
25.459,24.106,22.288,21.9,20.832,22.74,18.222,20.762
23.939,21.095,18.453,14.615,18.13,15.181,14.015,15.237
22.841,23.799,19.58,11.229,20.361,11.241,15.891,15.367
23.144,26.559,22.624,12.079,23.896,12.145,20.711,18.255
29.406,29.566,26.527,16.926,27.375,17.565,24.587,20.845
36.74,33.596,30.474,21.691,30.743,22.482,26.383,22.824
35.682,33.915,30.206,19.634,30.186,19.903,24.43,22.911
26.825,27.38,22.923,10.447,22.193,10.349,17.603,18.407
17.799,18.079,13.186,2.227,11.326,2.399,9.762,10.909
12.264,10.836,7.323,0.323,5.044,0.891,5.527,5.145
8.104,5.776,4.252,0.573,2.733,1.238,3.282,1.592
4.267,3.011,0.039,-1.677,-0.317,-1.044,0.03,-1.416
4.89,4.742,-2.953,-3.204,-2.84,-2.559,-1.721,-1.87
12.284,10.199,-0.588,0.31,-1.117,0.942,0.887,2.051
20.998,15.749,5.018,6.453,3.247,6.822,5.207,7.383
24.54,18.723,8.438,10.122,5.702,9.942,6.856,9.92
21.891,17.814,7.068,9.956,4.122,9.534,4.686,8.669
14.438,13.534,1.527,7.443,-1.398,7.552,0.483,5.417
4.297,8.09,-5.381,3.476,-8.832,4.263,-3.368,2.328
-4.171,2.481,-9.261,-0.633,-13.074,0.278,-5.191,0.618
-8.261,-3.3,-8.396,-2.57,-11.207,-1.838,-4.37,0.02
-9.166,-6.912,-6.198,-2.786,-7.722,-2.152,-1.923,-0.882
-7.242,-5.534,-5.843,-4.198,-7.573,-3.557,-0.7,-3.084
-1.852,-0.558,-6.062,-6.82,-8.58,-6.119,-2.654,-5.984
3.208,3.32,-5.347,-7.994,-7.354,-7.307,-5.874,-8.257
3.167,2.809,-5.11,-7.555,-5.773,-7.033,-7.017,-9.036
0.435,-0.722,-5.978,-7.818,-6.316,-7.489,-6.016,-8.273
-0.893,-3.308,-6.958,-9.98,-8.354,-9.702,-5.831,-7.836
-3.32,-4.887,-8.23,-13.536,-10.533,-13.098,-7.919,-10.018
-9.39,-9.116,-9.675,-16.954,-11.824,-16.298,-10.177,-13.323
-14.589,-14.596,-9.63,-18.361,-11.548,-17.66,-10.003,-13.992
-14.355,-16.226,-8.324,-17.721,-10.602,-17.1,-8.293,-12.151
-12.027,-15.769,-8.937,-17.074,-11.289,-16.507,-8.684,-11.741
-12.505,-17.124,-12.728,-17.223,-14.335,-16.745,-12.232,-14.065
-13.742,-16.527,-16.38,-16.983,-17.277,-16.62,-15.635,-15.932
-11.596,-11.142,-16.769,-16.03,-17.88,-15.562,-16.153,-15.348
-7.474,-7.932,-15.163,-15.788,-17.156,-15.057,-15.185,-14.501
-5.711,-13.474,-14.25,-17.372,-16.765,-16.651,-15.41,-15.494
-7.26,-22.858,-14.308,-19.453,-16.629,-19.08,-16.947,-17.119
-9.898,-26.331,-14.38,-19.564,-16.776,-19.476,-18.092,-17.627
-12.879,-23.403,-15.249,-18.79,-18.491,-18.635,-18.999,-18.49
-17.931,-22.251,-19.555,-21.854,-23.376,-21.387,-22.155,-22.926
-25.253,-26.088,-27.307,-29.392,-30.853,-28.828,-27.512,-30.18
-30.986,-30.359,-32.997,-35.447,-36.048,-35.27,-30.857,-35.149
-31.357,-31.244,-32.018,-35.77,-34.763,-36.035,-29.89,-35.444
-29.032,-30.243,-28.33,-33.507,-30.646,-33.734,-28.357,-34.719
-29.823,-32.108,-29.461,-34.539,-31.034,-34.395,-31.45,-37.449
-33.235,-36.576,-35.336,-39.233,-36.452,-38.935,-38.327,-42.86
-34.686,-37.107,-39.653,-42.578,-41.064,-42.524,-43.095,-46.564
-34.31,-33.761,-40.678,-42.984,-42.39,-43.219,-43.783,-47.296
-36.099,-35.384,-42.136,-44.171,-43.286,-44.309,-43.995,-47.712
-41.176,-43.444,-44.462,-46.698,-44.651,-46.475,-44.758,-48.58
-45.432,-48.865,-43.732,-46.401,-43.755,-46.069,-42.94,-47.909
-45.343,-49.312,-40.712,-44.153,-41.478,-43.995,-39.644,-46.736
-43.897,-52.154,-41.548,-46.395,-42.784,-46.205,-40.666,-48.412
-45.114,-58.607,-46.55,-52.315,-47.484,-51.872,-45.864,-51.44
-47.693,-62.378,-49.632,-54.105,-50.653,-53.67,-49.031,-51.971
-49.145,-61.305,-49.524,-51.089,-51.652,-50.9,-49.202,-51.121
-49.327,-57.926,-49.66,-48.811,-52.677,-48.678,-50.207,-51.258
-48.298,-53.371,-49.796,-47.437,-52.761,-47.101,-50.954,-50.411
-46.305,-48.087,-47.278,-44.061,-50.133,-43.508,-47.449,-46.706
-45.398,-45.651,-43.143,-40.886,-46.146,-40.331,-41.831,-43.072
-46.729,-48.586,-40.559,-41.373,-43.187,-41.096,-40.007,-43.184
-46.32,-51.026,-38.61,-42.611,-40.271,-42.684,-41.497,-45.261
-39.145,-44.229,-32.536,-37.907,-33.808,-38.116,-39.207,-43.159
-28.977,-30.819,-22.27,-27.134,-24.621,-27.153,-30.631,-34.985
-25.523,-23.941,-15.486,-19.592,-19.515,-19.289,-22.91,-27.592
-29.972,-28.577,-17.483,-22.185,-22.043,-21.793,-23.217,-28.083
-34.522,-35.794,-24.333,-30.371,-28.042,-30.18,-29.709,-34.293
-35.497,-38.894,-29.742,-35.974,-32.589,-35.916,-35.58,-39.163
-35.823,-41.101,-32.812,-38.278,-35.383,-38.129,-38.261,-41.217
-36.751,-44.465,-35.629,-41.362,-37.616,-41.154,-40.469,-43.987
-35.974,-45.779,-36.87,-44.57,-37.504,-44.342,-42.355,-46.803
-32.803,-44.87,-34.217,-44.38,-33.802,-43.915,-40.108,-45.517
-29.63,-43.87,-30.73,-42.668,-30.498,-42.021,-35.307,-42.102
-28.88,-42.576,-31.11,-43.903,-31.119,-43.495,-35.623,-43.104
-30.754,-40.785,-34.962,-46.894,-34.32,-46.596,-42.281,-48.544
-33.418,-39.01,-39.205,-47.532,-39.264,-46.714,-47.143,-51.842
-34.866,-38.646,-42.303,-46.901,-45.623,-45.533,-46.025,-50.697
-34.644,-40.891,-43.431,-47.816,-49.526,-46.522,-43.761,-49.144
-34.171,-43.766,-41.899,-47.861,-48.296,-47.134,-43.271,-49.012
-35.329,-45.29,-38.037,-44.023,-43.82,-43.782,-41.258,-47.358
-38.549,-46.094,-33.114,-37.818,-38.625,-37.485,-36.143,-42.311
-41.868,-45.957,-29.063,-32.12,-34.307,-31.346,-31.155,-36.215
-41.693,-43.155,-27.171,-28.544,-31.831,-27.716,-29.029,-32.287
-35.907,-37.529,-26.072,-27.13,-30.305,-26.743,-28.709,-30.496
-25.362,-29.984,-22.646,-25.484,-27.128,-25.367,-27.086,-28.057
-11.762,-21.025,-14.975,-20.511,-19.776,-20.165,-21.705,-22.748
1.305,-13.745,-5.097,-12.816,-9.327,-12.163,-13.452,-15.362
6.844,-12.605,0.533,-7.764,-2.833,-7.113,-7.344,-10.129
1.78,-17.348,-2.687,-10.232,-6.266,-9.802,-7.894,-11.099
-6.784,-22.58,-9.815,-17.379,-14.545,-17.172,-12.808,-16.133
-9.57,-22.409,-11.179,-20.062,-16.657,-20.06,-14.589,-17.998
-6.267,-16.399,-5.478,-14.851,-10.575,-15.037,-10.203,-14.078
-2.574,-10.438,-0.185,-8.247,-4.252,-8.478,-4.219,-9.218
0.033,-8.681,0.446,-6.319,-3.041,-6.466,-1.268,-7.472
3.61,-8.648,-0.612,-7.979,-4.175,-8.038,-1.202,-7.833
5.353,-7.888,-0.832,-9.589,-3.961,-9.619,-2.112,-8.358
-0.059,-9.825,-2.676,-10.556,-4.805,-10.679,-4.206,-9.7
-9.426,-16.307,-7.465,-12.045,-9.73,-12.295,-8.405,-12.988
-13.113,-21.11,-11.23,-13.263,-15.064,-13.499,-12.688,-16.632
-9.105,-19.019,-11.515,-12.81,-16.52,-12.914,-14.331,-18.379
-4.771,-13.493,-11.006,-11.287,-15.493,-11.288,-14.326,-18.608
-5.776,-10.386,-11.896,-10.731,-14.839,-10.643,-15.269,-19.003
-10.722,-10.715,-13.533,-12.555,-15.579,-12.296,-17.277,-20.037
-14.284,-11.196,-14.614,-14.243,-17.253,-13.952,-18.514,-20.782
-13.318,-10.048,-14.281,-11.802,-18.028,-11.882,-18.401,-20.393
-10.71,-10.177,-13.693,-8.288,-17.295,-8.848,-19.392,-20.148
-11.385,-13.696,-15.569,-10.53,-17.532,-11.258,-23.768,-22.469
-15.688,-17.294,-19.648,-16.949,-20.686,-17.531,-28.911,-26.707
-19.728,-17.201,-22.217,-19.832,-24.682,-20.179,-29.881,-29.126
-21.039,-14.827,-21.909,-17.712,-26.357,-17.939,-26.557,-28.348
-20.428,-13.461,-21.232,-16.03,-25.984,-16.227,-23.615,-27.024
-18.942,-13.182,-21.289,-17.787,-25.364,-17.87,-23.362,-27.253
-16.536,-13.223,-20.327,-20.424,-24.056,-20.436,-23.636,-28.279
-13.844,-14.16,-18.307,-21.324,-21.486,-21.609,-22.945,-28.846
-12.377,-14.284,-17.131,-20.62,-19.1,-21.416,-21.931,-28.172
-13.097,-12.016,-17.084,-19.025,-18.314,-20.098,-20.913,-26.372
-16.553,-12.448,-18.02,-18.106,-19.576,-19.041,-20.825,-25.904
-20.976,-18.818,-19.945,-19.011,-21.853,-19.749,-22.634,-28.018
-21.371,-23.113,-20.688,-19.376,-22.208,-20.072,-24.182,-29.204
-15.61,-18.264,-18.164,-16.859,-18.751,-17.479,-22.653,-26.396
-7.912,-8.873,-13.409,-12.628,-13.058,-13.156,-18.542,-21.501
-4.393,-3.53,-9.491,-8.995,-9.039,-9.653,-14.43,-17.905
-7.241,-5.827,-9.102,-7.518,-9.559,-8.393,-12.598,-17.12
-12.312,-11.934,-11.516,-7.931,-12.687,-8.791,-13.166,-18.563
-14.3,-15.234,-13.483,-9.156,-14.409,-9.891,-14.06,-20.102
-12.964,-14.196,-14.342,-11.827,-14.822,-12.647,-14.505,-20.725
-9.452,-10.407,-14.502,-14.111,-14.848,-15.128,-14.785,-20.882
-2.693,-4.073,-11.55,-10.659,-11.6,-11.715,-12.97,-18.962
5.804,3.2,-4.625,-1.921,-4.292,-2.917,-7.54,-12.9
11.588,8.899,2.837,5.878,2.711,4.904,-0.574,-4.643
13.112,12.32,7.625,10.289,5.944,9.248,4.725,1.575
11.53,13.03,8.377,12.07,5.229,10.812,5.927,3.022
7.761,11.346,4.958,10.841,1.707,9.389,2.424,0.143
4.458,9.3,0.437,7.634,-1.975,6.345,-2.395,-3.272
4.857,8.028,-0.832,5.55,-2.867,4.681,-3.805,-3.705
9.473,8.845,2.335,6.993,-0.261,6.267,-0.206,-0.454
17.195,13.9,8.1,12.096,4.558,11.12,6.64,5.52
23.719,20.106,12.592,16.95,8.664,15.764,11.985,10.675
22.837,21.051,11.797,16.465,8.549,15.269,11.011,10.365
15.52,16.53,6.497,11.392,3.884,10.165,4.858,5.007
8.804,11.3,1.451,6.855,-2.027,5.585,-0.844,-0.623
5.338,8.412,-0.468,5.315,-5.509,4.14,-3.373,-3.699
3.598,7.953,1.109,6.379,-4.135,5.258,-3.193,-3.684
3.865,7.782,5.085,8.978,1.303,7.688,-0.767,-0.95
6.724,6.164,8.666,11.309,6.74,9.825,2.511,2.359
10.366,4.292,10.74,13.034,10.32,11.462,5.473,5.18
13.402,5.572,13.133,15.592,13.873,13.961,9.021,8.803
15.741,11.837,16.271,18.358,17.904,16.716,12.681,12.387
14.761,17.776,17.61,18.759,20.071,17.167,13.25,12.792
8.288,15.633,15.729,16.64,18.757,15.077,9.915,9.992
1.838,7.557,13.104,14.765,15.757,13.254,6.98,7.837
3.908,4.354,13.307,15.559,14.841,14.175,8.889,9.163
14.142,10.952,17.009,18.897,17.507,17.527,14.434,12.823
22.693,19.416,20.863,21.583,20.667,20.037,18.479,15.497
23.447,21.88,21.499,21.437,21.132,19.78,19.338,16.199
22.197,23.276,21.259,22.401,21.333,20.823,20.92,18.089
25.334,29.141,23.799,28.051,24.217,26.605,25.27,22.955
28.905,33.232,26.067,33.211,26.296,31.841,28.375,26.806
27.43,30.041,23.812,31.68,24.065,30.306,27.093,25.612
22.628,23.933,18.902,25.398,19.927,24.026,23.201,20.676
18.72,19.225,14.885,19.321,16.93,18.065,18.905,15.151
17.945,15.095,12.937,15.016,15.798,13.904,15.278,10.755
19.569,12.383,13.569,12.843,16.825,11.735,14.185,9.13
21.057,14.825,16.675,14.225,19.417,12.884,16.983,11.586
22.513,21.735,20.637,18.536,22.056,16.763,22.037,16.337
25.585,27.852,24.094,22.331,24.581,20.318,25.657,19.54
28.13,29.828,27.244,24.029,27.898,22.253,26.39,20.225
27.052,28.008,30.738,25.871,31.639,24.46,27.209,21.433
25.103,25.771,35.617,30.758,35.614,29.422,31.506,25.876
27.264,27.526,42.138,37.954,40.57,36.478,37.613,31.932
31.176,32.789,45.841,41.592,43.493,40.087,39.155,34.245
31.741,36.359,42.949,38.331,40.866,37.049,33.829,31.037
32.29,37.59,39.774,35.168,37.936,34.08,29.606,29.102
37.177,40.517,43.024,39.184,40.782,37.949,33.33,33.575
41.938,45.644,47.759,45.677,44.897,44.077,39.018,38.628
41.005,49.909,46.868,46.96,43.679,45.087,37.798,37.173
34.764,49.923,40.499,43.041,37.245,41.055,30.18,30.786
27.9,45.569,32.478,38.281,29.281,36.312,22.667,25.257
25.991,42.471,27.113,35.662,24.423,33.948,19.938,23.645
30.306,44.551,27.296,35.983,25.812,34.694,22.278,25.484
36.262,48.678,31.501,38.986,31.091,37.976,27.006,29.089
38.656,50.345,34.943,42.687,34.348,41.77,30.356,32.131
36.919,48.484,34.821,43.82,33.154,42.992,29.916,32.376
34.301,45.474,32.78,42.164,30.576,41.415,26.97,30.267
31.794,43.404,30.83,40.23,28.906,39.486,24.008,27.861
27.631,40.23,28.934,38.574,27.317,37.687,22.137,26.292
23.715,34.719,28.336,36.828,27.044,35.611,22.862,26.577
23.315,30.174,29.959,35.502,29.178,34.096,26.35,28.637
24.147,27.741,31.015,34.24,30.099,33.099,29.111,30.386
23.262,25.975,30.169,33.2,28.231,32.457,29.05,31.001
21.96,26.155,29.369,33.332,26.482,32.562,27.682,30.7
21.353,28.339,28.844,33.15,25.537,31.951,26.21,28.699
21.975,29.77,28.886,31.691,25.528,30.228,25.816,26.329
24.428,29.91,31.804,31.749,28.707,30.481,28.203,26.846
25.976,29.667,36.911,34.824,34.066,33.757,32.432,30.319
23.927,29.23,40.561,38.713,37.506,37.402,36.044,34.129
20.232,28.903,41.012,41.237,37.426,39.578,37.92,36.588
18.345,29.785,39.301,42.249,35.622,40.594,37.735,37.353
20.052,33.624,37.942,43.643,34.885,42.283,36.365,37.464
24.982,39.036,38.84,47.241,36.195,46.248,36.408,39.12
29.238,40.129,40.41,50.658,37.374,49.914,38.566,42.509
28.052,35.237,39.102,49.181,35.772,48.48,39.594,43.616
22.587,30.848,34.576,42.721,31.951,42,36.848,38.658
17.811,30.445,29.114,35.275,27.847,34.595,31.299,29.543
14.949,29.557,23.395,29.007,22.998,28.384,24.979,21.165
13.613,26.314,18.352,24.29,17.691,23.681,19.869,16.112
14.466,24.636,16.664,21.684,15.478,21.019,17.663,14.265
15.413,25.006,17.823,20.157,17.053,19.373,17.612,13.942
13.537,22.99,17.427,17.143,17.871,16.33,16.956,12.809
9.145,16.621,13.29,11.612,15.001,10.98,14.059,9.645
4.911,9.458,8.944,6.358,11.68,5.884,10.61,5.963
5.375,8.08,10.444,7.095,13.619,6.383,10.909,5.809
12.499,14.727,18.162,15.026,20.875,13.813,16.024,10.732
20.423,21.63,24.712,22.339,26.684,20.905,20.339,15.719
22.807,21.782,25.993,23.383,27.853,22.099,20.334,16.699
20.744,19.945,26.284,22.927,28.658,21.832,20.596,17.185
18.012,21.418,27.931,24.895,30.671,24.041,23.921,19.813
16.32,22.911,27.746,25.619,30.003,25.127,25.632,20.763
15.448,20.877,24.299,22.403,25.691,22.037,22.348,17.497
14.554,16.773,19.927,17.66,21.183,17.055,17.466,13.074
15.476,15.118,18.005,15.331,19.477,14.51,15.849,11.495
20.551,18.923,20.062,17.124,20.95,16.353,17.754,13.389
26.56,24.563,23.848,20.875,23.994,20.243,20.383,16.634
27.646,25.709,25.012,22.405,25.643,21.776,21.463,18.193
23.167,21.172,21.092,19.231,23.038,18.538,19.464,15.636
17.993,14.752,15.459,14.112,18.24,13.474,16.128,11.126
14.238,9.316,13.085,11.363,16.019,10.884,15.224,9.445
7.949,3.955,11.918,9.284,14.822,8.929,15.398,10.04
-1.297,-1.568,8.882,5.753,11.431,5.356,14.161,10.16
-7.144,-5.242,7.687,4.468,9.126,3.883,14.421,10.824
-7.235,-6.622,9.606,6.027,9.834,5.407,16.94,11.698
-5.409,-6.248,9.398,5.645,9.416,5.217,17.003,10.323
-3.919,-4.866,5.574,2.85,5.994,2.447,13.22,7.708
-2.473,-3.478,2.797,1.845,3.18,1.169,9.829,6.551
-1.107,-0.806,4.127,4.513,4.649,3.574,10.257,7.718
-0.877,2.052,7.047,7.979,8.999,6.982,13.071,9.831
-3.281,-1.736,7.108,7.534,10.786,6.735,14.261,9.851
-7.2,-11.808,4.465,3.597,8.477,3.138,12.997,7.668
-8.823,-16.629,3.817,2.319,7.5,1.912,12.471,7.498
-5.946,-10.518,7.463,6.417,11.824,5.662,14.623,11.284
0.221,-0.204,12.247,11.846,17.146,10.842,17.585,15.879
6.049,6.03,13.563,13.712,16.865,12.853,18.21,17.436
8.333,6.561,10.663,11.518,11.556,10.87,15.701,15.341
7.515,5.183,7.258,8.887,7.175,8.276,12.721,12.473
6.581,4.897,6.665,8.539,6.578,8.12,11.932,11.558
6.274,4.873,7.479,8.931,7.409,8.911,12.216,11.749
4.974,3.967,6.75,7.767,7.436,7.78,11.388,11.339
3.997,3.671,6.19,6.973,8.53,6.654,10.959,11.602
5.735,4.975,8.825,9.436,11.955,9.111,13.194,13.905
7.713,5.166,11.893,12.46,13.839,12.559,15.608,15.889
6.209,1.56,10.546,11.141,10.816,11.55,13.794,14.335
2.737,-2.892,5.948,7.065,6.009,7.452,8.814,10.449
2.319,-2.644,4.326,6.751,5.396,6.977,7.01,9.33
5.313,0.745,7.089,10.153,8.648,10.32,10.005,12.113
6.164,0.675,8.221,10.256,9.104,10.51,11.631,13.664
3.702,-1.799,5.87,6.883,5.902,7.092,9.366,12.207
2.519,-1.137,5.172,6.683,4.94,6.555,8.126,11.61
4.051,2.133,7.729,10.141,7.477,9.676,10.397,12.938
7.011,5.785,10.627,12.668,10.28,12.071,13.492,14.22
10.889,8.753,12.332,12.781,12.138,12.117,15.181,14.773
13.229,7.952,12.371,11.346,12.833,10.607,15.127,14.059
9.947,2.629,9.758,8.629,10.916,7.957,12.684,11.179
0.909,-3.488,4.333,4.749,5.466,4.427,7.218,6.593
-7.906,-7.326,-1.728,0.987,-1.411,1.205,0.801,2.254
-9.915,-8.096,-5.111,-0.993,-5.538,-0.398,-2.723,0.093
-4.274,-5.199,-4.69,-1.08,-4.824,-0.529,-2.391,0.277
3.888,0.021,-2.71,-0.546,-1.574,-0.315,-0.916,1.119
7.944,3.138,-2.278,-0.904,0.033,-0.94,-0.55,0.876
6.808,3.037,-3.271,-2.269,-0.513,-2.325,-0.216,-0.045
6.199,3.857,-2.332,-2.493,0.606,-2.423,2.262,0.649
8.95,7.113,1.312,-0.24,4.516,-0.149,6.412,3.838
11.033,9.663,4.22,2.917,7.376,2.947,9.856,7.744
9.944,9.656,3.982,4.464,6.712,4.524,10.908,9.895
7.581,7.885,0.678,2.117,3.15,2.221,8.05,7.935
4.574,4.307,-5.312,-4.631,-3.032,-4.555,0.632,1.097
-0.238,-1.294,-11.989,-11.802,-10.203,-11.732,-7.653,-6.649
-4.967,-5.986,-15.399,-14.223,-13.828,-14.048,-10.959,-9.461
-5.212,-6.011,-13.668,-11.754,-11.737,-11.41,-8.186,-6.852
-0.434,-1.448,-8.837,-7.822,-6.852,-7.369,-3.381,-3.134
5.478,5.307,-3.606,-3.621,-2.065,-3.11,0.343,-0.333
11.22,13.734,2.197,2.05,3.725,2.73,3.979,3.448
18.771,23.709,9.405,8.817,11.402,9.751,9.093,9.177
27.555,32.543,15.592,14.46,17.796,15.517,13.837,14.644
34.638,37.801,18.389,18.148,20.625,19.156,15.798,17.738
37.776,39.979,18.898,20.235,21.272,21.072,15.677,18.507
36.021,39.879,18.164,19.673,20.346,20.21,14.547,17.153
31.297,36.811,16.351,16.515,17.928,16.857,12.61,14.327
27.153,31.244,15.056,14.436,16.367,14.929,12.263,13.312
24.451,25.914,14.666,15.137,16.558,15.799,15.236,16
21.888,22.88,12.741,14.701,15.648,15.228,17.648,18.477
19.226,20.977,8.248,10.143,11.721,10.585,15.132,16.842
17.945,17.882,3.781,4.945,6.909,5.647,9.778,13.572
19.229,15.453,2.171,3.799,4.489,4.726,6.342,12.646
21.997,17.796,3.214,5.742,4.912,6.525,5.96,13.845
24.932,23.698,5.21,7.734,6.411,8.318,7.344,15.788
27.577,27.91,6.961,9.676,7.642,10.487,9.217,18.202
29.154,28.738,7.679,11.771,8.303,13.083,10.28,19.949
30.183,29.097,8.259,12.87,9.456,14.316,10.402,20.011
31.677,31.09,10.114,12.773,11.853,13.846,10.542,19.032
33.414,35.02,12.963,13.59,14.593,14.258,11.536,18.754
35.494,40.47,16.428,16.698,17.384,17.165,13.869,20.45
36.974,43.151,19.509,18.666,19.892,19.053,16.249,22.251
34.783,38.057,19.411,15.675,19.682,16.163,16.125,21.054
27.33,26.65,14.513,9.367,14.787,10.21,12.556,16.884
17.418,15.081,6.661,3.688,7.028,4.891,6.968,11.881
11.754,9.521,0.623,1.451,1.484,2.662,2.776,8.342
15.123,12.754,0.62,3.709,1.944,4.636,3.068,8.29
23.294,19.987,5.359,7.592,6.446,8.278,6.442,11.02
27.784,23.288,9.314,8.509,9.724,9.058,8.427,12.628
26.817,21.691,9.566,6.249,9.8,6.711,7.658,10.855
24.678,20.211,7.551,4.144,8.405,4.746,5.912,7.622
24.142,20.911,5.337,3.022,6.956,3.99,3.241,4.89
24.353,20.982,3.528,1.314,5.664,2.347,-1.077,2.397
24.015,19.432,2.176,0.052,4.388,0.635,-4.601,0.736
23.784,19.366,1.648,1.957,3.085,2.149,-4.282,1.756
23.323,20.857,1.485,5.38,1.86,5.607,-1.647,4.443
21.839,21.783,1.29,6.363,1.433,6.774,-0.034,5.43
22.609,24.577,2.72,5.488,3.413,6.046,1.346,4.724
25.188,27.474,4.499,3.371,5.989,4.075,3.217,3.991
21.468,21.373,1.167,-3.075,3.58,-2.12,1.568,1.232
11.731,9.221,-5.941,-10.841,-3.016,-9.48,-3.819,-3.867
7.393,5.441,-8.098,-11.442,-5.671,-9.91,-5.871,-6.361
12.869,12.007,-2.866,-4.855,-1.084,-3.757,-1.538,-4.173
21.121,19.039,3.574,1.381,5.826,1.958,3.839,-0.771
23.566,20.108,5.111,2.84,8.327,3.55,4.241,0.409
18.049,15.553,1.656,0.952,4.802,2.189,0.207,-0.584
11.577,11.761,-1.377,-0.287,0.595,1.121,-2.496,-1.165
9.316,11.889,-2.905,-1.458,-2.287,-0.261,-3.424,-2.053
6.666,9.543,-7.754,-6.512,-8.284,-5.425,-7.968,-6.69
0.894,1.506,-15.1,-13.568,-16.351,-12.371,-15.542,-13.313
-6.062,-8.344,-21.374,-19.751,-22.763,-18.564,-21.573,-18.587
-14.933,-17.908,-28.246,-27.112,-29.718,-26.204,-26.299,-23.854
-23.77,-25.152,-34.752,-34.056,-36.534,-33.314,-30.269,-29.016
-25.733,-26.086,-34.729,-34.215,-36.603,-33.261,-30.18,-29.844
-19.955,-21.489,-27.444,-27.157,-29.189,-26.011,-24.928,-25.378
-15.926,-19.287,-21.939,-22.052,-23.602,-21.159,-20.72,-22.218
-22.32,-26.072,-27.3,-27.528,-28.504,-26.996,-25.518,-27.825
-36.171,-38.019,-40.494,-39.651,-40.637,-38.966,-37.701,-39.963
-48.035,-46.755,-50.832,-47.806,-49.936,-46.492,-47.654,-49.655
-52.905,-49.913,-54.541,-49.155,-52.749,-47.335,-51.094,-53.418
-52.521,-50.309,-55.609,-48.408,-52.577,-46.617,-52.001,-54.727
-51.478,-52.202,-57.568,-50.536,-53.82,-49.258,-54.131,-56.955
-54.03,-58.334,-61.935,-57.385,-59.506,-56.658,-57.264,-60.32
-62.409,-67.224,-69.333,-66.351,-69.191,-65.632,-61.241,-64.473
-72.413,-74.576,-77.064,-73.434,-77.632,-72.23,-66.2,-69.426
-75.529,-76.58,-80.098,-77.516,-79.573,-76.036,-69.199,-72.832
-71.925,-74.18,-78.184,-79.36,-76.208,-77.983,-68.415,-72.629
-68.726,-71.22,-75.581,-78.238,-72.609,-76.904,-66.611,-70.851
-66.566,-67.689,-73.464,-73.28,-70.589,-71.905,-65.82,-69.697
-63.324,-64.044,-70.685,-68.384,-69.282,-67.222,-65.249,-68.883
-61.913,-65.362,-68.513,-69.435,-68.913,-68.676,-64.789,-68.577
-64.709,-71.984,-69.264,-75.164,-70.829,-74.497,-66.012,-70.181
-69.089,-77.586,-73.073,-79.073,-74.98,-78.072,-70.107,-73.825
-72.591,-78.954,-77.303,-79.478,-78.511,-78.335,-75.274,-77.27
-75.986,-77.647,-79.128,-78.912,-79.331,-78.23,-77.607,-78.065
-78.479,-75.64,-78.667,-77.93,-79.309,-77.771,-76.278,-76.398
-79.183,-75.88,-78.935,-76.956,-81.62,-76.667,-75.285,-75.098
-80.975,-80.493,-81.52,-77.916,-85.729,-77.138,-77.48,-75.799
-82.571,-84.693,-82.983,-79.405,-86.679,-78.51,-79.764,-76.017
-78.996,-82.322,-80.248,-77.915,-82.677,-77.076,-78.776,-73.207
-73.842,-77.006,-76.842,-74.045,-79.146,-72.972,-77.227,-69.469
-73.644,-75.213,-76.352,-69.75,-79.467,-68.504,-77.649,-67.026
-74.621,-74.304,-75.205,-64.32,-79.156,-63.289,-76.148,-63.134
-69.706,-69.356,-69.117,-58.087,-73.424,-57.367,-69.902,-55.313
-58.772,-60.115,-58.127,-50.792,-61.159,-50.239,-60.321,-44.384
-29.515,-30.949,-27.351,-23.043,-27.904,-22.545,-29.696,-14.517
62.245,62.74,67.999,71.657,68.077,72.175,70.386,81.222
230.774,231.388,239.893,243.977,237.952,244.543,248.867,256.432
389.329,387.847,400.322,405.578,396.317,406.121,412.668,421.688
443.971,440.655,455.501,461.045,451.043,461.483,468.163,477.943
415.972,411.241,426.888,428.922,423.739,429.245,437.85,442.608
371.571,366.519,382.156,379.02,382.185,379.245,388.754,386.492
324.151,320.49,335.283,329.537,338.667,329.683,337.179,331.133
275.84,271.744,285.543,279.201,289.263,279.278,286.112,279.291
252.642,244.402,257.835,251.246,259.033,251.168,259.221,253.206
254.664,243.096,256.274,250.347,255.531,250.072,257.314,255.693
242.098,232.139,243.695,240.055,242.433,239.85,244.189,249.47
195.147,190.237,198.65,197.567,197.038,197.724,199.615,205.64
145.44,144.191,150.858,149.391,149.429,149.793,151.744,149.862
129.703,127.203,135.487,131.549,134.599,131.796,136.206,128.456
137.061,130.723,141.313,137.882,140.234,137.757,142.548,137.768
126.602,119.658,130.092,130.046,129.085,129.784,130.297,131.095
89.363,85.378,93.74,94.468,94.382,94.422,91.112,93.366
58.43,56.422,62.562,60.391,64.915,60.54,58.791,59.134
55.416,54.244,57.17,53.257,58.699,53.323,55.52,53.628
64.009,64.847,62.655,60.047,61.252,60.002,63.22,60.276
60.226,62.669,56.437,54.914,53.404,55.068,56.611,54.702
43.698,45.6,39.254,37.62,37.505,38.065,38.798,39.742
34.142,34.706,30.529,29.935,30.755,30.24,32.061,35.238
53.767,53.232,51.001,51.961,51.444,51.815,55.669,58.227
111.888,109.548,109.648,109.941,109.111,109.712,115.645,115.921
180.914,175.967,180.446,178.636,179.753,178.751,185.063,185.121
212.846,206.655,215.69,212.47,215.821,212.616,217.371,220.841
204.727,200.043,209.061,205.032,209.541,204.722,208.17,215.219
195.764,193.894,198.288,193.944,198.23,193.494,195.95,202.138
200.88,201.158,202.699,198.605,202.252,198.63,199.153,200.938
207.151,207.677,211.605,207.118,211.419,207.416,206.662,205.725
212.406,210.47,218.519,212.155,218.332,212.024,212.481,212.824
220.331,215.16,225.595,217.291,224.598,216.66,219.04,222.428
222.213,216.246,228.172,220.329,226.649,219.808,222.287,227.508
210.358,204.621,218.763,213.115,217.998,213.053,215.056,219.776
191.915,184.894,201.049,196.018,201.479,196.166,200.052,202.638
179.535,172.529,189.041,183.309,189.687,183.421,190.56,191.118
179.252,175.43,191.611,186.888,191.691,187.05,195.072,196.073
185.254,183.891,200.943,198.002,200.998,198.319,204.761,208.746
184.132,182.504,201.015,197.564,201.788,197.883,203.763,208.845
172.799,170.876,188.457,183.342,189.693,183.449,190.729,192.941
164.873,164.082,177.134,172.348,178.284,172.358,180.309,180.485
172.59,173.219,180.566,178.081,181.704,178.35,184.55,186.114
196.863,198.353,201.285,200.904,202.893,201.456,204.603,207.495
234.1,235.335,236.01,235.768,238.43,236.205,236.909,239.729
276.016,275.046,276.802,274.716,279.641,274.804,275.151,278.187
310.524,306.825,312.35,309.469,314.379,309.547,310.948,313.988
331.758,328.086,337.008,337.169,337.506,337.74,338.061,339.894
338.444,337.476,348.844,353.531,348.725,354.51,350.879,351.45
325.784,327.176,340.887,347.153,341.496,348.058,342.725,343.309
292.09,294.268,309.274,313.795,310.701,314.478,312.639,314.304
247.991,249.123,265.31,267.47,266.728,267.983,270.587,273.134
206.796,204.797,224.523,225.169,225.288,225.49,229.236,231.827
168.652,163.699,187.256,187.142,187.042,187.393,190.055,192.655
125.212,120.487,144.177,144.405,142.742,144.787,146.167,149.354
79.224,77.042,98.549,100.715,95.628,101.309,100.619,104.985
45.402,44.737,66.002,70.706,61.92,71.506,67.639,74.105
27.527,26.901,51.106,56.558,47.511,57.461,51.685,60.116
11.219,11.201,40.173,43.216,38.2,44.1,40.209,47.848
-14.74,-13.518,18.58,18.299,16.66,19.121,20.207,24.166
-44.272,-42.647,-13.646,-14.888,-17.232,-14.268,-7.793,-7.353
-66.004,-65.148,-43.775,-44.39,-47.649,-44.1,-33.536,-33.926
-81.789,-82.258,-64.701,-65.899,-66.731,-65.639,-53.291,-51.938
-103.503,-104.54,-84.401,-87.317,-84.977,-86.655,-75.032,-71.97
-131.81,-132.083,-108.543,-112.502,-109.238,-111.543,-101.897,-99.312
-155.371,-155.436,-130.444,-134.273,-131.687,-133.435,-126.24,-125.388
-170.912,-172.519,-146.514,-149.952,-147.946,-149.226,-144.269,-145.264
-184.716,-187.437,-161.104,-164.68,-162.641,-163.788,-158.966,-161.787
-199.108,-200.613,-175.367,-179.252,-177.104,-178.389,-171.628,-174.866
-210.603,-210.63,-186.093,-190.223,-187.599,-189.734,-181.444,-183.262
-214.984,-215.935,-190.254,-195.44,-190.584,-194.983,-186.47,-186.996
-210.985,-213.368,-187.194,-194.032,-186.675,-193.166,-184.33,-185.288
-203.584,-205.568,-182.099,-189.714,-182.765,-188.752,-178.933,-181.678
-202.594,-204.9,-184.053,-191.58,-186.308,-190.891,-180.556,-184.358
-213.633,-218.778,-196.179,-203.429,-197.838,-202.79,-192.794,-195.837
-229.884,-237.108,-210.487,-216.835,-210.624,-216.036,-206.731,-208.824
-240.313,-245.959,-218.264,-222.982,-218.397,-222.124,-214.488,-216.998
-244.524,-247.516,-223.025,-226.382,-224.144,-225.475,-220.736,-224.123
-247.9,-252.178,-232.201,-235.699,-233.962,-234.605,-232.054,-234.43
-249.909,-258.456,-241.692,-246.317,-244.35,-245,-243.198,-242.18
-248.587,-258.02,-243.156,-247.15,-247.532,-245.829,-245.653,-241.135
-247.756,-253.7,-239.133,-240.875,-244.521,-239.961,-242.791,-236.569
-252.622,-255.525,-238.88,-240.853,-243.087,-240.491,-244.604,-238.451
-260.84,-262.35,-244.277,-249.248,-246.473,-249.052,-251.626,-246.537
-263.355,-262.943,-247.895,-253.833,-249.75,-253.394,-255.021,-251.464
-257.174,-255.017,-244.956,-248.432,-248.04,-247.768,-251.199,-249.744
-250.094,-248.431,-240.565,-241.948,-244.463,-241.166,-246.591,-247.13
-248.834,-248.57,-240.497,-241.885,-244.692,-240.92,-246.572,-246.769
-249.86,-248.968,-240.851,-242.357,-246.232,-241.344,-246.803,-244.181
-245.777,-242.415,-234.034,-235.219,-241.002,-234.529,-239.861,-235.684
-235.351,-230.245,-219.905,-221.966,-227.262,-221.599,-226.122,-223.639
-222.09,-216.803,-203.558,-208.086,-210.384,-207.655,-211.179,-211.049
-205.64,-200.982,-185.392,-191.873,-191.806,-191.211,-194.574,-194.81
-180.898,-178.15,-160.565,-166.255,-166.45,-165.527,-169.839,-168.189
-149.278,-149.536,-130.518,-134.331,-135.557,-133.713,-138.885,-135.382
-125.293,-126.928,-108.003,-112.475,-112.735,-111.945,-116.666,-114.02
-120.663,-121.815,-102.296,-109.169,-107.561,-108.561,-112.911,-112.324
-126.266,-128.454,-105.739,-113.497,-111.461,-112.911,-118.522,-119.371
-125.073,-129.63,-104.586,-111.796,-110.003,-111.54,-118.506,-122.182
-115.334,-119.576,-95.782,-102.655,-100.371,-102.522,-109.698,-116.203
-103.932,-104.998,-83.678,-90.254,-87.718,-89.762,-97.759,-102.655
-92.22,-90.919,-71.25,-76.785,-75.838,-76.119,-85.9,-87.284
-83.347,-80.821,-62.827,-66.791,-68.439,-66.495,-76.344,-77.102
-83.207,-77.822,-62.519,-64.995,-67.891,-65.012,-72.976,-73.03
-87.793,-78.759,-66.736,-68.008,-70.797,-67.831,-75.037,-72.073
-86.845,-76.801,-67.21,-67.792,-70.662,-67.327,-75.562,-73.345
-77.704,-69.032,-60.111,-60.932,-63.612,-60.519,-68.779,-73.082
-66.078,-58.106,-49.577,-51.376,-52.643,-51.007,-57.208,-66.565
-57.144,-48.369,-42.552,-45.027,-45.112,-44.375,-48.602,-57.847
-51.521,-42.717,-40.875,-42.972,-43.765,-42.157,-45.841,-52.853
-48.549,-42.233,-41.467,-42.644,-44.884,-42.047,-45.593,-50.086
-47.434,-44.343,-41.607,-42.113,-44.551,-41.654,-44.879,-46.856
-46.338,-44.556,-40.697,-40.642,-42.354,-40,-43.782,-44.831
-43.689,-41.801,-38.686,-37.983,-39.423,-37.16,-43.02,-44.847
-38.688,-37.388,-34.982,-33.938,-35.617,-33.245,-41.836,-43.375
-33.397,-33.579,-31.267,-29.948,-31.977,-29.669,-40.622,-39.684
-33.93,-35.362,-32.864,-31.088,-33.1,-31.13,-43.158,-40.414
-44.631,-46.204,-43.425,-42.444,-42.7,-42.378,-52.91,-51.131
-63.002,-62.709,-60.425,-61.877,-59.207,-61.474,-68.195,-68.503
-81.734,-78.021,-77.009,-80.138,-76.296,-79.564,-82.557,-84.319
-94.929,-88.538,-88.298,-91.472,-88.208,-90.88,-91.797,-94.489
-103.09,-96.236,-96.541,-99.671,-96.585,-99.043,-99.181,-101.821
-110.788,-105.702,-106.912,-109.6,-107.073,-109.03,-109.393,-110.121
-119.711,-117.62,-118.957,-119.593,-119.182,-119.24,-121.35,-120.443
-127.773,-127.461,-127.945,-126.486,-127.885,-126.202,-131.094,-131.887
-133.887,-132.359,-132.05,-130.222,-131.949,-129.658,-136.242,-138.694
-138.301,-133.625,-133.258,-132.217,-133.588,-131.396,-137.275,-136.933
-141.196,-133.491,-134.457,-135.155,-134.85,-134.515,-137.705,-136.461
-144.737,-134.985,-138.604,-141.276,-138.526,-141,-141.181,-145.973
-151.06,-141.424,-147.994,-150.478,-147.913,-150.29,-150.199,-158.868
-158.532,-152.287,-160.449,-161.24,-160.995,-161.036,-163.643,-169.124
-164.703,-162.459,-168.989,-169.195,-169.9,-169.185,-173.757,-176.976
-169.781,-168.668,-171.274,-171.619,-172.352,-171.715,-176.706,-181.225
-175.343,-173.878,-173.408,-174.253,-174.721,-174.128,-178.603,-183.272
-181.588,-180.57,-178.338,-181.151,-178.874,-180.788,-180.749,-185.147
-185.869,-183.991,-180.807,-185.593,-179.311,-185.169,-177.323,-183.616
-184.851,-179.624,-178.774,-182.546,-176.484,-182.066,-170.87,-177.172
-179.212,-172.186,-176.496,-175.937,-176.394,-175.261,-167.029,-166.315
-175.586,-170.312,-175.593,-170.871,-178.059,-169.965,-162.659,-153.719
-181.258,-177.702,-179.091,-174.714,-181.827,-173.805,-163.95,-159.131
-193.519,-189.405,-192.442,-192.312,-195.061,-191.652,-185.751,-193.983
-200.791,-194.922,-207.286,-209.985,-211.176,-209.572,-213.247,-223.79
-199.587,-192.228,-208.813,-211.176,-213.047,-210.951,-216.054,-217.43
-198.07,-191.065,-200.27,-202.029,-202.655,-202.05,-200.275,-196.724
-200.839,-195.878,-195.584,-196.466,-196.413,-196.657,-193.445,-191.5
-203.55,-200.237,-197.034,-195.617,-198.37,-195.755,-198.304,-199.272
-201.362,-198.531,-196.464,-194.501,-199.855,-194.617,-197.558,-203.509
-194.243,-190.879,-189.663,-191.148,-194.414,-191.557,-183.519,-195.336
-182.969,-179.512,-179.214,-184.762,-181.383,-185.66,-167.494,-176.126
-164.638,-165.063,-167.753,-171.736,-165.62,-172.867,-161.342,-149.349
-142.801,-150.204,-159.055,-153.862,-157.907,-154.738,-159.395,-127.096
-136.571,-148.522,-162.249,-149.798,-166.208,-150.387,-159.838,-139.963
-155.723,-168.467,-178.303,-170.261,-182.292,-170.807,-176.73,-192.132
-176.58,-187.136,-189.025,-189.467,-186.631,-189.736,-202.358,-231.742
-173.902,-177.378,-181.711,-181.634,-176.708,-181.384,-204.447,-221.18
-156.478,-152.928,-168.166,-161.885,-169.163,-161.55,-179.435,-185.626
-143.033,-145.636,-161.273,-157.073,-167.451,-157.295,-162.464,-164.543
-133.573,-155.085,-158.994,-165.809,-163.851,-166.737,-173.248,-165.69
-123.344,-156.11,-155.302,-165.228,-159.862,-166.283,-183.854,-168.561
-116.787,-140.483,-146.708,-146.53,-155.148,-147.105,-163.148,-153.724
-116.416,-122.555,-134.569,-130.055,-143.331,-130.535,-133.101,-131.124
-115.261,-113.424,-124.818,-129.483,-127.683,-130.526,-135.438,-125.554
-108.322,-111.478,-122.795,-132.185,-123.992,-133.621,-163.073,-138.373
-98.898,-112.887,-127.508,-132.81,-137.194,-134.284,-179.625,-149.998
-89.265,-113.95,-125.09,-133.49,-139.926,-135.025,-173.545,-141.492
-80.027,-106.027,-104.625,-120.719,-112.044,-122.219,-151.989,-104.02
-75.214,-87.538,-84.719,-94.579,-87.154,-95.66,-128.069,-66.715
-74.407,-73.128,-88.661,-82.412,-98.734,-83.028,-124.589,-78.901
-70.325,-70.13,-101.677,-91.869,-119.243,-92.788,-142.344,-123.564
-58.387,-65.612,-92.238,-92.643,-107.669,-94.459,-143.632,-127.776
-40.809,-51.447,-59.452,-62.003,-69.764,-63.979,-105.831,-74.794
-25.706,-35.877,-32.77,-23.702,-43.226,-24.876,-61.944,-25.767
-21.685,-26.549,-30.42,-18.111,-45.025,-18.963,-51.072,-26.643
-28.82,-26.389,-39.117,-43.837,-55.308,-45.453,-61.401,-53.671
-38.606,-37.95,-44.311,-65.453,-59.561,-67.703,-68.802,-69.653
-41.573,-51.756,-47.904,-65.533,-63.33,-67.48,-79.848,-73.588
-31.925,-46.997,-45.158,-50.042,-59.503,-51.467,-89.042,-64.882
-11.17,-19.114,-24.756,-23.963,-34.963,-25.216,-68.043,-28.238
9.622,10.588,2.707,4.724,-5.289,3.688,-27.955,17.971
19.419,21.244,12.513,16.945,2.05,16.281,-13.473,24.69
21.629,16.986,5.913,7.287,-5.809,6.633,-24.567,-8.757
30.122,20.442,10.933,2.535,4.377,1.638,-16.698,-17.586
47.691,42.14,35.978,26.003,35.41,25.372,19.105,29.632
60.047,64.652,55.331,57.256,52.559,57.291,45.279,76.134
60.171,70.728,55.026,65.199,44.117,65.478,48.534,73.423
62.844,71.081,55.749,59.836,41.107,59.845,52.762,57.197
79.508,81.91,72.186,67.076,60.818,66.773,64.918,67.065
99.939,100.395,93.179,87.452,86.318,87.048,76.299,87.405
114.402,120.184,111.271,112.584,107.207,112.379,94.954,103.919
128.766,142.022,128.563,138.151,125.166,138.282,121.476,118.156
149.821,164.242,143.953,155.151,137.325,155.269,140.139,124.389
175.814,184.368,162.828,167.103,151.102,166.825,159.4,138.029
201.53,205.696,193.659,193.531,179.756,193.146,199.317,183.132
224.478,230.919,228.89,233.029,215.809,232.891,243.516,235.797
245.126,255.587,253.95,260.378,242.158,260.017,262.714,253.949
262.548,274.014,268.507,268.553,258.786,267.497,265.559,248.144
276.389,287.383,282.858,276.059,276.76,274.886,280.043,258.66
289.754,301.047,300.195,294.073,296.573,293.558,308.406,288.6
302.465,314.55,313.538,313.229,309.095,313.151,330.406,310.049
306.837,319.549,315.989,318.919,310.481,318.573,332.669,309.921
298.097,311.784,307.794,308.86,303.616,308.208,321.017,298.351
285.404,299.546,297.152,296.444,294.384,296.17,311.254,290.024
281.968,293.486,292.751,294.118,290.096,294.668,310.348,289.628
288.61,295.547,294.656,298.605,292.981,299.47,310.752,290.851
297.591,302.723,297.87,300.317,298.071,300.582,306.432,288.388
304.617,312.605,300.604,298.704,300.485,298.171,303.379,285.633
310.255,322.985,305.2,301.242,302.011,300.513,309.493,288.862
316.309,331.509,314.159,311.509,308.334,311.081,323.388,299.259
320.375,334.019,321.813,319.12,316.142,319.099,331.607,306.517
310.236,320.129,310.977,304.436,307.326,304.979,315.212,290.871
276.344,283.323,273.294,263.606,271.411,264.757,272.542,247.308
232.504,239.174,228.485,220.279,227.625,221.559,228.32,200.02
200.845,208.82,198.605,193.493,198.506,194.386,201.341,170.29
176.777,185.709,173.755,169.733,173.284,170.344,178.849,146.403
130.171,139.832,124.765,121.065,122.035,121.922,133.529,100.966
40.662,51.132,36.944,34.1,31.828,35.43,50.146,19.117
-72.29,-62.375,-71.707,-74.871,-77.217,-73.396,-57.254,-86.796
-162.217,-155.368,-161.261,-167.004,-165.395,-165.709,-149.928,-180.039
-206.149,-203.191,-208.995,-217.335,-211.851,-216.16,-201.407,-232.169
-218.617,-216.729,-224.778,-233.207,-227.694,-231.944,-218.081,-246.955
-216.967,-213.779,-224.928,-232.052,-228.6,-230.471,-218.1,-244.373
-212.56,-210.538,-222.121,-228.502,-226.207,-226.491,-216.85,-243.257
-222.654,-224.22,-233.209,-238.679,-237.376,-236.556,-229.703,-258.116
-251.62,-253.638,-262.25,-266.302,-265.934,-264.483,-259.551,-287.675
-274.457,-272.281,-284.847,-288.932,-287.135,-287.35,-283.625,-308.871
-266.069,-259.323,-276.185,-282.357,-277.676,-280.751,-275.614,-301.539
-235.6,-226.941,-245.883,-254.297,-248.858,-252.727,-241.042,-275.588
-211.136,-202.451,-222.856,-232.85,-228.076,-231.557,-210.991,-256.656
-202.888,-195.928,-216.132,-227.944,-221.409,-226.894,-200.889,-251.3
-199.498,-197.745,-211.325,-224.675,-214.294,-223.559,-196.518,-244.707
-190.131,-194.65,-198.31,-211.223,-198.674,-209.898,-184.023,-229.561
-179.087,-184.731,-186.298,-197.176,-184.976,-195.772,-173.08,-219.396
-178.21,-180.527,-188.748,-198.309,-186.665,-196.896,-178.638,-226.765
-187.358,-189.195,-202.215,-211.753,-199.948,-210.245,-195.159,-242.474
-195.359,-199.802,-212.367,-221.346,-210.183,-219.739,-205.733,-250.445
-201.121,-204.179,-216.69,-223.973,-214.829,-222.424,-208.422,-252.196
-214.106,-211.68,-225.462,-231.562,-224.069,-230.122,-216.591,-260.935
-235.094,-230.135,-242.651,-249.161,-241.793,-247.701,-235.683,-279.608
-255.461,-252.399,-260.812,-268.277,-260.509,-266.733,-256.235,-298.929
-269.619,-268.968,-273.061,-280.243,-273.204,-278.659,-269.213,-311.439
-275.123,-275.322,-277.808,-283.621,-278.422,-281.946,-273.986,-316.34
-271.484,-270.989,-276.017,-281.543,-276.75,-279.632,-273.718,-315.835
-265.771,-265.358,-273.021,-280.952,-272.744,-278.818,-272.586,-314.751
-267.494,-269.903,-275.564,-287.301,-273.862,-285.227,-273.868,-317.37
-274.808,-279.992,-282.186,-294.992,-280.221,-293.193,-276.567,-320.998
-276.351,-281.921,-284.884,-294.409,-284.048,-292.701,-277.282,-319.927
-270.03,-274.722,-281.767,-288.041,-282.256,-286.113,-276.042,-315.576
-266.933,-269.371,-279.38,-285.768,-279.812,-283.664,-276.418,-314.474
-271.48,-269.451,-280.898,-287.698,-279.403,-285.677,-279.232,-316.959
-275.264,-268.148,-282.269,-287.424,-278.58,-285.526,-281.567,-318.094
-275.264,-265.725,-283.384,-287.99,-279.1,-286.166,-283.873,-319.382
-281.158,-274.211,-292.424,-299.483,-288.842,-297.875,-292.468,-328.662
-299.698,-298.825,-313.659,-323.491,-310.466,-322.187,-311.63,-348.196
-323.38,-327.387,-338.434,-349.122,-334.918,-347.881,-335.199,-369.647
-340.659,-346.025,-354.437,-364.277,-350.648,-362.816,-351.061,-382.367
-347.694,-352.687,-358.337,-365.9,-354.648,-364.275,-354.287,-383.642
-345.197,-350.201,-353.945,-358.415,-350.501,-356.822,-349.633,-377.697
-333.927,-340,-344.084,-347.443,-340.599,-345.896,-341.809,-367.93
-316.933,-324.108,-329.991,-335.723,-326.11,-334.184,-330.485,-354.73
-300.436,-306.48,-314.839,-322.451,-310.958,-320.986,-315.617,-338.918
-288.938,-291.947,-302.384,-307.417,-298.956,-306.127,-301.511,-323.837
-281.468,-282.716,-293.124,-294.113,-289.361,-293.02,-292.395,-313.307
-274.561,-277.102,-284.43,-285.185,-279.376,-284.202,-286.521,-306.893
-265.268,-271.383,-273.357,-277.13,-267.537,-276.27,-277.48,-298.25
-252.061,-260.775,-259.237,-264.429,-253.761,-263.745,-262.39,-282.115
-236.966,-244.069,-244.177,-247.362,-239.264,-246.688,-245.63,-261.844
-223.598,-227.019,-230.15,-231.045,-225.441,-230.379,-231.58,-245.093
-210.508,-212.222,-215.458,-216.254,-210.69,-215.841,-217.439,-232.198
-191.94,-193.191,-196.221,-197.226,-191.445,-196.851,-197.437,-215.002
-168.487,-168.983,-174.197,-173.93,-169.703,-173.185,-173.742,-191.662
-149.361,-149.9,-157.988,-156.331,-153.751,-155.449,-156.258,-172.395
-139.838,-141.159,-150.911,-148.308,-146.543,-147.704,-148.243,-162.485
-135.056,-136.864,-145.862,-141.588,-141.021,-141.115,-141.944,-154.262
-128.075,-130.481,-136.579,-130.866,-130.673,-130.246,-131.437,-142.074
-118.37,-121.406,-125.443,-120.624,-117.96,-120.032,-119.708,-130.082
-111.464,-113.636,-117.52,-114.772,-109.242,-114.554,-111.287,-122.266
-108.389,-107.937,-111.386,-109.361,-103.943,-109.459,-104.672,-115.343
-102.021,-98.957,-101.722,-99.635,-95.8,-99.638,-95.883,-105.25
-89.976,-85.728,-90.218,-88.653,-85.258,-88.353,-85.957,-94.41
-78.152,-74.067,-82.332,-81.008,-77.349,-80.555,-78.257,-86.31
-68.76,-65.911,-76.141,-74.101,-70.191,-73.749,-71.575,-78.643
-58.289,-57.397,-66.427,-62.993,-59.698,-62.983,-61.615,-67.065
-46.115,-46.348,-53.465,-47.782,-47.223,-48.156,-47.398,-51.314
-35.29,-34.654,-40.624,-32.843,-34.642,-33.306,-33.009,-36.399
-26.514,-24.706,-29.446,-21.576,-21.912,-21.887,-21.866,-26.539
-17.136,-16.613,-19.486,-12.748,-9.91,-13.061,-12.58,-18.426
-5.385,-8.156,-9.497,-2.636,1.268,-3.21,-3.324,-7.823
6.037,1.924,0.675,8.515,12.664,7.683,4.319,2.076
12.893,11.718,9.537,16.059,23.181,15.116,10.357,9.064
14.662,17.352,15.175,18.047,29.057,17.074,18.018,16.388
12.605,15.355,15.12,16.473,26.302,15.544,25.688,22.261
8.826,9.185,10.615,14.248,17.806,13.4,29.02,23.104
8.641,9.487,9.679,15.78,14.863,14.815,31.174,24.691
14.67,19.301,16.602,23.295,22.565,21.947,37.416,32.837
21.406,28.009,25.336,32.17,33.222,30.634,44.915,42.545
24.186,28.667,30.661,38.059,40.503,36.875,49.12,48.25
27.67,28.968,35.236,43.322,46.397,42.635,52.632,53.282
35.57,34.456,40.062,48.53,51.268,48.009,58.102,59.894
41.032,36.398,40.231,48.42,50.978,47.807,61.213,62.282
39.093,29.574,35.756,43.295,46.742,42.481,59.431,58.083
36.193,24.741,33.794,41.166,45.413,40.094,57.621,54.149
37.666,30.462,36.779,45.145,48.369,44.024,59.689,55.959
40.064,39.929,40.339,50.503,51.075,49.597,63.624,61.437
40.267,43.67,41.811,53.399,51.547,52.614,65.533,65.75
40.124,41.41,41.947,54.156,51.191,53.317,63.539,66.618
41.95,39.297,42.365,54.4,52.565,53.455,59.139,65.405
46.211,41.903,44.272,55.277,56.884,54.066,55.898,64.761
51.81,48.028,46.635,57.702,59.936,56.092,56.558,66.496
56.939,55.151,49.432,63.535,59.895,61.663,61.963,71.799
61.214,63.091,55.46,72.895,63.63,71.034,69.987,79.516
65.052,69.065,62.323,79.395,71.824,77.628,74.918,84.165
66.708,68.311,63.133,77.12,74.436,75.258,72.96,81.676
63.679,62.567,57.898,70.753,68.702,68.813,67.118,75.169
57.616,57.901,52.76,66.726,62.941,64.966,62.262,70.587
53.517,55.851,50.613,63.358,61.544,61.721,59.681,70.112
53.267,54.731,50.051,59.225,60.832,57.624,58.887,71.26
55.527,54.268,50.155,56.528,59.677,55.177,59.397,71.113
59.02,54.262,50.972,54.821,60.816,53.604,60.126,70.263
61.773,54.725,51.478,53.887,62.745,52.328,60.674,71.052
63.054,56.986,50.813,55.684,62.123,53.77,61.339,73.313
62.892,59.093,49.194,58.11,59.791,56.221,61.092,74.13
59.036,56.713,48.384,57.685,59.681,55.835,60.223,73.157
53.454,52.85,51.644,57.73,64.618,55.615,62.353,74.814
52.241,54.28,57.865,62.74,70.747,60.367,68.083,80.834
54.292,58.381,60.528,68.976,70.892,66.735,71.932,86.02
54.609,58.137,57.898,70.249,66.508,68.504,70.942,86.229
54.421,54.892,55.694,67.554,65.583,66.308,69.616,84.425
56.364,53.436,56.762,65.95,69.156,64.798,70.84,83.951
58.52,52.688,57.517,66.127,71.519,64.665,70.386,82.143
60.045,50.719,56.846,64.768,72.081,62.958,66.092,77.34
63.044,49.254,58.123,61.142,74.743,59.073,62.609,74.298
66.313,48.888,60.324,58.108,76.218,55.736,63.798,75.941
67.136,48.136,59.265,57.479,70.885,54.951,68.315,79.24
67.425,46.413,57.177,58.657,64.909,56.379,72.681,82.035
69.548,45.145,58.736,61.051,66.86,59.122,74.925,85.131
70.915,46.962,61.51,64.77,71.915,62.909,74.813,88.099
69.524,52.551,60.784,69.105,72.051,67.262,72.693,89.139
69.644,59.933,59.007,72.951,70.561,71.384,70.88,88.719
74.85,66.872,61.33,76.157,73.42,74.812,72.173,89.447
78.967,69.65,64.52,77.037,75.792,75.41,74.404,91.483
73.296,63.369,61.409,72.928,70.645,70.85,72.94,91.932
60.168,49.628,53.752,65.235,62.178,63.173,67.619,89.001
48.76,37.069,48.083,57.245,56.918,55.403,61.013,83.599
43.047,31.68,46.001,51.429,54.344,49.551,55.938,79.455
42.762,33.832,47.172,51.638,54.274,49.805,56.633,80.96
47.262,40.526,51.886,58.542,58.771,56.998,63.446,86.878
52.374,45.165,57.042,65.221,64.859,63.862,68.596,90.01
51.322,41.983,56.514,64.219,65.165,63.001,64.407,85.393
43.275,32.965,48.863,56.168,57.597,55.104,53.762,76.486
34.718,25.165,41.053,48.589,49.068,47.254,47.043,71.223
30.146,22.707,39.505,46.86,46.005,44.891,48.325,71.994
28.653,25.184,42.28,49.424,47.331,47.113,51.873,74.781
27.516,28.819,43.823,51.814,49.049,49.549,52.026,76.206
24.197,27.614,41.556,50.892,48.664,48.562,48.251,74.067
19.206,19.448,36.829,46.267,45.6,43.619,43.62,67.451
16.216,10.8,33.01,41.249,41.888,38.435,42.052,60.779
16.535,9.026,31.669,38.862,40.147,36.171,42.521,58.578
16.921,10.858,30.394,36.841,39.406,34.257,40.084,58.214
15.288,9.494,27.82,34.266,37.613,31.842,36.113,56.813
15.016,9.04,27.525,36.338,37.178,34.426,36.993,57.317
19.152,15.945,31.217,42.75,40.468,41.4,41.681,61.04
25.215,24.686,34.327,44.734,43.232,43.447,43.716,64.591
29.847,26.425,33.62,40.325,41.172,38.736,42.613,65.752
31.997,22.278,31.644,37.173,37.488,35.572,41.302,64.617
29.967,18.532,30.653,38.646,36.438,37.419,38.863,61.531
22.921,16.469,29.593,39.73,37.18,38.626,34.222,57.753
16.24,15.564,29.22,37.673,38.976,36.216,31.251,57.224
18.293,19.601,33.56,38.728,43.956,36.979,35.41,64.291
30.152,30.338,43.636,48.274,52.285,46.556,46.407,76.716
44.154,42.979,54.978,61.001,60.804,59.233,57.836,87.144
54.779,53.52,64.178,71.102,67.831,69.009,66.297,93.821
64.534,62.906,73.86,81.712,76.871,79.327,75.579,101.464
77.074,73.182,88.51,96.051,92.951,93.68,89.531,113.686
92.128,84.662,107.813,111.616,114.848,109.505,106.823,130.843
107.333,96.256,125.47,124.709,133.659,122.787,122.914,148.734
120.434,107.604,136.115,133.526,142.762,131.575,133.816,159.639
130.795,119.027,142.698,140.004,147.319,138.052,140.042,162.561
137.544,128.443,149.844,147.139,154.777,145.407,145.2,164.905
140.286,134.276,155.232,153.299,162.62,151.828,149.725,169.937
144.862,141.315,158.549,157.619,168.702,156.149,152.928,175.591
158.06,155.387,166.965,166.611,178.492,164.917,159.887,185.042
176.612,172.865,181.815,183.916,191.47,182.123,175.819,202.688
190.433,184.184,193.68,200.346,199.184,198.65,193.374,220.696
194.697,187.781,196.513,205.788,199.862,204.176,199.158,226.039
194.806,191.517,196.031,204.351,200.217,202.88,195.274,221.838
199.225,200.272,200.406,206.704,205.05,205.487,196.956,224.423
208.244,209.43,208.956,214.452,212.415,213.28,207.718,237.082
214.922,212.269,215.298,221.543,217.996,220.151,216.925,246.483
218.633,211.575,218.739,225.855,221.742,224.195,221.385,248.073
226.396,216.691,224.604,231.579,227.359,229.653,228.369,252.16
238.089,227.502,234.168,240.033,236.093,238.07,238.504,262.111
246.075,234.872,244.071,246.753,247.052,245.092,245.299,270.056
249.28,237.63,254.034,251.161,260.643,249.653,249.38,274.642
252.147,242.602,264.087,257.699,272.638,255.928,257.042,282.533
253.899,248.999,269.222,264.526,274.598,262.557,266.705,292.765
252.006,249.662,267.462,265.502,268.787,263.754,269.918,296.714
250.946,246.699,265.573,263.791,267.185,262.371,265.955,294.187
255.647,249.012,268.589,267.717,272.14,266.389,263.484,295.469
262.549,257.105,273.382,276.988,275.881,275.586,267.238,306.173
265.996,263.527,276.093,284.261,276.218,282.75,272.36,316.637
263.603,261.36,274.034,282.773,273.954,281.164,270.893,310.97
253.153,247.932,262.851,270.222,263.379,268.669,259.526,288.662
231.945,224.674,239.066,247.628,238.193,246.415,238.155,260.897
196.795,191.222,200.874,212.655,197.858,211.907,202.83,225.707
149.226,147.543,152.775,165.428,150.079,164.959,154.1,177.984
104.172,105.111,111.246,121.866,111.098,121.347,110.389,135.066
82.416,83.41,93.509,104.25,94.476,103.415,94.669,120.192
91.677,92.787,102.769,117.566,101.896,116.346,109.825,133.299
122.411,126.116,130.614,147.286,128.142,145.973,140.552,158.804
161.852,168.635,168.056,180.866,167.396,179.969,174.846,189.699
200.98,208.96,207.077,215.168,210.244,214.813,208.789,225.483
228.755,237.423,235.59,242.088,240.764,241.838,234.765,254.856
238.97,248.434,246.124,251.457,250.315,250.903,245.405,265.062
240.567,248.476,247.373,248.938,249.781,248.013,247.211,263.489
244.633,248.305,251.577,249.496,252.915,248.228,251.531,266.479
249.729,249.737,257.748,256.29,258.372,254.803,257.245,274.849
251.003,250.445,259.772,261.04,260.253,259.677,257.401,278.831
252.349,253.245,260.084,260.345,261.701,259.375,254.026,276.963
257.615,259.821,263.05,258.985,266.124,258.29,253.135,274.694
258.967,262.913,263.364,257.916,266.138,257.173,252.411,271.165
249.903,256.013,255.239,252.66,256.089,251.754,245.965,262.365
240.516,246.591,245.811,246.152,245.706,245.226,236.705,253.479
241.792,246.922,243.962,246.818,244.399,245.95,232.6,252.539
246.866,254.265,245.951,252.87,245.787,251.99,234.861,256.913
244.043,254.611,244.502,254.766,241.99,253.943,238.126,259.381
235.963,245.399,240.284,251.178,236.443,250.671,238.53,259.207
232.063,238.993,237.332,249.024,234.216,248.857,236.699,258.438
231.901,241.301,235.877,250.097,233.893,249.883,233.85,256.145
230.641,245.041,234.468,249.993,233.223,249.512,230.271,252.488
230.672,245.481,233.572,247.452,232.628,247.061,227.694,250.743
233.375,243.871,231.939,243.646,230.273,243.635,226.159,250.117
233.24,240.497,226.692,238.307,223.837,238.385,222.657,245.782
228.592,236.834,220.626,233.323,217.988,233.14,218.046,238.962
223.956,234.347,218.742,230.956,217.975,230.542,216.282,235.358
220.991,230.656,218.868,228.529,219.819,228.082,215.952,234.63
217.799,225.507,216.046,223.225,217.3,222.875,212.464,232.154
212.763,220.825,209.921,216.05,210.048,215.836,205.435,226.431
204.033,213.587,202.647,207.957,200.997,207.932,197.632,218.662
193.109,202.549,196.856,200.231,194.327,200.517,191.553,211.114
186.915,195.189,194.769,195.866,193.001,196.398,188.709,206.681
187.434,195.214,194.434,194.474,193.925,194.837,187.956,205.222
187.013,194.517,190.972,191.453,190.77,191.428,185.545,202.677
180.722,186.626,183.569,185.05,182.495,185.062,179.587,196.627
173.18,177.153,176.822,179.158,174.678,179.551,172.719,189.833
168.946,174.49,173.889,177.127,171.444,177.56,168.426,185.863
164.729,176.113,170.836,175.008,168.661,175.197,165.018,182.436
154.21,170.825,160.304,165.006,158.148,165.184,156.196,173.25
137.759,153.999,142.053,146.863,139.455,147.13,140.176,157.712
124.22,133.857,125.663,129.697,122.745,129.909,123.594,142.523
118.214,120.18,117.252,119.716,114.485,119.972,112.26,131.64
110.747,111.456,110.009,112.103,107.287,112.529,103.094,121.321
94.248,100.441,96.471,99.929,93.127,100.451,90.307,107.598
77.403,88.33,80.47,85.311,76.419,86.051,74.911,92.962
70.994,80.874,68.342,74.137,64.444,75.216,62.039,81.408
72.52,77.533,60.19,67.11,56.89,68.205,53.694,72.977
72.523,74.425,53.703,61.564,50.425,62.473,48.343,66.151
65.041,69.133,47.191,54.487,43.872,55.423,43.475,59.603
52.439,61.672,40.316,44.783,37.914,45.731,38.065,52.729
41.642,55.006,34.838,35.86,33.749,36.556,33.003,46.573
34.358,50.314,31.928,30.945,31.283,31.437,29.026,42.084
28.744,45.436,30.859,29.16,29.289,29.731,27.205,39.935
26.702,40.03,30.74,28.753,27.628,29.599,28.063,40.404
27.595,34.249,29.5,27.202,25.993,28.414,27.87,40.004
24.188,26.679,23.674,21.749,21.414,23.123,22.124,34.228
14.668,19.392,13.508,14.6,12.207,15.615,12.169,24.817
6.895,15.987,5.11,10.543,3.167,10.995,3.943,17.617
7.599,16.994,5.675,11.758,2.745,12.019,3.592,16.988
16.565,24.506,17.24,19.856,14.28,20.251,13.841,25.401
28.121,38.173,32.621,33.045,30.073,33.465,28.77,39.402
35.049,47.478,40.412,42.249,37.661,42.516,36.962,48.511
35.68,45.513,37.852,41.986,34.113,42.186,34.681,47.363
34.303,40.152,32.413,37.596,27.731,37.857,28.332,41.515
33.76,40.103,29.665,34.969,24.704,35.228,23.714,37.184
33.503,43.758,28.611,34.174,23.524,34.373,21.701,34.875
33.871,46.186,28.739,34.976,23.252,35.208,22.535,34.438
38.302,48.17,33.098,39.358,27.493,39.763,27.22,38.082
49.304,55.359,42.762,47.643,37.508,48.356,35.393,46.269
62.664,68.346,52.68,56.188,47.43,57.165,44.3,55.269
71.099,78.617,56.33,59.863,50.543,60.757,49.813,60.313
73.463,80.42,53.925,57.103,48.074,57.733,50.24,60.025
73.208,77.834,51.258,51.831,46.422,52.461,48.107,57.086
70.807,74.433,50.598,48.368,47.197,49.045,45.958,54.228
65.206,68.776,49.709,46.561,47.011,46.988,43.968,51.715
59.051,62.381,48.337,45.077,45.182,45.474,42.529,49.895
56.647,60.216,48.69,46.126,44.892,47.032,43.228,50.981
59.306,64.388,52.536,52.628,48.907,53.961,47.564,56.614
65.592,72.659,60.439,62.301,57.106,63.65,55.336,65.051
72.587,79.587,69.628,69.079,65.716,70.265,62.891,71.51
77.787,81.801,76.232,72.333,71.45,73.226,67.253,74.383
84.079,85.303,82.736,79.45,77.778,80.1,72.804,80.122
97.058,98.475,95.084,94.652,90.304,95.352,85.612,94.136
114.585,117.058,111.842,111.64,106.722,112.364,102.758,110.72
127.882,129.344,125.665,123.119,119.801,123.623,116.076,121.594
135.909,136.236,135.937,132.139,129.595,132.54,124.857,128.98
148.375,149.953,150.643,147.359,144.106,147.874,137.383,141.649
168.149,171.752,171.644,168.588,164.935,169.072,156.78,160.317
184.48,188.992,188.26,185.323,181.647,185.596,173.869,175.469
193.277,196.819,194.551,192.843,188.401,193.122,183.037,183.463
203.895,203.875,199.338,198.465,193.454,198.979,191.514,192.482
215.568,212.469,206.846,205.167,200.471,205.725,201.232,203.63
213.905,213.192,206.512,204.136,199.305,204.431,201.225,204.432
200.621,206.429,195.917,193.766,188.705,193.82,189.944,192.801
196.955,207.884,191.409,189.08,184.984,189.248,184.237,186.067
209.247,221.492,202.031,198.513,195.761,199.155,194.413,194.263
220.519,229.931,215.623,209.671,208.746,210.692,209.239,206.062
221.973,225.285,221.96,212.82,214.965,213.57,217.161,211.923
223.515,221.639,226.392,216.436,219.754,216.484,222.501,218.107
228.988,226.386,233.308,226.606,226.736,226.468,229.893,228.227
228.427,228.275,236.512,232.966,230.29,233.426,232.345,232.386
217.662,219.959,230.562,225.633,225.567,226.541,224.28,223.235
205.232,208.85,219.206,210.707,215.179,211.343,212.33,208.296
197.656,201.316,208.64,199.229,204.57,199.631,204.225,197.953
192.024,193.82,200.007,192.059,195.943,192.833,197.91,191.453
185.434,184.74,192.624,185.278,188.867,186.396,189.855,183.824
179.493,179.084,187.165,179.198,182.758,180.223,182.153,176.239
175.588,179.467,183.827,176.293,177.672,177.189,177.534,172.44
174.127,183.623,182.459,177.682,174.539,178.371,176.423,172.879
173.059,185.446,180.622,179.507,171.642,179.529,175.747,173.083
164.878,175.493,171.068,172.26,162.141,171.725,167.622,164.636
142.022,148.991,146.944,148.681,139.212,148.511,144.585,140.6
103.892,109.469,107.364,108.592,101.049,109.254,105.167,100.007
56.461,61.966,57.585,57.495,51.906,58.463,54.377,48.542
9.467,13.597,7.931,6.534,2.114,7.204,3.097,-2.179
-27.216,-23.862,-31.197,-32.583,-37.616,-32.315,-36.934,-40.849
-51.179,-45.76,-57.095,-57.683,-64.719,-57.606,-62.254,-65.391
-68.659,-60.639,-74.034,-75.061,-83.23,-74.845,-78.02,-81.56
-84.323,-76.721,-85.743,-88.675,-95.987,-88.177,-89.264,-93.707
-98.671,-94.056,-94.466,-99.081,-104.545,-98.572,-98.222,-103.473
-114.088,-111.429,-103.912,-109.755,-112.857,-109.471,-107.91,-114.156
-129.467,-126.84,-114.399,-122.443,-122.51,-122.145,-119.03,-126.753
-136.498,-133.878,-120.041,-131.276,-128.457,-130.674,-126.737,-135.957
-133.589,-130.685,-118.799,-132.374,-128.199,-131.624,-128.362,-138.307
-130.53,-126.822,-117.209,-131.061,-127.812,-130.523,-128.347,-138.215
-133.691,-132.072,-120.957,-133.916,-132.926,-133.681,-131.861,-141.726
-140.19,-144.077,-128.727,-141.644,-141.666,-141.625,-139.149,-149.693
-145.857,-153.173,-135.538,-149.51,-148.414,-149.664,-146.161,-157.591
-148.717,-154.711,-138.446,-151.917,-150.818,-151.966,-148.903,-160.333
-148.827,-151.631,-139.441,-149.463,-152.039,-149.049,-148.451,-158.626
-148.445,-148.044,-141.318,-147.715,-154.518,-147.079,-149.033,-157.515
-148.001,-144.296,-142.258,-147.568,-154.824,-147.283,-150.51,-157.738
-145.945,-139.435,-139.946,-145.282,-150.59,-145.336,-149.449,-156.213
-143.944,-135.944,-137.502,-141.57,-146.995,-141.36,-146.905,-154.163
-145.042,-137.002,-139.046,-141.901,-148.987,-141.139,-147.079,-155.395
-147.811,-139.804,-142.954,-146.872,-153.356,-146.009,-149.381,-158.225
-147.526,-138.105,-143.861,-149.02,-153.849,-148.513,-148.738,-157.159
-142.762,-131.784,-139.612,-143.412,-149.016,-143.079,-143.422,-151.356
-136.916,-126.015,-133.366,-134.981,-142.328,-134.446,-136.92,-145.013
-133.312,-122.127,-129.891,-131.13,-138.351,-130.377,-133.075,-141.735
-133.448,-120.086,-132.101,-134.099,-140.098,-133.298,-133.77,-143.189
-137.852,-124.588,-139.177,-141.827,-146.744,-140.977,-138.834,-149.477
-144.773,-136.006,-146.839,-150.808,-153.685,-149.816,-145.775,-157.997
-151.208,-145.606,-151.035,-157.782,-156.889,-156.732,-151.43,-164.497
-155.931,-148.034,-150.983,-160.576,-156.065,-159.653,-154.045,-166.718
-158.289,-146.217,-147.857,-158.636,-152.499,-157.832,-153.013,-165.38
-155.98,-143.271,-142.385,-152.928,-146.36,-151.979,-148.407,-161.34
-148.729,-139.504,-136.057,-144.4,-139.447,-143.033,-141.963,-155.154
-141.646,-135.54,-131.565,-136.069,-135.51,-134.417,-136.814,-149.603
-139.561,-133.276,-129.588,-135.357,-134.432,-133.999,-134.965,-148.023
-140.506,-132.752,-128.726,-143.176,-133.584,-142.463,-134.88,-149.36
-139.093,-131.003,-128.132,-148.366,-133.033,-148.075,-133.098,-149.402
-133.834,-127.17,-127.313,-145.305,-132.922,-145.189,-129.004,-146.455
-128.617,-124.71,-125.942,-140.748,-132.092,-140.729,-125.382,-141.969
-128.741,-126.545,-125.569,-139.136,-132.113,-138.918,-124.726,-138.929
-134.769,-131.216,-127.771,-138.463,-134.875,-137.721,-127.331,-140.137
-139.66,-133.41,-130.011,-136.872,-136.684,-135.797,-131.082,-143.183
-136.419,-128.945,-128.931,-133.741,-133.989,-132.92,-132.162,-141.657
-127.829,-120.423,-126.447,-129.275,-131.01,-128.915,-128.253,-134.488
-120.838,-113.614,-125.143,-124.22,-131.024,-123.811,-121.232,-126.759
-114.095,-107.982,-122.009,-117.978,-128.893,-117.102,-114.485,-121.233
-102.583,-99.381,-114.6,-110.711,-121.478,-109.723,-108.963,-116.728
-90.885,-90.847,-106.593,-105.89,-113.257,-105.23,-104.248,-113.318
-86.929,-87.394,-100.812,-104.433,-106.759,-103.987,-99.615,-111.638
-87.069,-85.065,-94.423,-100.85,-99.286,-100.407,-93.097,-108.978
-84.733,-80.791,-86.989,-93.601,-91.85,-93.187,-85.411,-103.754
-85.212,-82.346,-85.048,-91.033,-91.097,-90.574,-82.366,-100.733
-94.55,-94.412,-91.912,-98.558,-98.566,-97.812,-87.178,-104.793
-106.415,-108.899,-101.759,-110.481,-107.508,-109.531,-95.672,-114.151
-112.017,-117.052,-108.526,-118.925,-113.023,-118.197,-102.383,-123.035
-112.272,-118.923,-112.025,-121.743,-116.527,-121.31,-105.569,-127.094
-114.173,-119.803,-114.286,-122.023,-120.108,-121.572,-106.581,-127.055
-122.102,-125.306,-117.709,-125.676,-124.345,-125.117,-109.381,-129.064
-135.986,-137.989,-126.024,-136.554,-131.392,-136.006,-118.628,-139.144
-152.88,-154.699,-140.99,-151.935,-144.128,-151.374,-134.965,-156.85
-170.594,-171.676,-160.845,-168.4,-163.106,-167.707,-155.31,-177.662
-189.16,-189.295,-182.308,-186.813,-185.015,-185.88,-176.226,-197.89
-204.601,-204.796,-200.003,-205.177,-202.771,-203.977,-193.735,-213.797
-211.984,-213.576,-211.152,-219.304,-213.246,-218.031,-206.158,-224.793
-215.413,-219.865,-219.638,-230.193,-220.928,-229.176,-216.128,-235.257
-220.107,-227.732,-226.842,-238.238,-227.59,-237.656,-224.063,-244.845
-223.144,-231.388,-229.529,-240.125,-231.043,-239.824,-227.094,-248.125
-222.237,-228.335,-229.476,-237.491,-233.374,-237.106,-226.331,-246.312
-220.365,-225.338,-230.579,-236.08,-236.217,-235.392,-225.788,-245.175
-219.489,-226.855,-231.325,-237.048,-236.328,-236.076,-225.876,-245.14
-220.62,-231.518,-230.4,-238.324,-233.716,-237.221,-225.478,-244.527
-226.845,-238.788,-231.628,-240.996,-233.843,-240.059,-227.369,-246.53
-239.44,-250.215,-238.431,-248.164,-239.916,-247.594,-235.44,-255.244
-254.058,-263.937,-248.692,-259.041,-249.345,-258.611,-247.837,-267.82
-263.729,-273.237,-256.692,-267.638,-257.048,-266.95,-257.291,-276.102
-265.038,-273.093,-257.877,-268.039,-258.93,-267.094,-257.676,-275.27
-258.616,-263.975,-250.532,-259.02,-252.18,-258.234,-247.721,-266.238
-244.889,-248.589,-235.349,-243.169,-236.283,-242.857,-230.702,-251.519
-226.216,-230.249,-216.024,-224.87,-215.45,-224.987,-212.599,-234.067
-207.751,-211.722,-196.905,-207.263,-195.476,-207.465,-196.638,-216.4
-187.474,-189.695,-176.226,-186.725,-174.902,-186.553,-178.092,-195.902
-155.113,-155.505,-145.325,-154.949,-143.621,-154.275,-148.386,-165.407
-107.716,-107.262,-100.615,-108.615,-98.134,-107.73,-104.412,-122.012
-53.887,-53.218,-49.016,-50.789,-47.789,-49.873,-51.215,-70.479
0.402,0.283,3.641,11.175,2.48,12.065,3.724,-16.262
53.292,50.911,53.878,63.601,52.578,64.215,54.628,36.592
96.488,92.274,93.85,97.192,94.705,97.5,95.176,80.425
124.589,119.964,121.243,118.11,124.15,118.347,122.756,109.909
147.591,140.987,144.376,137.393,145.989,137.508,146.909,132.699
175.148,164.153,169.715,160.549,166.217,160.533,177.585,159.832
200.931,187.259,194.643,186.41,187.833,186.639,207.646,188.006
215.76,203.432,212.35,206.979,206.964,207.55,224.092,205.463
221.253,211.436,220.122,215.075,216.797,215.597,227.2,209.848
222.169,212.518,221.535,212.088,218.893,212.366,225.205,207.599
219.503,208.283,220.886,205.117,219.64,205.395,221.762,203.038
215.356,204.402,219.9,201.024,220.447,201.499,217.585,197.929
213.759,205.757,219.992,202.897,220.375,203.475,216.088,195.864
215.667,209.87,222.673,208.282,221.476,208.824,219.723,199.124
217.913,211.508,226.463,211.253,224.574,211.715,224.299,203.819
217.084,210.489,228.309,209.691,226.555,209.974,224.577,204.865
213.808,210.285,228.41,208.419,226.068,208.406,222.852,203.509
211.423,210.393,228.496,210.653,225.126,210.517,223.871,203.675
211.063,207.806,227.526,212.426,224.221,212.553,225.637,204.834
210.135,202.844,222.824,209.646,220.808,210.095,222.818,203.337
205.246,195.559,213.149,202.574,212.63,202.98,214.684,197.106
196.441,184.604,200.093,192.625,200.247,192.715,204.399,186.911
187.282,173.112,187.605,181.802,186.721,181.621,194.294,175.663
180.296,166.678,179.085,173.273,175.996,172.981,185.208,167.004
174.497,164.931,174.271,168.437,170.007,168.212,177.675,162.223
168.109,161.505,170.036,165.251,166.555,165.211,171.652,158.72
161.407,153.21,164.104,160.55,161.487,160.7,166.149,153.509
155.637,143.803,157.116,153.844,153.78,154.211,160.562,147.305
150.701,137.62,151.428,148.137,146.929,148.715,156.069,142.9
145.916,135.293,148.549,145.712,144.431,146.275,153.974,140.956
142.497,135.201,147.882,144.765,145.565,145.085,153.435,139.992
140.764,133.795,146.693,141.559,145.787,141.755,152.34,138.121
137.063,127.893,141.99,134.841,141.3,135.267,149.193,133.918
128.744,119.444,133.544,126.783,132.78,127.527,142.889,127.568
117.833,112.551,123.18,119.265,122.75,120.04,132.727,119.737
108.1,106.811,112.292,111.382,111.965,112.016,120.667,110.438
101.891,99.318,102.545,101.943,101.655,102.498,110.604,100.961
98.994,91.2,96.521,93.246,95.281,93.676,104.056,93.756
97.475,86.586,94.415,88.809,93.233,89.09,99.504,89.556
95.655,85.349,92.552,87.365,90.817,87.724,95.496,87.144
92.8,82.872,88.219,84.805,85.642,85.294,91.288,84.761
87.463,76.596,81.731,79.431,79.114,79.738,85.092,79.702
77.907,67.284,72.888,70.868,70.479,70.869,75.325,69.192
65.627,56.927,61.463,59.237,58.753,59.173,63.469,54.377
55.203,48.947,50.081,47.182,47.289,47.265,52.434,40.824
49.693,45.177,41.676,38.193,39.594,38.429,43.068,32.393
46.709,42.165,35.38,32.448,33.845,32.686,34.928,27.198
41.948,36.752,29.6,27.9,27.658,28.127,29.292,22.371
36.273,31.696,26.492,24.85,24.199,25.236,28.254,19.155
32.023,28.896,26.582,23.806,24.858,24.2,29.866,18.487
27.243,25.45,25.249,21.883,24.248,21.971,28.748,16.61
21.176,21.113,20.701,17.774,20.169,17.767,23.788,11.194
16.572,17.765,16.37,14.16,16.563,14.511,18.775,5.336
13.072,13.416,13.407,11.48,14.193,12.275,15.136,1.335
7.529,6.671,9.261,6.992,9.665,7.982,10.502,-2.981
-0.693,-1.78,1.875,-1.11,1.423,-0.244,2.092,-10.808
-10.932,-13.286,-9.24,-13.297,-10.026,-12.606,-10.986,-22.666
-21.872,-26.295,-22.127,-27.351,-22.898,-26.619,-25.599,-35.35
-30.893,-36.555,-33.493,-39.282,-34.255,-38.596,-37.649,-45.79
-38.203,-45.473,-43.028,-49.145,-43.188,-48.861,-47.669,-55.28
-46.317,-54.896,-52.491,-58.949,-51.542,-59.031,-57.562,-65.719
-54.747,-61.382,-61.834,-66.768,-61.106,-66.788,-66.041,-75.229
-61.535,-64.413,-69.668,-70.795,-71.158,-70.518,-71.837,-81.36
-68.251,-69.222,-76.075,-74.767,-79.526,-74.401,-76.316,-85.251
-77.817,-79.064,-83.197,-82.849,-86.854,-82.63,-81.696,-90.804
-88.458,-90.409,-91.804,-92.975,-95.24,-92.791,-89.085,-99.782
-96.425,-97.92,-100.34,-100.905,-103.9,-100.678,-98.253,-109.134
-102.597,-102.929,-108.944,-107.338,-111.654,-107.309,-108.618,-115.956
-109.241,-109.998,-118.786,-115.367,-119.605,-115.566,-119.272,-122.259
-115.828,-118.618,-128.464,-124.811,-128.782,-124.894,-128.747,-131.49
-122.166,-126.443,-135.288,-133.238,-137.067,-133.01,-135.652,-142.167
-128.274,-132.224,-137.527,-138.443,-139.611,-138.019,-138.831,-148.491
-132.106,-134.482,-136.448,-140.276,-136.017,-139.847,-139.593,-149.386
-133.866,-136.167,-137.317,-143.241,-134.001,-142.84,-143.114,-152.084
-137.203,-142.525,-143.427,-151.37,-139.455,-150.796,-151.149,-161.051
-141.851,-150.728,-150.557,-160.009,-148.091,-159.209,-157.373,-169.79
-143.088,-153.207,-153.008,-161.865,-152.331,-161.156,-157.059,-171.115
-140.603,-150.332,-151.319,-158.006,-151.116,-157.514,-153.528,-167.568
-140.192,-150.796,-150.11,-154.714,-149.474,-154.102,-151.103,-164.911
-144.469,-158.304,-151.399,-154.318,-150.52,-153.402,-149.951,-163.685
-149.109,-164.851,-152.539,-154.78,-151.285,-153.848,-148.927,-162.035
-152.339,-164.87,-152.781,-156.486,-150.675,-155.882,-149.874,-162.12
-159.035,-166.157,-157.581,-163.201,-155.159,-162.958,-156.711,-168.341
-169.989,-174.653,-169.413,-173.693,-167.772,-173.509,-168.668,-179.233
-177.077,-182.042,-181.405,-180.79,-180.588,-180.327,-179.654,-188.062
-175.517,-181.034,-187.259,-182.337,-186.276,-181.61,-186.102,-191.733
-171.721,-178.045,-189.051,-183.38,-187.443,-182.652,-189.078,-192.486
-172.696,-180.56,-190.826,-186.059,-189.346,-185.474,-189.901,-192.989
-176.779,-185.608,-192.28,-187.15,-191.47,-186.727,-189.311,-193.941
-179.457,-187.04,-191.382,-185.379,-190.072,-185.148,-188.692,-194.409
-181.053,-185.708,-189.353,-184.134,-185.957,-184.05,-189.467,-194.142
-184.996,-187.708,-190.38,-187.014,-185.718,-186.823,-192.443,-195.641
-191.05,-193.942,-195.815,-193.788,-192.478,-193.286,-197.356,-201.005
-195.766,-198.841,-202.773,-201.741,-201.57,-201.172,-203.225,-208.404
-199.975,-201.792,-210.134,-209.772,-209.594,-209.515,-210.448,-215.927
-207.426,-208.644,-219.751,-219.335,-218.45,-219.262,-220.395,-225.115
-216.657,-219.6,-230.017,-230.029,-227.27,-229.828,-231.196,-235.822
-222.126,-226.541,-234.666,-236.764,-230.164,-236.619,-237.362,-242.844
-223.424,-226.294,-232.761,-237.444,-227.238,-237.657,-237.223,-243.766
-227.44,-228.719,-233.469,-239.072,-228.649,-239.395,-237.017,-244.414
-237.576,-242.052,-242.1,-247.006,-238.721,-247.118,-241.802,-249.836
-248.381,-259.07,-251.361,-256.668,-248.226,-256.756,-248.293,-257.358
-254.965,-269.1,-254.239,-262.288,-249.83,-262.568,-251.773,-262.325
-257.803,-270.688,-252.724,-263.269,-246.955,-263.576,-252.156,-262.849
-258.649,-267.656,-251.418,-261.365,-245.424,-261.419,-251.249,-259.939
-258.32,-263.857,-251.615,-259.212,-245.737,-258.852,-250.418,-257.352
-256.4,-261.127,-252.291,-259.416,-245.583,-258.662,-251.072,-258.061
-254.523,-260.175,-254.385,-262.371,-247.029,-261.513,-253.855,-260.965
-257.45,-263.838,-260.499,-267.054,-254.121,-266.52,-258.017,-264.387
-264.695,-272.983,-269.216,-272.243,-264.271,-272.194,-263.274,-269.257
-269.817,-281.191,-275.397,-275.626,-270.907,-275.808,-269.791,-275.624
-271.42,-283.111,-277.564,-276.346,-273.127,-276.48,-275.661,-280.831
-272.59,-281.278,-278.096,-276.46,-273.965,-276.522,-277.566,-282.5
-271.639,-277.639,-275.774,-275.3,-271.481,-275.288,-273.678,-279.472
-265.783,-270.521,-267.791,-269.7,-262.887,-269.515,-265.259,-271.966
-258.348,-261.185,-257.6,-261.326,-253.164,-260.955,-256.409,-262.804
-252.063,-251.026,-249.82,-253.872,-247.128,-253.498,-249.631,-254.541
-243.765,-239.115,-242.781,-246.668,-241.101,-246.531,-243.183,-246.662
-232.551,-228.775,-234.049,-238.539,-231.36,-238.58,-235.743,-238.481
-222.916,-223.208,-224.873,-230.352,-220.692,-230.315,-227.763,-230.348
-216.793,-217.815,-216.552,-221.875,-212.614,-221.832,-218.503,-221.783
-211.375,-210.099,-209.995,-213.666,-207.408,-213.767,-209.516,-213.665
-205.831,-206.308,-207.268,-209.178,-204.969,-209.216,-206.119,-209.66
-202.318,-208.53,-207.792,-208.943,-205.005,-208.811,-208.355,-210.235
-199.593,-208.439,-206.72,-207.712,-204.347,-207.723,-208.739,-209.633
-195.281,-202.385,-202.229,-203.032,-200.464,-203.44,-204.226,-204.483
-192.238,-198.095,-198.811,-199.393,-196.396,-200.047,-200.651,-199.589
-192.416,-199.407,-199.735,-199.788,-196.838,-200.361,-202.238,-199.894
-192.299,-200.463,-202.936,-201.89,-201.628,-202.215,-206.22,-203.353
-190.613,-197.739,-205.025,-202.964,-205.674,-203.059,-208.437,-205.04
-190.733,-194.403,-204.432,-202.258,-204.541,-202.182,-207.227,-202.976
-193.701,-193.417,-201.761,-200.51,-199.555,-200.359,-203.303,-199.074
-195.428,-193.33,-198.041,-198.219,-194.577,-198.163,-198.263,-195.741
-192.623,-191.224,-192.953,-194.665,-189.688,-194.794,-192.544,-192.609
-189.627,-189.346,-188.084,-191.685,-184.813,-191.813,-187.285,-189.748
-193.138,-192.881,-187.651,-192.287,-183.751,-192.15,-184.867,-189.215
-200.399,-199.592,-191.11,-193.779,-186.579,-193.457,-184.385,-189.759
-203.133,-202.565,-192.838,-192.325,-187.616,-192.11,-183.201,-188.102
-199.668,-200.213,-190.814,-189.301,-184.746,-189.294,-182.158,-185.137
-193.986,-195.377,-187.636,-186.51,-180.721,-186.675,-183.173,-183.561
-189.663,-191.488,-185.746,-184.099,-177.592,-184.381,-185.57,-183.538
-188.308,-190.634,-186.508,-183.049,-177.503,-183.252,-187.771,-184.779
-189.2,-191.114,-190.231,-184.372,-182.848,-184.343,-189.175,-187.346
-190.901,-190.773,-195.146,-188.454,-190.752,-188.435,-189.953,-189.451
-192.875,-191.096,-198.691,-194.301,-194.895,-194.645,-191.138,-190.111
-193.949,-192.948,-199.98,-198.677,-194.431,-199.251,-193.099,-191.313
-192.722,-194.218,-199.263,-198.682,-192.963,-199.071,-193.504,-192.638
-191.09,-194.335,-196.829,-194.775,-191.372,-194.928,-191.409,-190.76
-191.803,-193.376,-194.424,-190.069,-189.39,-190.144,-190.524,-186.807
-191.619,-188.187,-193.636,-185.898,-188.607,-185.876,-191.934,-184.373
-186.076,-178.159,-192.625,-181.043,-188.885,-181.032,-190.748,-182.111
-180.204,-170.413,-189.867,-176.798,-188.126,-177.113,-185.724,-177.868
-182.779,-171.711,-188.867,-176.765,-187.409,-177.327,-182.941,-175.323
-193.345,-180.908,-194.085,-182.292,-190.818,-182.559,-187.21,-179.716
-203.809,-192,-204.038,-191.542,-199.121,-191.27,-196.318,-189.793
-208.749,-199.451,-212.787,-200.452,-208.224,-200.03,-204.655,-198.762
-209.262,-201.335,-217.483,-205.893,-214.378,-205.76,-210.135,-203.568
-208.109,-198.937,-218.405,-207.905,-215.037,-208.045,-214.1,-206.685
-206.463,-195.049,-215.084,-207.475,-208.516,-207.684,-216.073,-209.08
-205.413,-193.49,-209.393,-205.577,-199.947,-205.817,-213.955,-208.986
-205.313,-195.86,-206.084,-204.092,-198.47,-204.296,-208.328,-206.112
-206.194,-200.697,-206.852,-204.687,-204.236,-204.692,-203.499,-202.728
-208.082,-205.857,-207.785,-205.021,-207.477,-204.927,-201.3,-199.832
-208.156,-208.016,-204.085,-199.851,-202.176,-199.855,-197.672,-195.516
-204.893,-205.91,-197.631,-190.945,-193.993,-191.005,-191.79,-190.566
-201.188,-201.416,-194.168,-186.941,-190.237,-187.06,-188.562,-188.028
-196.724,-193.323,-192.268,-188.335,-187.753,-188.69,-187.585,-185.212
-187.46,-180.193,-185.652,-185.731,-179.871,-186.326,-182.762,-177.054
-174.032,-166.529,-175.125,-176.352,-169.32,-176.93,-173.253,-166.242
-161.642,-157.681,-166.887,-167.966,-162.877,-168.433,-164.688,-159.798
-154.293,-154.616,-162.042,-164.171,-159.367,-164.687,-160.856,-158.069
-152.527,-154.407,-157.22,-159.815,-153.967,-160.269,-159.407,-155.419
-153.389,-152.561,-151.897,-152.896,-148.09,-152.96,-155.543,-149.406
-153.338,-147.937,-148.393,-148.053,-146.025,-147.882,-148.936,-142.95
-151.848,-142.962,-147.198,-146.334,-146.931,-146.386,-144.079,-138.666
-149.776,-138.582,-145.601,-142.712,-145.672,-142.945,-142.283,-135.464
-146.92,-135.528,-141.733,-135.938,-140.158,-135.965,-140.168,-132.247
-143.917,-136.481,-139.146,-131.784,-136.082,-131.536,-137.236,-131.2
-143.137,-140.13,-142.141,-133.416,-139.879,-133.107,-136.275,-133.581
-144.474,-139.237,-146.974,-135.877,-146.691,-135.523,-136.684,-135.948
-143.574,-131.401,-146.125,-134.166,-145.663,-133.594,-134.907,-134.906
-138.724,-125.263,-140.006,-130.543,-136.914,-129.881,-130.718,-132.1
-133.638,-126.464,-134.713,-128.543,-129.71,-128.118,-126.981,-130.183
-130.201,-127.184,-131.576,-126.38,-126.785,-126.189,-124.193,-127.88
-127.853,-122.201,-128.851,-123.072,-124.628,-122.944,-121.312,-124.05
-127.671,-118.855,-127.72,-122.241,-123.34,-122.143,-119.624,-121.573
-128.636,-121.506,-128.829,-124.693,-124.573,-124.533,-120.553,-122.923
-126.879,-124.91,-129.499,-127.073,-126.073,-126.695,-122.838,-126.421
-122.138,-125.546,-127.716,-127.877,-124.657,-127.421,-124.249,-128.622
-118.376,-125.136,-124.157,-127.247,-120.366,-127.021,-123.377,-127.373
-116.619,-122.953,-119.471,-123.532,-114.822,-123.505,-119.533,-122.191
-112.931,-115.186,-113.097,-115.48,-108.646,-115.394,-113.521,-114.441
-105.749,-103.146,-105.649,-105.748,-102.218,-105.56,-107.462,-106.983
-98.967,-93.932,-99.129,-97.915,-96.225,-97.779,-101.786,-100.997
-95.956,-91.683,-94.226,-92.222,-91.027,-92.289,-95.621,-95.272
-94.691,-92.062,-89.479,-86.492,-86.179,-86.789,-89.733,-89.193
-90.498,-88.122,-84.272,-80.151,-81.609,-80.555,-85.875,-84.042
-84.017,-80.559,-81.647,-76.234,-79.96,-76.605,-85.412,-82.225
-81.289,-75.181,-83.493,-75.956,-82.567,-76.223,-87.728,-83.676
-82.921,-73.536,-85.259,-75.327,-84.406,-75.469,-88.776,-83.758
-83.829,-74.976,-83.336,-73.441,-82.071,-73.512,-86.076,-80.161
-83.406,-78.878,-80.883,-73.992,-79.751,-74.107,-82.824,-76.719
-82.845,-79.6,-78.663,-74.614,-78.383,-74.908,-80.846,-74.722
-80.121,-72.591,-72.535,-69.602,-72.925,-70.04,-76.511,-70.043
-75.447,-63.241,-63.438,-61.269,-63.935,-61.572,-68.722,-62.139
-70.22,-57.653,-55.847,-54.544,-55.908,-54.591,-60.791,-54.815
-62.301,-52.808,-49.322,-47.959,-48.493,-47.87,-53.242,-48.477
-52.051,-44.887,-42.43,-39.785,-40.937,-39.571,-45.147,-41.468
-44.934,-37.365,-37.625,-33.63,-36.112,-33.355,-39.676,-35.896
-42.107,-33.371,-36.049,-32.08,-34.714,-32.042,-40.077,-34.651
-39.428,-30.861,-36.058,-32.782,-34.983,-33.059,-43.867,-36.511
-36.208,-29.065,-37.187,-33.033,-36.916,-33.325,-45.523,-37.98
-33.522,-29.381,-37.856,-32.038,-38.605,-32.191,-42.499,-36.734
-28.571,-30.015,-33.794,-28.795,-34.822,-28.923,-35.979,-32.256
-18.352,-26.656,-23.333,-22.052,-23.889,-22.12,-27.064,-24.853
-5.672,-18.852,-10.162,-12.334,-10.352,-12.327,-16.338,-15.297
1.521,-11.394,-0.747,-3.167,-1.098,-3.287,-7.044,-6.297
-0.608,-7.129,1.193,1.182,0.555,0.938,-2.802,-1.39
-5.614,-4.439,-1.034,1.116,-1.544,0.993,-1.779,-0.081
-4.772,-2.619,-1.275,1.735,-1.193,1.855,0.698,1.931
2.597,0.166,2.467,6.474,3.092,6.761,5.24,6.822
11.36,8.952,8.319,14.619,8.877,14.906,10.043,13.458
19.498,21.856,15.104,24.11,15.087,24.318,15.98,21.648
27.784,29.585,23.072,33.267,22.369,33.416,24.499,32.143
33.218,30.456,31.067,40.51,29.625,40.529,33.341,42.116
33.755,33.021,38.202,46.226,36.492,46.081,39.985,47.913
34.966,41.99,46.119,53.087,45.226,52.938,46.353,51.989
41.198,52.45,54.25,60.932,54.269,60.815,54.541,58.97
49.467,59.427,60.261,67.19,60.159,66.968,62.892,68.154
56.865,63.006,65.68,71.908,65.248,71.589,69.425,75.693
62.879,64.141,71.991,75.494,71.905,75.128,74.048,79.533
66.366,64.215,77.244,77.16,77.675,76.713,77.644,80.746
67.363,65.364,80.646,77.947,81.452,77.59,80.733,82.059
67.671,66.949,82.218,78.689,83.45,78.643,81.946,83.971
68.919,67.674,80.835,78.295,82.361,78.425,80.273,84.651
73.967,71.222,79.406,78.954,80.962,79.055,79.493,85.554
85.914,82.281,84.401,85.752,85.924,85.869,85.028,91.207
101.31,98.889,95.323,97.609,96.711,97.714,95.098,100.871
112.105,114.604,104.841,108.45,105.75,108.468,103.08,108.998
118.779,126.036,112.566,118.698,112.912,118.898,110.316,116.436
128.576,134.816,124.384,132.793,124.578,133.269,123.481,129.155
139.82,142.995,137.938,147.835,138.146,148.076,139.584,145.363
146.396,150.761,147.054,159.035,146.901,158.718,150.601,158.174
151.402,158.47,154.4,168.407,153.794,167.821,157.639,167.222
159.58,166.774,163.487,177.82,162.717,177.165,165.645,175.81
168.455,176.007,170.576,185.234,169.314,184.369,173.624,184.002
175.646,185.893,173.753,190.59,171.197,189.618,178.844,190.408
182.201,193.215,177.146,195.867,173.494,195.231,182.354,195.221
187.464,193.543,183.308,201.622,180.011,201.417,187.09,200.502
189.902,189.959,190.136,207.427,188.108,207.24,194.582,208.139
190.021,190.696,195.238,212.345,193.699,211.904,203.22,216.676
188.898,194.537,199.217,215.529,197.241,214.909,209.727,222.789
189.374,196.081,205.676,219.381,203.886,218.656,214.472,227.266
197.404,201.93,218.212,228.602,217.942,227.946,221.815,235.237
214.073,219.212,234.762,243.235,236,242.997,232.463,248.026
230.328,238.65,247.769,257.168,248.765,257.25,241.441,259.732
238.877,248.654,254.041,266.106,253.599,265.949,246.596,265.448
243.466,253.53,258.244,271.737,257.254,271.223,252.027,268.215
250.975,264.507,264.753,277.026,264.278,276.557,261.052,274.694
264.805,282.708,274.838,284.919,274.613,284.649,273.404,287.72
284.756,299.652,289.469,298.897,289.13,298.652,289.497,305.457
307.496,311.296,308.692,318.758,308.603,318.524,310.809,325.922
330.296,323.732,330.908,341.273,331.398,341.087,335.711,348.432
350.447,341.694,351.824,363.092,352.58,362.731,358.079,369.229
362.83,360.47,366.03,380.21,366.25,379.571,372.383,382.277
366.893,373.927,373.564,390.515,372.717,389.948,379.617,387.884
369.648,382.376,379.601,395.513,378.347,395.251,385.187,392.935
376.215,389.721,386.706,398.311,386.349,397.994,391.757,400.222
383.665,396.427,392.232,401.08,392.887,400.377,397.225,405.362
388.119,399.515,393.855,403.356,394.403,402.56,399.478,405.632
391.496,399.498,393.619,404.286,393.667,403.798,398.979,404.065
394.151,397.42,392.701,403.358,393.133,403.095,395.294,402.506
391.449,389.895,388.549,399.391,389.898,399.012,387.471,398.701
384.438,379.86,382.086,394.531,383.378,393.879,379.255,393.13
379.921,377.628,378.35,392.827,378.212,392.099,375.759,389.835
378.722,383.373,378.035,392.407,376.593,392.072,375.474,389.014
376.702,386.531,377.544,388.621,376.29,388.897,373.66,387.161
373.909,382.05,375.729,382.418,375.474,382.832,370.675,383.379
371.689,373.073,372.959,376.527,373.274,376.441,368.49,378.513
366.321,362.773,367.102,368.89,367.889,368.339,364.322,371.273
356.176,353.197,357.717,358.08,359.483,357.59,356.571,361.361
346.697,346.32,349.244,348.008,351.725,347.842,349.223,352.247
341.557,341.694,344.861,342.118,347.071,342.182,345.163,347.14
339.772,338.518,343.813,340.515,345.417,340.67,343.667,346.275
339.249,336.55,343.584,340.846,345.149,340.829,342.759,346.863
336.234,332.814,339.842,338.254,341.84,337.731,339.187,344.134
328.718,325.364,330.496,331.138,332.712,330.23,331.643,336.81
319.62,317.376,319.447,323.707,321.36,322.947,323.224,328.767
312.571,312.635,311.618,318.667,313.066,318.326,316.925,322.697
308.615,310.367,308.116,314.67,309.529,314.51,312.527,317.822
306.853,306.849,307.112,311.071,308.995,310.707,308.875,313.495
305.414,301.783,305.89,308.585,308.026,307.967,305.404,309.49
302.708,298.687,302.975,305.751,304.679,305.207,301.7,304.705
298.481,297.796,298.873,299.07,300.085,298.75,297.169,298.385
292.464,294.241,293.45,287.826,294.594,287.424,290.47,290.429
284.405,285.744,285.972,276.666,287.204,275.882,281.223,281.431
276.625,277.689,278.808,270.644,280.242,269.634,272.764,274.19
272.18,274.872,275.742,269.319,277.271,268.436,269.457,271.944
270.778,273.175,276.349,269.301,277.395,268.741,270.933,273.573
269.939,268.221,276.903,269.69,277.42,269.406,272.736,274.678
268.3,263.649,275.84,270.422,276.319,270.092,272.424,273.929
265.786,262.008,273.867,268.976,274.469,268.392,270.566,272.671
263.027,259.387,271.265,263.678,272.094,263.104,267.628,270.311
261.258,254.374,268.864,257.679,270.121,257.239,264.679,266.507
260.495,250.802,267.865,254.772,269.643,254.155,263.326,263.469
259.62,250.546,267.023,253.366,269.508,252.577,262.387,261.754
258.367,250.796,263.561,249.811,266.685,249.217,259.036,258.818
255.69,248.274,256.618,244.598,259.712,244.072,252.971,253.285
250.569,244.346,248.752,241.046,251.427,240.085,246.766,247.445
249.106,246.136,247.232,243.866,249.952,242.526,246.202,247.658
262.652,261.441,261.723,259.929,264.666,258.761,260.173,262.459
291.112,288.62,291.183,288.672,293.767,287.878,289.147,291.42
318.574,314.544,318.46,315.667,320.636,315.052,316.745,318.926
333.245,329.057,330.134,329.235,332.47,328.723,328.478,332.051
338.461,334.577,331.251,333.457,333.779,333.084,330.194,336.045
341.486,338.01,332.251,336.474,334.87,336.078,333.789,340.753
343.936,340.866,334.865,338.769,338.095,338.135,338.725,345.11
344.714,340.239,336.711,338.327,340.964,337.568,339.956,344.836
345.413,336.802,338.952,337.666,343.856,337.15,340.277,343.046
347.153,334.499,342.193,338.582,346.819,338.513,342.897,343.591
346.292,333.023,342.187,336.658,345.662,336.825,343.109,343.165
339.899,329.79,336.375,328.996,338.684,328.877,337.069,337.825
331.833,326.446,329.251,321.378,331.343,320.607,329.487,330.878
328.211,325.847,326.329,320.009,329.227,318.764,326.115,328.187
328.325,325.838,325.618,320.909,329.686,319.718,324.732,328.37
324.957,321.196,320.067,315.675,324.75,314.838,318.785,324.083
313.57,309.523,307.339,303.093,311.54,302.45,306.624,312.281
298.312,293.864,292.614,288.73,295.732,288.057,292.854,297.594
287.445,281.329,282.325,278.172,284.542,277.483,282.293,286.283
282.88,275.987,277.119,272.483,278.809,271.709,274.798,279.061
278.809,272.564,271.495,267.298,272.985,266.247,266.202,270.724
269.924,263.321,260.923,258.49,262.445,257.405,254.219,258.417
257.141,250.463,248.212,248.273,249.744,247.662,242.382,247.053
246.815,242.617,239.601,241.491,240.677,241.281,235.795,241.859
241.548,238.912,234.797,237.558,234.721,237.252,232.544,239.084
235.349,230.437,228.039,231.716,226.933,231.167,225.64,231.668
225.322,218.468,218.921,223.495,217.746,222.766,214.711,220.946
217.161,213.855,211.681,216.596,210.776,215.653,205.359,212.85
214.216,217.993,206.324,211.499,205.242,210.614,198.79,207.283
217.501,225.605,205.188,211.016,204.004,210.691,197.97,206.288
239.844,247.819,225.673,232.622,225.066,232.791,220.538,228.194
292.502,297.999,279.338,287.641,279.22,287.75,276.78,284.208
351.422,353.698,338.873,347.706,338.256,347.508,337.284,344.293
378.265,379.345,365.879,373.556,364.516,373.047,363.455,369.401
368.435,371.139,357.688,362.898,356.489,361.956,354.154,359.276
335.93,339.937,328.154,330.361,327.608,329.058,323.986,328.606
285.385,289.544,281.015,280.303,280.772,279.109,276.312,279.786
228.987,233.639,227.364,224.722,227.227,224.146,222.114,223.805
186.559,191.548,185.583,182.837,185.547,182.973,180.34,180.754
160.156,164.449,158.836,157.241,158.901,157.669,154.595,154.745
141.424,144.916,140.94,140.07,141.177,140.279,138.523,138.255
128.565,131.997,128.345,127.238,128.522,127.124,127.631,126.197
116.018,118.608,112.808,111.844,112.796,111.668,112.61,111.248
94.235,93.722,87.362,88.231,87.707,88.218,87.309,88.706
65.653,61.816,58.956,62.446,59.887,62.562,60.084,65.186
39.556,34.814,35.97,40.32,36.667,40.446,37.682,45.167
17.94,14.543,16.789,18.483,15.665,18.666,15.464,23.381
-0.858,-1.257,0.73,-3.904,-5.302,-3.686,-8.01,-1.049
-15.383,-11.946,-8.655,-21.397,-22.876,-21.478,-26.987,-20.875
-28.633,-24.035,-17.372,-36.203,-38.698,-36.667,-43.113,-36.792
-50.804,-50.363,-39.32,-59.85,-62.701,-60.084,-67.32,-60.65
-82.86,-89.221,-74.884,-93.704,-97.079,-93.247,-101.389,-94.867
-110.525,-120.957,-107.343,-123.398,-128.238,-122.83,-131.549,-124.841
-124.997,-133.57,-125.445,-139.532,-145.062,-139.683,-147.725,-140.682
-136.683,-139.396,-137.152,-150.942,-155.266,-151.587,-157.88,-151.728
-158.762,-157.623,-155.729,-170.99,-173.012,-171.317,-175.177,-171.023
-187.562,-187.281,-180.467,-198.096,-197.407,-197.958,-198.503,-196.051
-210.397,-211.824,-199.975,-219.08,-215.829,-218.867,-215.906,-214.193
-224.551,-225.939,-210.202,-229.238,-224.274,-229.153,-223.478,-222.074
-234.703,-236.13,-216.26,-235.129,-229.048,-235.294,-227.307,-226.999
-240.429,-242.263,-220.172,-239.937,-232.802,-240.473,-229.641,-231.688
-241.531,-243.08,-221.651,-242.582,-234.537,-243.252,-229.498,-233.659
-243.582,-245.248,-223.72,-244.872,-235.949,-245.243,-230.458,-234.985
-247.68,-250.391,-227.341,-247.919,-238.268,-247.85,-234.386,-238.794
-249.44,-252.442,-230.587,-250.34,-241.301,-249.9,-238.831,-244.1
-248.668,-250.38,-233.952,-251.865,-245.597,-251.092,-244.53,-249.792
-248.073,-248.356,-238.097,-252.907,-250.069,-252,-252.219,-255.522
-248.185,-248.24,-241.333,-253.964,-252.612,-253.307,-257.173,-258.971
-249.916,-250.235,-244.321,-256.952,-255.123,-256.696,-258.34,-259.828
-255.916,-255.861,-251.473,-264.547,-262.573,-264.571,-263.418,-263.858
-265.744,-264.779,-263.985,-276.553,-275.636,-276.8,-276.567,-274.99
-274.091,-272.43,-275.905,-287.24,-287.62,-287.641,-290.511,-287.282
-276.907,-275.438,-281.082,-290.62,-291.733,-290.952,-296.5,-292.612
-276.391,-276.22,-281.328,-288.945,-289.838,-288.982,-295.682,-292.367
-277.517,-278.891,-283.09,-289.892,-289.609,-289.579,-295.774,-294.125
-282.081,-282.495,-287.718,-295.239,-293.842,-294.739,-300.195,-299.625
-287.46,-283.578,-290.807,-299.518,-298.018,-298.995,-305.543,-303.716
-290.148,-284.466,-290.55,-300.02,-298.556,-299.493,-307.933,-303.908
-289.854,-288.892,-289.889,-299.58,-297.131,-299.193,-307.274,-302.868
-289.08,-293.058,-290.373,-299.595,-296.08,-299.556,-305.414,-302.15
-290.261,-293.254,-291.065,-299.375,-296.107,-299.536,-304.034,-301.293
-294.653,-294.563,-293.344,-300.995,-298.738,-301.121,-305.171,-302.062
-301.652,-302.295,-299.675,-306.596,-305.055,-306.808,-310.152,-306.843
-308.341,-312.693,-307.915,-312.838,-312.256,-313.226,-317.243,-313.805
-312.195,-319.116,-313.273,-314.982,-316.484,-315.182,-323.076,-318.858
-314.158,-320.84,-315.13,-314.045,-318.142,-313.789,-325.881,-321.039
-315.978,-320.102,-316.558,-314.268,-320.303,-313.947,-326.271,-321.917
-318.125,-318.478,-319.627,-317.359,-324.403,-317.449,-327.09,-323.11
-322.025,-319.091,-325.036,-322.95,-330.565,-323.256,-331.393,-326.696
-327.24,-323.556,-332.285,-330.13,-338.231,-330.148,-338.465,-333.099
-330.261,-328.724,-339.138,-336.799,-345.461,-336.563,-344.818,-339.385
-332.029,-332.895,-344.592,-341.57,-350.971,-341.633,-349.174,-343.829
-337.212,-338.295,-349.667,-345.47,-355.092,-345.978,-352.629,-347.911
-344.481,-344.21,-353.645,-348.743,-357.465,-349.094,-355.181,-351.792
-348.396,-347.565,-355.084,-350.643,-357.81,-350.404,-356.337,-354.202
-349.487,-350.32,-355.967,-353.077,-358.256,-352.595,-357.648,-356.438
-352.399,-355.838,-358.831,-357.342,-360.601,-357.048,-360.25,-360.301
-356.118,-360.101,-361.901,-360.485,-363.079,-360.269,-362.31,-363.968
-356.24,-357.449,-362.209,-360.577,-363.272,-360.243,-362.325,-364.607
-354.814,-352.744,-361.097,-359.881,-362.363,-359.638,-361.509,-363.061
-356.952,-354.597,-362.043,-360.385,-363.325,-360.492,-361.79,-362.166
-361.07,-359.773,-364.625,-361.027,-365.713,-361.315,-363.655,-362.247
-362.447,-359.993,-365.303,-360.403,-366.222,-360.473,-365.282,-361.72
-361.346,-357.043,-363.409,-359.314,-364.332,-359.102,-364.762,-360.49
-360.245,-356.453,-360.783,-358.584,-361.973,-358.41,-362.641,-359.373
-358.392,-356.796,-357.028,-356.811,-358.329,-356.889,-359.638,-357.623
-354.031,-354.786,-351.574,-353.004,-352.386,-353.196,-355.348,-354.208
-348.743,-351.681,-347.392,-349.029,-347.957,-349.065,-351.13,-350.506
-346.662,-350.958,-347.457,-347.871,-348.765,-347.652,-349.955,-349.201
-349.459,-353.943,-350.485,-350.227,-352.409,-349.868,-351.553,-350.431
-353.112,-357.61,-352.13,-352.535,-353.209,-352.151,-351.587,-350.851
-353.27,-357.704,-350.144,-350.976,-349.164,-350.642,-348.737,-348.793
-352.382,-355.76,-348.795,-348.416,-346.184,-348.162,-348.15,-348.229
-354.266,-356.449,-353.483,-350.849,-351.171,-350.578,-353.5,-352.69
-356.342,-357.799,-360.822,-356.616,-360.124,-356.312,-360.352,-358.302
-354.705,-354.586,-362.675,-357.854,-363.096,-357.649,-361.667,-358.712
-350.448,-348.564,-358.248,-352.888,-358.793,-352.703,-356.531,-353.832
-346.73,-345.597,-353.19,-348.277,-353.075,-347.864,-350.066,-349.189
-344.264,-346.353,-350.47,-347.898,-348.628,-347.266,-346.522,-348.071
-342.03,-346.036,-349.266,-348.69,-345.038,-348.079,-345.496,-347.967
-340.094,-342.466,-348.754,-347.885,-342.938,-347.479,-344.604,-345.905
-339.476,-340.203,-348.618,-347.078,-342.667,-346.926,-343.324,-343.388
-339.148,-342.108,-347.628,-347.144,-342.122,-347.146,-342.074,-342.213
-335.825,-342.551,-343.955,-344.714,-338.786,-344.629,-339.85,-340.122
-328.637,-336.536,-337.775,-337.878,-333.248,-337.489,-336.081,-335.433
-320.011,-326.867,-331.081,-329.843,-327.585,-329.14,-331.263,-330.037
-311.378,-317.067,-323.822,-322.759,-321.001,-321.891,-324.426,-324.325
-302.965,-306.459,-314.455,-314.102,-311.98,-313.236,-314.713,-315.892
-296.484,-295.595,-304.386,-302.727,-302.751,-302.125,-304.698,-305.438
-293.444,-289.085,-297.366,-293.165,-296.591,-292.998,-298.296,-298.016
-292.757,-288.704,-294.986,-289.719,-293.758,-289.657,-296.487,-296.222
-293.747,-290.168,-296.012,-290.69,-293.502,-290.272,-297.272,-297.171
-296.488,-289.61,-297.995,-291.476,-295.134,-290.796,-297.837,-297.229
-296.747,-286.792,-296.902,-288.891,-294.745,-288.39,-294.972,-294.545
-290.144,-282.932,-289.946,-282.381,-288.064,-282.114,-286.771,-288.296
-280.527,-279.298,-280.508,-274.463,-278.052,-274.035,-276.138,-279.905
-273.363,-274.736,-273.884,-268.141,-271.22,-267.353,-268.376,-271.969
-266.42,-266.187,-269.287,-263.031,-267.238,-262.177,-264.021,-264.894
-256.737,-254.816,-263.468,-257.214,-261.698,-256.683,-259.706,-258.307
-247.776,-245.671,-257.877,-251.591,-255.398,-251.428,-254.972,-253.415
-241.722,-239.773,-254.904,-247.62,-251.627,-247.474,-251.146,-250.26
-234.842,-234.284,-252.466,-243.619,-249.054,-243.175,-246.857,-246.236
-225.504,-228.975,-247.237,-237.745,-243.828,-237.102,-240.285,-239.654
-217.829,-225.523,-239.423,-231.02,-235.7,-230.437,-232.167,-231.561
-213.398,-222.327,-230.719,-223.892,-227.05,-223.452,-223.535,-222.754
-206.077,-213.838,-219.265,-213.135,-216.54,-212.745,-212.626,-211.386
-191.966,-197.905,-202.916,-197.367,-201.001,-196.922,-197.405,-196.419
-176.433,-180.571,-184.785,-180.934,-182.084,-180.482,-179.702,-180.345
-162.117,-165.117,-167.143,-165.5,-162.371,-165.132,-161.633,-163.941
-143.718,-145.687,-146.962,-146.805,-140.853,-146.524,-142.339,-144.742
-122.407,-122.716,-125.799,-126.248,-120.347,-126.043,-124.178,-125.501
-109.539,-109.051,-113.903,-113.835,-110.531,-113.573,-114.44,-115.079
-111.09,-110.121,-116.186,-113.995,-114.965,-113.424,-115.646,-116.308
-119.749,-115.069,-123.567,-118.581,-123.203,-117.632,-120.753,-121.069
-124.848,-114.526,-125.108,-117.995,-123.737,-116.874,-121.398,-120.983
-123.076,-110.592,-120.112,-112.307,-116.578,-111.417,-117.035,-116.535
-117.404,-107.147,-114.184,-107.356,-108.878,-107.059,-112.405,-112.296
-110.204,-103.521,-110.267,-104.037,-105.16,-104.221,-108.063,-108.469
-101.625,-97.878,-106.378,-98.219,-103.07,-98.383,-100.62,-102.272
-92.557,-90.298,-99.924,-89.432,-97.836,-89.348,-91.148,-93.938
-85.286,-83.054,-92.54,-82.037,-90.596,-81.849,-84.53,-86.372
-81.448,-78.985,-88.513,-78.988,-86.681,-78.712,-82.643,-81.866
-79.184,-77.413,-88.145,-78.86,-86.157,-78.412,-83.17,-80.698
-75.144,-74.453,-87.675,-78.558,-84.801,-78.029,-82.709,-80.62
-70.357,-69.148,-85.95,-77.057,-82.242,-76.577,-79.86,-78.909
-67.858,-63.866,-84.109,-74.872,-79.872,-74.543,-75.261,-75.121
-66.486,-60.379,-80.641,-71.338,-75.229,-71.121,-69.622,-70.03
-62.16,-58.862,-72.655,-64.416,-65.191,-63.961,-63.246,-63.347
-53.083,-57.165,-60.453,-53.691,-51.355,-52.817,-55.976,-54.578
-41.685,-51.599,-48.314,-42.861,-39.406,-41.848,-47.04,-44.798
-31.316,-41.523,-39.304,-35.123,-31.694,-34.253,-36.875,-36.177
-23.973,-32.207,-32.531,-29.386,-25.178,-28.793,-28.466,-30.535
-21.227,-28.831,-28.32,-25.973,-20.634,-25.813,-24.091,-27.961
-22.547,-29.429,-28.464,-26.775,-21.833,-26.925,-22.431,-26.979
-24.713,-30.124,-30.048,-28.305,-24.829,-28.285,-20.873,-26.211
-24.604,-30.169,-27.413,-24.659,-22.027,-24.242,-17.651,-23.889
-19.322,-26.224,-18.566,-14.68,-12.205,-14.16,-11.385,-17.552
-7.69,-14.494,-5.402,-2.401,1.644,-2.123,-1.798,-6.87
5.907,0.191,8.112,7.252,15.911,7.302,9.301,5.271
15.991,10.383,17.416,13.359,25.556,13.485,19.868,15.517
23.849,16.697,21.895,18.195,29.125,18.51,29.039,22.559
33.68,23.429,25.535,22.996,31.651,23.16,35.864,27.211
42.117,30.04,29.471,27.117,35.362,26.866,38.526,30.338
41.866,33.25,30.228,29.433,36.377,28.981,36.1,31.428
37.072,34.245,28.138,30.932,34.058,30.65,32.452,31.728
39.476,38.005,29.099,35.185,33.764,35.235,34.737,35.976
50.061,46.788,36.528,44.327,40.119,44.56,44.934,46.306
61.428,58.963,47.903,57.618,52.003,57.761,58.602,58.668
69.894,69.992,58.429,71.989,63.991,72.026,70.595,68.405
75.181,74.618,66.031,81.615,73.961,81.693,77.204,75.267
79.96,75.435,73.122,85.439,83.934,85.411,80.363,82.509
88.873,80.792,81.667,90.704,91.604,90.313,88.606,92.617
101.077,89.924,90.259,99.557,94.578,98.923,103.977,103.756
110.245,95.311,97.812,105.425,98.487,104.886,117.074,112.1
112.887,97.834,104.583,106.749,107.009,106.435,122.353,116.955
112.187,104.861,111.084,109.814,116.06,109.687,125.611,121.142
113.398,116.437,117.981,118.053,123.241,118.1,132.516,126.513
117.857,125.047,125.341,127.792,131.258,127.893,141.087,131.777
123.125,127.321,132.455,134.005,141.001,133.896,147.961,136.166
126.385,125.278,137.653,135.897,147.885,135.522,153.605,140.793
127.7,121.635,140.747,137.085,150.264,136.746,158.819,145.503
129.815,121.079,143.836,140.058,152.824,140.023,161.969,148.914
132.596,125.646,145.338,141.485,154.68,141.635,161.629,149.945
133.479,130.231,141.654,138.212,150.441,138.187,158.335,148.036
133.029,131.761,135.763,134.536,143.841,134.165,153.868,144.495
132.018,132.869,132.898,135.562,141.951,135.022,150.238,141.93
128.888,133.643,131.572,137.702,141.968,137.249,147.375,140.703
125.288,132.154,128.245,134.379,137.861,134.045,143.759,138.749
126.038,129.714,124.987,128.072,132.114,127.755,140.419,135.667
131.056,127.199,124.716,125.813,130.091,125.528,139.027,133.118
133.829,123.245,125.092,126.259,130.507,126.047,137.501,131.053
130.623,118.813,123.489,124.615,129.807,124.495,133.349,128.319
125.892,117.128,121.4,123.285,128.075,123.411,128.256,125.759
124.637,118.597,120.273,125.642,125.912,126.086,125.05,124.365
125.065,119.564,119.06,127.859,122.688,128.371,123.818,122.884
122.963,117.337,116.945,125.041,119.358,125.452,123.184,120.362
117.832,113.179,114.562,119.102,118.038,119.685,121.919,118.205
113.603,110.388,114.082,116.154,119.99,117.125,120.4,118.262
114.934,112.313,117.564,118.73,124.573,119.719,121.349,120.258
120.005,118.419,122.087,122.493,127.752,122.982,124.659,121.365
122.048,123.13,122.97,122.8,126.943,122.792,126.317,120.292
120.02,123.545,122.416,121.761,126.75,121.653,126.434,120.23
118.57,123.313,125.177,122.915,131.672,122.964,128.501,123.052
118.788,124.538,129.078,124.157,137.322,124.327,131.019,124.806
117.66,123.388,128.516,121.945,136.227,122.134,130.025,121.896
114.606,118.079,123.468,117.304,129.015,117.47,125.894,116.525
112.737,112.691,118.482,113.291,122.904,113.474,121.518,112.522
113.632,110.104,115.593,110.625,120.778,110.904,118.57,110.782
114.327,108.997,113.728,108.94,119.965,109.332,117.17,110.469
113.305,109.493,112.873,108.967,119.305,109.433,116.922,110.862
114.661,113.665,113.587,110.476,119.017,110.915,118.046,111.354
119.515,119.616,114.217,111.091,117.792,111.286,120.063,111.416
122.512,123.62,113.301,110.465,115.841,110.346,120.747,111.083
121.638,125.566,111.585,111.095,114.796,111,119.296,110.919
121.419,127.59,110.303,113.285,114.447,113.528,118.925,112.311
125.749,131.006,111.816,115.91,115.975,116.358,123.113,117.093
133.029,134.772,118.34,120.507,122.262,120.901,130.544,124.769
139.269,138.121,127.963,128.661,131.899,128.959,137.605,132.618
143.774,143.173,136.797,138.13,140.501,138.403,143.022,138.851
147.274,149.659,143.145,144.878,146.434,145.153,146.79,142.855
148.28,153.131,147.207,147.867,150.833,148.114,149.061,144.649
146.707,152.159,149.235,149.168,154.041,149.359,150.49,144.769
145.658,150.64,149.519,150.148,154.839,150.384,151.045,143.804
148.166,153.032,150.68,152.228,154.926,152.677,151.909,144.52
155.457,160.278,156.684,158.167,159.84,158.676,156.31,150.788
165.53,168.8,166.829,167,170.501,167.14,163.64,160.989
173.623,174.198,175.591,173.53,179.793,173.321,169.848,169.596
177.329,176.784,180.361,176.586,182.944,176.597,175.006,175.658
178.327,179.337,182.96,179.243,183.439,179.724,180.487,180.847
178.612,181.423,183.702,181.162,184.376,181.728,182.685,182.994
179.473,182.761,181.739,180.494,183.878,180.857,179.458,180.418
181.294,185.429,178.957,178.852,181.434,179.258,175.264,176.596
183.03,188.713,177.964,178.309,180.182,179.054,174.16,175.454
185.758,191.328,179.727,179.556,182.478,180.498,176.222,177.904
191.822,195.611,183.524,182.988,186.581,183.881,181.007,182.903
198.795,201.781,186.29,186.921,188.036,187.869,186.604,187.527
200.604,204.611,184.435,187.331,184.638,188.424,188.048,187.97
194.786,199.807,177.587,182.177,177.981,183.154,183.056,183.063
186.792,190.657,170.08,174.729,171.759,175.431,176.3,176.149
184.27,185.681,167.386,170.406,169.873,171.142,173.394,171.871
185.605,186.847,169,169.962,171.204,171.047,173.429,170.589
181.924,185.385,168.622,168.702,169.619,169.886,171.344,168.413
171.569,175.715,163.928,163.986,163.886,164.801,165.744,163.612
161.659,164.484,159.653,159.288,159.542,159.741,160.372,159.129
156.358,159.612,159.266,158.763,159.223,159.151,158.759,158.185
154.795,160.75,161.638,162.461,161.137,162.878,161.017,161.006
156.292,163.272,165.474,167.716,164.913,168.198,165.124,165.301
158.952,163.53,169.692,172.076,169.955,172.795,169.052,168.577
158.871,160.357,171.955,174.273,172.946,175.21,171.709,170.207
154.664,155.401,170.678,172.94,171.86,173.775,171.989,170.173
150.206,153.118,167.712,168.911,168.966,169.545,170,168.637
150.659,157.745,166.976,166.829,168.087,167.521,168.521,167.337
154.002,166.471,167.444,166.838,167.766,167.686,167.532,166.095
152.768,170.352,163.01,162.951,162.033,163.81,162.664,161.447
144.935,163.682,152.001,153.296,150.329,154.147,152.465,151.863
134.237,148.785,138.437,141.153,137.464,142.139,139.556,139.231
123.761,134.157,126.18,129.972,126.223,131.093,127.768,127.581
116.115,127.047,118.494,123.564,118.623,124.526,122.095,122.182
113.686,126.295,117.078,123.709,116.598,124.354,123.706,124.022
114.264,125.503,118.269,126.687,117.201,127.263,125.874,126.903
113.344,121.809,117.137,127.652,116.042,128.278,122.741,125.644
112.736,119.525,115.065,127.142,114.471,127.592,118.398,123.489
118.637,124.744,117.194,129.313,116.896,129.531,120.463,126.331
131.383,137.371,125.09,135.212,124.629,135.488,129.364,134.251
144.214,151.412,135.791,142.455,134.835,143.028,140.11,143.61
152.192,161.543,145.778,149.961,143.782,150.709,149.884,152.569
156.801,166.3,153.776,157.673,150.572,158.349,158.213,160.213
160.359,167.352,160.1,163.667,156.363,164.322,164.306,164.87
161.844,167.78,164.798,166.214,161.006,166.958,167.908,166.416
160.058,168.56,167.402,166.796,163.404,167.412,169.575,166.918
157.406,168.42,169.083,168.579,165.202,168.876,170.485,168.373
158.134,168.984,172.752,172.693,170.08,172.764,172.732,171.497
162.777,173.179,178.379,177.092,177.029,177.076,177.835,176.003
167.317,177.704,181.9,179.287,180.101,179.295,184.466,180.441
167.244,176.459,180.478,178.387,177.032,178.494,187.855,181.903
161.804,171.267,175.527,174.976,171.464,175.171,184.645,179.005
156.063,169.278,170.845,171.007,167.178,171.317,177.869,174.401
155.379,171.125,168.808,168.447,165.295,168.904,172.726,171.317
159.884,172.923,169.144,168.456,165.843,168.885,171.447,170.894
167.804,176.715,171.724,171.914,169.394,172.084,174.337,173.477
177.106,185.801,176.221,177.461,175.176,177.418,179.723,177.543
183.613,194.245,179.276,180.661,178.921,180.598,183.129,179.03
184.073,193.728,177.868,178.424,177.204,178.471,181.229,176.184
180.323,186.568,174.212,173.686,172.763,173.91,176.251,172.723
177.8,182.167,172.862,172.871,171.055,173.085,173.579,172.731
179.441,183.451,174.703,177.186,172.909,177.129,175.512,175.63
182.435,184.987,177.088,181.194,174.981,181.095,179.964,179.026
182.027,183.108,177.874,181.036,175.542,181.228,182.732,180.95
177.098,180.246,176.906,178.333,175.059,178.511,180.586,179.194
171.991,179.59,176.142,176.75,174.437,176.505,176.491,175.463
171.246,179.927,178.093,177.659,175.424,177.252,176.834,175.075
172.996,177.727,181.596,178.876,177.942,178.656,180.662,177.794
173.51,174.13,183.386,178.979,179.271,178.743,181.824,178.435
173.776,173.94,184.288,180.102,179.789,179.788,180.703,177.003
175.014,177.099,187.011,182.831,182.766,182.898,181.845,177.759
176.811,180.596,190.93,184.989,187.9,185.492,184.805,181.182
181.323,185.704,194.826,187.878,192.27,188.227,187.209,185.181
189.694,193.513,199.5,194.504,195.814,194.464,189.95,189.605
197.576,199.962,204.098,201.752,199.544,201.756,193.418,193.772
198.844,200.491,203.924,202.22,199.968,202.581,194.466,194.227
190.693,193.734,195.21,192.944,192.195,193.458,189.671,188.347
176.584,182.656,180.792,178.823,177.984,179.199,179.375,177.597
164.246,173.895,167.955,167.808,165.074,167.936,167.857,166.798
157.548,170.214,160.458,162.441,158.426,162.375,158.845,159.373
153.501,166.209,155.524,158.319,155.073,158.25,152.212,153.559
148.478,156.78,149.62,152.378,149.503,152.436,146.868,147.012
142.674,145.702,143.427,146.578,141.404,146.705,143.58,141.873
138.146,139.739,139.14,142.696,134.428,142.78,142.565,140.642
135.553,138.261,136.489,139.792,130.516,139.73,141.402,140.909
134.432,136.937,134.221,136.459,129.186,136.222,137.911,138.221
135.297,135.993,133.341,133.077,130.267,132.846,133.349,132.624
137.73,136.686,135.196,131.397,133.98,131.243,130.741,128.298
138.89,136.801,138.135,131.83,138.87,131.45,131.272,127.425
137.845,135.144,139.689,132.905,141.653,132.218,133.647,129.068
136.466,133.926,140.009,133.625,140.506,133.042,135.936,132.201
135.011,133.427,140.643,134.201,138.188,133.998,136.909,135.52
132.836,131.107,141.462,134.757,138.107,134.83,136.536,137.043
131.735,128.236,141.433,135.63,139.463,135.689,136.25,136.998
133.491,129.044,141.068,137.296,140.449,136.913,137.081,137.885
136.306,133.219,141.091,138.735,141.029,137.726,137.72,140.266
137.991,137.652,141.364,139.079,141.407,137.913,137.459,142.394
138.902,140.728,141.342,138.22,141.365,137.573,137.035,142.119
138.233,139.323,139.454,134.19,140.048,134.107,134.986,136.873
134.315,131.46,135.548,126.769,137.391,126.644,130.538,127.712
129.202,122.837,132.44,121.078,135.199,120.52,126.868,121.22
126.508,120.328,132.051,120.819,135.523,120.217,125.514,121.436
126.616,122.072,132.914,122.723,138.397,122.639,123.863,124.906
126.415,121.753,130.426,121.82,137.347,122.118,120.881,126.293
123.003,117.644,121.267,117.916,124.757,118.055,118.489,123.668
117.696,112.148,110.288,113.81,107.693,113.644,116.341,118.097
113.575,107.461,105.148,110.619,100.295,110.263,112.843,112.276
110.241,104.723,105.288,108.071,101.893,107.551,109.765,108.779
106.824,105.207,106.698,107.176,104.048,106.646,109.599,108.314
105.488,108.661,110.299,108.993,107.248,108.799,111.739,110.328
106.685,110.407,116.389,111.793,113.767,111.986,113.971,113.432
108.178,107.577,121.168,113.92,119.372,113.963,116.369,116.514
109.199,105.128,123.25,116.889,121.182,116.23,120.872,120.212
109.594,106.698,124.369,120.865,121.749,119.718,125.25,123.758
108.751,108.741,124.757,122.36,122.923,121.498,124.077,123.664
108.134,109.476,124.086,120.37,123.669,120.165,118.469,119.832
109.559,111.023,122.757,118.359,122.57,118.343,115.353,116.92
110.826,111.699,119.682,117.88,118.288,117.417,115.725,116.681
109.68,109.1,114.613,117.003,111.975,116.187,114.474,116.286
107.75,106.287,109.66,113.96,107.399,113.388,109.581,113.262
103.626,104.989,103.786,107.549,103.596,107.302,102.387,106.501
93.436,101.174,94.253,98.469,95.734,98.064,94.258,97.296
80.587,91.776,83.037,89.726,84,89.074,86.104,88.961
71.452,79.546,73.669,82.404,72.718,81.954,77.835,82.09
66.478,70.086,67.344,75.969,65.469,75.933,70.478,76.084
63.171,65.025,63.985,70.795,63.343,70.99,66.172,72.321
60.134,61.547,61.054,66.316,62.207,66.529,63.914,70.222
56.272,58.422,55.236,61.199,56.53,61.206,60.509,66.542
49.842,54.963,47.148,54.949,47.263,54.513,54.519,59.616
40.649,48.024,39.902,47.681,39.083,46.826,46.9,50.867
32.643,37.983,35.319,41.034,33.624,40.239,40.293,43.772
28.634,29.719,32.586,36.417,29.244,36.189,35.757,39.547
24.804,24.352,29.371,32.053,24.432,32.21,30.905,34.894
17.67,19.129,25.836,26.697,20.768,26.681,25.2,28.488
9.901,12.61,23.538,21.798,19.476,21.579,20.958,23.08
3.363,4.625,20.228,16.842,16.639,16.694,16.787,18.033
-4.194,-3.401,13.431,10.078,9.135,9.942,9.477,10.044
-13.662,-9.621,4.903,2.399,-0.436,2.154,0.124,0.096
-24.521,-16.464,-4.92,-6.277,-10.789,-6.505,-10.238,-9.845
-37.21,-27.545,-18.584,-18.321,-24.35,-18.448,-23.493,-21.006
-49.218,-39.952,-34.158,-32.366,-39.693,-32.459,-37.894,-33.198
-54.82,-47.238,-45.182,-43.44,-50.809,-43.587,-48.309,-43.743
-54.927,-49.632,-50.511,-50.453,-56.07,-50.647,-54.718,-52.344
-59.286,-54.286,-56.521,-57.597,-61.146,-57.708,-62.101,-61.099
-71.464,-63.86,-66.735,-66.921,-69.725,-66.971,-71.942,-70.213
-81.587,-71.501,-76.135,-74.147,-77.747,-74.282,-80.111,-77.002
-79.627,-70.036,-77.882,-73.837,-79.409,-73.927,-81.335,-77.64
-65.388,-59.069,-68.851,-64.157,-71.131,-64.034,-71.586,-68.231
-42.219,-39.612,-47.874,-44.365,-50.113,-44.257,-48.933,-46.022
-11.799,-11.124,-16.039,-13.798,-17.685,-14.048,-15.562,-12.479
20.158,21.144,19.04,21.889,16.872,21.232,20.079,23.549
44.202,45.736,46.462,50.415,43.037,49.617,47.164,50.229
58.482,57.644,62.49,65.27,58.956,64.694,62.36,63.949
69.437,63.985,71.21,71.807,68.889,71.467,70.571,70.726
79.983,72.13,76.286,77.215,74.906,76.678,76.068,76.032
87.598,79.535,79.946,82.523,78.45,81.575,80.477,80.926
92.084,81.778,85.568,86.665,83.719,85.73,86.034,86.356
96.113,82.436,94.669,90.879,93.102,90.45,94.05,93.611
100.585,86.464,104.777,96.097,103.917,96.193,102.415,101.199
104.409,91.283,112.258,100.438,111.743,100.695,107.849,105.77
107,91.963,115.369,102.017,114.699,101.945,109.765,106.518
108.592,88.819,115.031,101.522,114.49,100.971,109.69,105.699
108.833,85.137,112.873,99.92,113,99.431,107.535,104.072
106.63,81.897,108.625,96.155,109.101,96.272,101.759,99.576
100.402,77.573,101.355,89.388,101.564,89.793,92.91,91.625
89.857,71.695,92.597,81.764,92.609,81.768,84.473,83.322
79.384,65.813,85.599,76.552,85.825,75.959,79.44,77.914
74.692,61.084,81.619,73.979,82.429,72.937,76.768,74.829
75.873,57.818,79.124,71.61,80.808,70.212,73.776,71.751
76.962,54.835,75.45,67.704,77.668,66.069,70.077,68.307
71.148,48.717,67.844,61.35,69.806,59.764,65.62,64.34
59.221,39.933,57.471,53.524,59.087,52.109,60.21,59.657
50.045,35.605,50.623,48.392,52.237,46.83,55.94,56.349
47.536,37.178,49.528,47.251,50.853,45.342,53.781,54.899
46.407,35.214,48.822,45.449,49.493,43.417,51.379,51.947
43.285,26.724,45.907,41.266,46.234,39.239,48.128,47.172
39.861,20.993,44.176,39.222,44.42,37.126,46.08,44.711
35.498,20.228,43.371,39.797,43.06,37.563,44.22,44.399
27.789,16.026,38.642,36.926,37.235,34.459,38.825,40.796
18.502,6.737,29.953,28.659,27.692,25.989,30.1,32.58
10.505,-2.303,21.538,19.134,18.99,16.458,21.153,23.428
2.203,-11.187,13.755,10.066,11.223,7.393,11.822,14.15
-8.589,-22.435,4.427,0.047,2.154,-2.73,0.912,3.245
-18.081,-31.933,-4.216,-9.281,-6.319,-11.997,-8.368,-6.591
-20.736,-34.458,-8.17,-14.603,-10.75,-17.031,-12.504,-11.485
-20.382,-33.709,-10.827,-18.42,-13.994,-20.689,-15.221,-14.782
-27.317,-37.928,-19.927,-27.033,-22.684,-29.481,-23.411,-23.477
-43.04,-48.566,-34.906,-39.829,-36.449,-42.596,-36.456,-36.494
-58.388,-59.677,-47.378,-49.501,-48.183,-52.387,-46.986,-45.948
-65.751,-66.5,-53.235,-53.244,-54.12,-55.876,-51.472,-49.506
-65.766,-69.677,-56.049,-55.242,-56.702,-57.37,-53.89,-52.219
-63.739,-71.548,-59.622,-58.765,-59.2,-60.472,-58.389,-57.108
-64.396,-73.242,-63.686,-62.648,-62.638,-64.355,-63.487,-61.807
-69.368,-75.742,-67.263,-65.339,-66.963,-67.289,-66.103,-63.898
-75.683,-78.879,-70.53,-67.215,-71.291,-69.037,-66.98,-64.107
-77.986,-79.505,-73.204,-68.655,-74.413,-70.064,-68.778,-64.892
-75.295,-76.819,-75.674,-70.041,-77.349,-71.497,-72.471,-68.37
-73.465,-78.237,-80.332,-73.767,-82.712,-75.628,-78.241,-74.721
-78.562,-90.021,-88.706,-82.151,-91.278,-84.012,-86.773,-83.11
-90.592,-106.045,-99.339,-93.955,-101.993,-95.472,-98.054,-94.023
-104.802,-117,-109.172,-105.715,-112.774,-107.147,-109.957,-107.013
-115.903,-122.255,-115.698,-114.693,-120.487,-116.186,-119.239,-118.157
-123.113,-126.728,-119.871,-120.931,-124.653,-122.239,-126.108,-125.708
-131.177,-135.029,-125.798,-127.89,-128.613,-129.018,-135.164,-133.891
-143.092,-147.805,-135.445,-138.012,-135.417,-139.213,-147.454,-144.911
-155.278,-159.846,-145.921,-148.02,-145.505,-149.334,-156.813,-153.58
-162.393,-165.84,-152.398,-153.307,-155.207,-154.621,-159.066,-155.77
-165.388,-167.8,-154.671,-155.931,-160.731,-157.126,-158.965,-156.301
-170.316,-171.635,-158.713,-161.487,-165.256,-162.52,-163.075,-161.802
-177.924,-178.236,-166.512,-169.128,-171.877,-170.178,-169.995,-169.829
-182.732,-183.254,-170.997,-172.686,-174.633,-173.812,-173.133,-172.567
-181.557,-182.437,-166.963,-169.482,-168.423,-170.369,-169.931,-167.573
-176.015,-175.825,-159.22,-162.681,-159.755,-163.248,-163.338,-159.523
-170.388,-170.213,-155.482,-157.676,-157.663,-158.299,-157.802,-154.859
-168.131,-171.854,-156.832,-157.412,-160.998,-158.262,-156.645,-156.127
-168.775,-177.417,-160.007,-160.813,-163.852,-161.716,-160.78,-160.623
-170.207,-180.957,-164.403,-165.866,-166.567,-166.72,-168.222,-165.193
-170.898,-181.934,-169.887,-171.069,-171.268,-171.876,-174.938,-169.943
-168.303,-179.652,-171.441,-173.104,-172.843,-173.851,-176.669,-173.756
-161.834,-172.184,-165.355,-169.155,-166.623,-169.84,-172.323,-172.25
-157.869,-164.895,-158.513,-163.633,-159.899,-164.321,-167.455,-167.86
-161.589,-165.885,-158.937,-163.535,-160.782,-164.37,-167.747,-168.404
-167.162,-172.371,-162.63,-167.607,-164.743,-168.521,-169.992,-171.755
-168.28,-176.269,-164.009,-170.845,-166.937,-171.466,-170.213,-172.622
-168.263,-176.669,-165.739,-172.646,-170.199,-172.938,-171.349,-174.464
-170.884,-175.703,-168.844,-173.3,-173.62,-173.791,-174.351,-177.972
-174.416,-174.102,-170.403,-172.599,-173.908,-173.61,-175.85,-178.044
-177.443,-174.796,-171.624,-173.14,-174.595,-174.341,-176.471,-176.74
-180.695,-180.104,-174.965,-177.284,-178.644,-178.273,-179.524,-180.082
-182.841,-185.553,-177.108,-181.586,-180.449,-182.327,-183.256,-184.856
-182.109,-185.846,-174.367,-181.312,-175.613,-181.808,-184.036,-184.243
-182.676,-185.147,-171.97,-180.024,-171.792,-180.219,-184.568,-182.045
-189.438,-189.654,-177.039,-184.506,-178.086,-184.58,-189.062,-186.246
-198.421,-195.742,-186.141,-193.059,-189.538,-193.278,-195.336,-194.854
-202.73,-197.915,-191.962,-199.822,-196.216,-200.205,-199.809,-201.05
-201.605,-198.357,-194.593,-204.087,-198.279,-204.484,-202.889,-204.742
-196.73,-198.759,-195.324,-205.664,-198.38,-205.982,-204.215,-207.346
-188.478,-194.603,-191.004,-200.512,-193.33,-200.676,-200.394,-202.793
-180.852,-185.406,-184.221,-190.916,-185.556,-190.834,-193.233,-190.592
-181.008,-179.667,-185.233,-188.824,-186.287,-188.535,-192.175,-187.291
-189.385,-184.266,-196.243,-199.41,-197.858,-199.026,-200.656,-202.126
-198.037,-195.607,-207.209,-212.49,-208.773,-212.065,-209.242,-218.26
-201.602,-204.086,-211.512,-217.895,-211.912,-217.638,-210.371,-220.376
-202.619,-205.722,-212.675,-217.961,-212.124,-218.09,-208.235,-216.036
-202.89,-204.26,-212.866,-217.332,-212.458,-217.582,-207.041,-213.835
-199.44,-202.154,-209.304,-214.086,-209.302,-213.946,-204.604,-210.09
-194.325,-199.803,-205.026,-209.772,-204.587,-209.147,-202.906,-205.875
-195.044,-199.298,-207.011,-211.381,-205.775,-210.675,-207.591,-209.455
-200.744,-199.772,-211.817,-216.498,-210.721,-216.065,-214.478,-217.847
-204.289,-199.437,-210.688,-215.839,-210.803,-215.51,-213.89,-218.593
-205.342,-201.147,-205.495,-210.022,-207.104,-209.566,-206.806,-210.417
-206.118,-204.574,-202.981,-205.942,-205.305,-205.633,-202.225,-203.77
-205.451,-204.205,-202.534,-204.282,-203.968,-204.412,-203.017,-203.276
-202.433,-198.203,-199.495,-201.11,-199.358,-201.523,-203.546,-203.001
-196.425,-188.817,-192.817,-194.701,-192.426,-195.122,-199.327,-197.824
-190.254,-180.259,-187.317,-188.749,-188.175,-188.872,-194.436,-192.244
-190.649,-177.162,-187.866,-188.511,-189.599,-187.94,-195.043,-193.396
-196.951,-179.807,-192.178,-193.208,-193.258,-191.957,-199.594,-199.3
-200.663,-185.1,-195.016,-197.611,-194.762,-196.299,-202.452,-202.647
-199.335,-190.882,-196.544,-199.817,-195.668,-198.961,-202.77,-202.217
-199.696,-196.621,-200.464,-201.967,-200.094,-201.478,-204.316,-202.725
-205.065,-201.411,-205.891,-204.39,-206.559,-203.921,-208.38,-205.6
-209.017,-202.021,-207.41,-203.557,-209.02,-202.901,-210.781,-205.617
-205.697,-195.954,-203.546,-197.993,-205.701,-197.189,-208.103,-199.623
-197.92,-186.101,-198.627,-192.229,-200.741,-191.598,-202.67,-193.056
-190.535,-177.62,-195.334,-189.766,-197.219,-189.504,-197.089,-190.305
-183.05,-171.464,-191.288,-187.245,-193.41,-187.008,-190.24,-187.184
-174.128,-166.393,-185.384,-182.295,-187.705,-181.601,-183.027,-181.337
-167.043,-163.836,-181.308,-178.562,-182.966,-177.404,-178.693,-176.833
-164.097,-163.672,-180.014,-177.108,-180.904,-175.727,-175.839,-173.446
-162.418,-161.061,-177.206,-174.044,-178.343,-172.545,-171.465,-167.315
-160.378,-154.612,-172.64,-169.765,-174.623,-168.244,-168.154,-162.217
-159.71,-149.564,-170.59,-168.309,-173.2,-166.806,-168.982,-163.89
