EEG 1,EEG 2,EEG 3,EEG 4,EEG 5,EEG 6,EEG 7,EEG 8
-38.798,-46.833,-30.359,-42.305,-28.461,-41.948,927.345,-35.51
-33.909,-43.129,-27.503,-38.426,-25.998,-37.649,725.453,-31.054
-31.074,-41.656,-26.783,-36.966,-25.468,-35.513,409.343,-27.791
-27.218,-39.336,-26.04,-34.824,-24.548,-32.885,-26.587,-23.352
-23.181,-36.305,-23.075,-30.584,-20.922,-28.395,-389.977,-17.107
-23.998,-36.281,-19.588,-27.19,-16.764,-24.73,-601.147,-12.654
-31.006,-40.564,-19.601,-28.074,-16.753,-25.245,-785.21,-13.142
-40.802,-47.308,-25.038,-34.103,-22.655,-31.09,-1003.592,-18.529
-49.772,-54.321,-32.867,-42.314,-30.657,-39.688,-1150.556,-25.596
-56.371,-60.442,-38.092,-47.886,-35.539,-46.079,-1228.411,-29.916
-61.377,-66.308,-40.17,-49.705,-37.422,-48.508,-1400.876,-30.698
-66.543,-73.196,-43.091,-51.471,-40.728,-50.573,-1664.124,-31.839
-71.605,-79.515,-47.937,-55.159,-46.034,-54.841,-1885.925,-35.874
-73.392,-80.607,-49.971,-56.962,-48.069,-57.428,-2136.285,-39.429
-68.463,-72.803,-44.37,-51.051,-42.216,-51.592,-2544.069,-35.918
-57.393,-57.951,-32.057,-36.656,-29.93,-36.502,-3055.072,-23.372
-46.986,-44.901,-20.849,-22.27,-19.233,-21.535,-3609.016,-9.789
-44.902,-42.341,-19.786,-18.392,-18.881,-17.393,-4249.834,-5.777
-50.865,-48.916,-28.781,-24.329,-28.379,-22.788,-4983.666,-11.139
-56.321,-54.86,-36.925,-28.839,-36.755,-26.494,-5690.529,-15.112
-54.382,-53.479,-35.769,-25.498,-35.694,-22.961,-6176.569,-11.274
-47.242,-47.158,-29.766,-19.688,-29.567,-17.742,-6435.533,-5.044
-40.719,-40.954,-26.781,-16.933,-26.216,-15.288,-6713.123,-2.284
-36.188,-35.772,-25.658,-14.505,-24.926,-12.285,-6972.56,-0.166
-32.696,-31.602,-22.284,-10.16,-21.97,-7.366,-6829.897,3.964
-31.289,-30.533,-18.568,-7.502,-18.75,-5.018,-6386.049,6.326
-32.465,-32.219,-17.464,-8.083,-17.394,-6.396,-6261.668,4.8
-33.602,-32.961,-17.371,-8.37,-16.424,-7.245,-6625.63,3.049
-32.239,-31.227,-15.348,-6.133,-13.548,-5.378,-7077.505,4.24
-29.865,-28.925,-11.766,-3.603,-9.291,-3.271,-7410.259,6.481
-29.285,-27.045,-9.499,-3.239,-6.465,-3.312,-7706.404,6.587
-29.934,-24.142,-9.064,-3.66,-5.772,-4.087,-7882.182,5.546
-29.963,-20.495,-8.692,-3.196,-5.589,-4.096,-7831.622,5.28
-29.675,-19.158,-8.08,-3.236,-5.368,-4.917,-7798.702,4.231
-28.629,-19.514,-6.965,-3.457,-4.448,-6.128,-7966.175,2.127
-24.403,-16.373,-4.654,-0.948,-2.317,-4.304,-8013.716,1.869
-17.573,-8.874,-3.19,3.522,-1.641,0.112,-7707.497,3.72
-11.458,-1.369,-3.281,7.218,-3.065,3.899,-7474.16,5.861
-7.436,3.577,-2.205,9.877,-3.044,6.196,-7908.664,7.513
-7.049,4.716,-2.206,9.774,-3.401,5.72,-9208.714,6.194
-12.614,0.707,-8.591,4.099,-9.678,0.448,-11283.404,-0.418
-21.317,-6.636,-18.003,-4.41,-18.749,-7.197,-13784.878,-8.894
-26.047,-12.32,-21.547,-8.872,-21.886,-10.949,-15959.405,-12.365
-24.126,-12.713,-17.638,-6.731,-17.815,-8.01,-17129.762,-8.288
-20.205,-9.634,-12.653,-2.509,-13.041,-2.863,-17351.6,-1.527
-19.008,-7.781,-10.557,-1.031,-11.231,-1.142,-17129.082,1.656
-18.357,-6.766,-7.551,-0.454,-8.386,-1.295,-16704.124,2.181
-12.244,-0.421,1.704,5.223,0.681,3.46,-16068.56,6.93
-0.63,12.552,14.969,16.77,13.605,14.351,-15375.297,17.602
8.849,24.143,24.927,27.854,23.107,24.625,-14854.996,27.448
10.698,27.353,28.831,33.303,26.664,29.037,-14469.565,30.783
6.778,23.517,28.559,33.374,26.378,28.573,-13971.413,28.514
1.183,17.377,25.052,30.215,22.928,25.713,-13237.288,23.776
-4.734,10.76,18.144,24.228,15.922,20.164,-12356.433,17.377
-11.449,3.234,9.399,15.369,7.309,11.216,-11444.596,9.044
-17.456,-3.181,3.311,7.52,1.675,2.988,-10593.898,1.741
-20.329,-5.155,3.281,5.853,1.886,1.177,-9994.634,0.056
-22.394,-5.53,4.852,7.451,3.339,3.013,-9739.844,1.634
-27.208,-10.483,0.111,3.905,-1.438,0.162,-9368.742,-1.301
-29.082,-15.755,-7.795,-2.996,-9.177,-5.671,-7940.518,-7.044
-18.879,-9.573,-6.222,-0.681,-7.632,-2.591,-5094.141,-3.395
-2.539,4.84,4.751,11.413,3.158,9.643,-1991.63,10.066
3.038,9.288,9.363,16.056,8.149,14.55,-91.788,16.102
-3.953,0.866,3.447,7.738,3.231,7.134,873.265,8.99
-9.979,-4.637,-0.764,1.488,-0.271,1.894,1908.647,3.45
-11.872,-3.524,-0.518,2.602,0.081,3.522,2555.547,4.681
-17.313,-6.982,-3.904,0.668,-3.213,1.582,1968.7,2.487
-24.471,-14.798,-8.857,-4.623,-7.944,-3.753,907.05,-3.11
-23.465,-14.502,-5.484,-1.894,-4.74,-0.664,426.523,-0.654
-14.438,-4.753,5.043,9.04,4.994,10.733,74.239,10.073
-9.365,0.761,10.085,14.29,8.979,16.125,-666.628,15.585
-14.223,-5.054,4.606,8.038,2.794,9.85,-750.385,10.168
-20.528,-12.054,-0.645,1.962,-2.41,3.621,805.197,4.823
-20.27,-10.596,3.917,5.853,2.675,6.946,3158.283,8.891
-16.874,-5.59,12.957,13.963,11.975,14.184,4917.613,16.887
-15.147,-3.977,17.337,18.552,16.004,18.082,5896.469,21.517
-13.482,-3.22,16.801,20.652,14.801,19.99,6650.184,23.914
-9.587,1.218,16.467,23.559,14.018,23.087,7225.474,26.514
-4.544,8.489,19.397,28.081,17.024,27.875,7187.618,29.32
-1.59,13.666,22.925,31.851,20.86,31.996,6551.086,31.071
-2.905,13.235,21.852,31.099,19.842,31.774,5998.627,29.624
-5.044,11.384,17.636,28.012,15.354,29.079,6088.78,26.635
-2.347,15.212,16.609,28.987,13.847,30.112,6629.92,26.815
3.73,22.771,18.364,33.545,15.236,34.587,6924.447,29.569
6.524,26.006,17.187,35.336,14.368,36.168,6490.772,29.675
4.604,23.916,13.057,32.702,11.22,33.235,5506.85,25.74
3.133,23.2,11.581,30.316,10.505,30.876,4540.817,22.06
5.654,27.748,15.108,31.646,13.839,32.512,3920.383,22.319
10.156,34.47,19.914,34.572,17.917,35.435,3505.496,24.361
13.424,39.475,21.721,35.384,19.386,35.968,3060.874,23.527
14.201,41.961,20.144,33.085,17.923,33.593,2623.668,18.653
12.279,40.861,17.145,28.349,14.866,28.901,2372.853,12.012
7.888,34.436,13.572,21.767,11.076,22.077,2304.518,5.432
1.574,24.191,8.375,13.742,5.967,13.444,2240.177,-1.995
-3.975,15.652,2.679,6.296,0.43,5.315,2093.17,-10.005
-2.829,15.141,2.279,4.461,-0.164,2.979,1950.261,-12.802
8.175,24.492,10.89,11.959,8.134,10.062,1902.09,-5.28
22.357,37.213,22.717,24.591,19.79,22.099,1901.479,7.618
27.577,42.406,26.755,31.423,23.703,28.096,1806.582,13.69
19.87,35.518,19.162,25.963,16.091,21.859,1551.349,6.961
7.199,22.924,7.141,13.478,4.298,9.008,1249.348,-5.95
-1.089,14.392,-0.464,4.537,-2.909,0.159,1075.533,-14.062
-0.768,15.145,-0.175,5.473,-2.139,1.606,1070.327,-11.221
7.728,24.103,7.197,14.76,5.542,11.791,1138.171,0.65
15.849,32.164,14.907,22.347,12.856,20.1,1221.249,9.842
11.145,27.538,12.232,16.847,9.321,14.449,1407.899,3.437
-4,13.333,0.031,1.883,-3.062,-1.181,1809.366,-13.3
-11.405,7.405,-6.095,-4.984,-8.624,-8.289,2268.278,-19.995
-2.808,17.241,2.24,4.071,-0.242,1.064,2321.426,-8.889
10.303,31.731,16.004,19.074,12.784,16.395,1656.797,8.14
16.202,39.219,24.439,28.685,20.74,26.099,467.69,18.601
15.91,39.014,26.719,30.808,23.095,28.162,-776.611,20.287
13.474,34.729,25.468,27.195,21.958,24.29,-1711.406,15.702
8.957,28.699,21.456,20.27,18.039,16.564,-2234.831,8.313
5.225,25.592,18.473,16.452,15.29,11.601,-2487.993,5.182
6.473,28.714,20.37,19.663,17.502,14.349,-2705.689,10.442
9.236,32.636,22.82,23.461,20.125,18.777,-3077.208,16.956
7.477,31.05,20.099,21.142,17.153,17.28,-3655.083,16.462
1.662,25.6,13.738,15.127,10.45,11.526,-4264.394,10.66
-3.512,21.122,8.271,10.532,5.214,6.95,-4625.462,5.744
-2.748,21.895,8.245,11.23,5.758,7.85,-4686.856,7.152
5.932,29.596,15.872,18.909,13.54,15.699,-4685.626,16.386
14.206,37.336,23.326,26.644,20.693,23.286,-4787.551,24.581
10.773,35.093,19.384,24.309,16.566,20.868,-4818.904,21.341
-2.015,23.179,6.199,13.42,3.518,10.596,-4489.62,10.434
-13.198,10.172,-5.402,3.555,-7.799,1.9,-3880.157,2.047
-19.376,2.076,-11.258,-1.265,-13.008,-2.14,-3521.341,-2.158
-22.561,0.234,-12.576,-2.683,-13.288,-3.681,-3803.435,-4.883
-21.649,3.705,-8.968,-1.214,-9.16,-2.568,-4541.792,-4.268
-15.312,10.676,-0.743,4.574,-1.444,3.496,-5325.977,3.154
-8.097,17.609,6.375,12.029,5.057,11.74,-5970.294,13.444
-6.806,19.776,6.097,13.886,4.916,14.147,-6421.943,17.237
-10.403,17.49,1.464,9.571,0.677,9.793,-6481.966,13.6
-11.599,15.975,0.353,6.364,-0.513,6.334,-5883.669,10.099
-8.893,16.888,2.813,6.699,1.686,6.629,-4734.178,9.33
-5.655,19.308,5.056,8.77,3.97,8.791,-3673.385,10.459
-1.987,23.466,7.509,12.994,6.451,12.974,-3207.807,14.823
0.617,24.922,8.122,15.277,6.752,15.034,-3130.067,17.692
-3.105,17.814,1.742,8.392,0.293,7.75,-3007.05,10.773
-12.509,6.247,-9.231,-4.955,-10.004,-6.155,-2691.83,-3.356
-19.851,-0.784,-16.352,-14.341,-16.414,-15.933,-2134.61,-13.766
-20.657,-1.621,-16.369,-15.056,-16.626,-16.591,-1364.422,-15.157
-16.46,0.815,-12.129,-9.817,-13.144,-11.112,-544.049,-9.847
-7.935,7.47,-4.425,-0.595,-5.79,-1.518,330.711,0.568
4.19,18.883,7.155,11.468,5.982,11.319,1322.695,14.606
13.322,28.597,16.694,20.447,15.64,20.867,2161.415,24.22
13.997,31.081,17.421,21.324,16.304,21.417,2506.596,23.113
8.935,28.205,11.6,17.318,10.601,17.044,2399.783,17.097
2.07,22.503,6.219,13.893,5.307,14.053,2141.972,14.326
-4.971,14.854,3.791,11.511,2.646,12.017,1966.182,13.553
-8.787,8.476,1.271,7.359,0.015,7.472,1895.366,9.35
-6.751,6.095,-3.562,1.252,-4.52,1.204,1753.702,2.165
-1.936,5.453,-8.031,-3.066,-8.603,-2.563,1380.022,-2.909
1.372,3.678,-9.201,-3.229,-9.476,-2.445,859.491,-3.703
3.949,2.351,-7.638,-0.524,-7.793,-0.378,434.532,-1.251
7.08,2.603,-4.892,2.664,-5.23,1.848,243.9,3.084
7.127,1.112,-2.588,3.58,-3.001,2.417,226.877,6.337
1.003,-4.706,-3.863,-0.364,-3.886,-1.094,209.409,4.549
-8.461,-13.246,-10.811,-9.238,-10.375,-9.506,59.58,-3.76
-15.988,-20.96,-19.513,-18.974,-18.806,-19.389,-190.705,-14.687
-17.307,-23.113,-20.575,-21.143,-19.703,-21.906,-376.718,-16.055
-11.232,-16.752,-9.699,-10.34,-8.89,-10.56,-393.383,3.04
-4.354,-8.443,2.178,2.645,2.801,3.828,-349.403,27.554
-4.856,-8.316,0.206,-0.303,0.683,1.257,-433.171,22.611
-7.92,-11.79,-10.874,-14.787,-10.926,-14.727,-630.868,-12.6
-2.163,-4.952,-11.442,-16.304,-12.368,-17.694,-735.284,-32.455
10.492,10.78,2.848,1.344,1.691,0.003,-639.31,-13.763
17.973,20.556,17.282,19.523,16.684,19.078,-461.283,17.376
17.444,20.468,23.943,28.215,23.754,29.228,-363.921,42.982
15.735,19.093,25.864,31.619,25.61,34.34,-373.935,60.128
14.688,18.992,21.916,27.437,21.391,29.939,-403.17,47.208
13.419,18.018,16.224,19.261,15.394,19.481,-390.469,16.501
17.709,21.423,24.374,26.278,23.877,25.61,-425.167,27.041
27.834,30.674,41.616,43.701,42.335,43.501,-667.036,61.352
30.327,32.924,37.576,38.663,38.533,36.737,-1194.036,33.294
18.303,19.947,6.651,9.278,5.656,4.792,-2205.754,-42.5
3.179,2.302,-19.03,-11.434,-21.67,-15.7,-3965.61,-74.279
-3.32,-6.425,-21.227,-12.621,-23.126,-15.239,-6116.068,-57.254
-2.593,-5.749,-14.045,-9.6,-14.558,-11.391,-7922.797,-44.605
-0.638,-3.368,-8.967,-6.992,-8.901,-7.636,-9207.529,-35.192
0.773,-3.967,-3.783,-1.067,-3.016,0.19,-10250.63,-10.605
1.346,-6.671,-1.052,1.405,0.584,3.338,-11502.111,2.345
0.551,-7.892,-5.764,-5.064,-4.252,-3.828,-13396.142,-17.57
1.051,-4.228,-10.354,-9.469,-9.615,-7.767,-15780.733,-35.994
5.731,3.97,-3.207,0.055,-2.44,4.11,-18182.884,-15.104
11.557,11.585,11.366,15.336,13.106,21.319,-20384.317,24.218
11.925,12.275,15.531,16.816,17.936,22.529,-22182.046,31.13
5.392,5.07,2.601,0.908,4.489,4.631,-23400.292,-2.958
-0.124,-1.069,-10.607,-12.243,-9.833,-10.457,-24252.661,-32.008
3.359,3.424,-6.199,-5.576,-5.894,-3.959,-25036.536,-18.478
13.139,15.569,10.481,12.453,11.166,15.467,-25618.543,18.32
20.981,25.256,21.626,23.106,22.429,26.858,-25651.057,34.396
22.705,27.572,19.635,20.512,19.488,23.042,-25144.199,18.711
19.502,24.16,11.198,12.717,9.853,13.507,-24472.68,-0.945
15.439,19.397,6.887,9.761,5.574,10.268,-23849.48,0.904
12.482,15.815,8.38,11.903,8.3,13.244,-23087.645,15.402
7.655,11.015,7.222,9.922,7.884,11.454,-21980.576,15.584
-1.296,2.49,-1.394,0.163,-1.2,0.98,-20634.188,-2.412
-8.86,-4.339,-8.48,-6.458,-8.635,-6.048,-19184.751,-12.264
-6.079,-0.005,-2.402,1.928,-2.086,2.549,-17413.532,3.58
6.317,14.689,12.317,19.588,12.596,20.206,-14937.568,26.905
16.875,27.4,20.349,29.73,19.339,29.826,-11543.501,31.125
17.972,30.066,16.99,26.812,14.59,26.217,-7159.507,17.509
12.977,25.97,10.162,19.673,7.402,18.392,-2185.887,6.357
7.669,20.153,6.156,15.644,4.049,13.699,2191.556,7.282
2.63,13.633,3.79,13.155,2.719,10.615,5060.408,12.327
-2.116,8.451,0.514,9.73,0.213,6.865,6675.961,12.312
-2.622,8.343,-2.074,7.779,-2.12,5.016,7569.798,8.752
1.71,11.455,-2.44,8.219,-2.644,5.608,7833.902,6.057
4.133,11.194,-3.64,6.383,-4.204,3.76,7776.464,2.462
0.642,6.559,-8.03,0.2,-8.686,-2.086,8121.301,-3.845
-3.865,3.156,-12.786,-5.724,-12.939,-7.18,9068.796,-9.513
-4.518,3.398,-14.51,-7.835,-14.058,-8.617,10055.211,-12.28
-3.65,4.123,-13.729,-7.096,-13.198,-7.619,10669.528,-12.78
-3.796,4.598,-11.689,-3.993,-11.432,-4.123,11005.149,-8.774
-1.838,8.33,-6.948,2.123,-6.678,2.94,11165.402,1.884
3.479,14.831,-0.224,8.455,0.699,10.443,11119.187,12.847
7.085,18.265,2.948,10.344,4.715,13.131,10914.682,14.886
5.756,16.35,0.434,7.928,2.348,10.995,10583.759,8.886
1.798,12.311,-3.385,4.753,-2.021,7.926,10024.373,2.683
-2.8,7.709,-6.107,1.283,-5.077,4.638,9261.995,-1.459
-6.695,2.597,-8.49,-2.468,-7.33,1.058,8519.264,-4.97
-6.246,1.162,-8.219,-2.237,-6.868,1.396,7874.811,-4.899
-1.741,5.703,-4.401,2.894,-2.795,6.709,7277.46,-0.436
0.005,9.821,-2.43,5.829,-0.53,10.012,6867.661,1.579
-3.556,8.183,-4.892,2.86,-2.91,7.478,6768.723,-1.634
-7.493,4.09,-7.755,-0.899,-5.677,3.843,6748.088,-3.924
-9.077,1.75,-9.137,-1.653,-6.718,2.847,6603.555,-2.079
-10.764,0.033,-11.103,-2.421,-8.475,1.855,6566.027,-0.955
-14.033,-3.495,-14.034,-6.415,-11.478,-2.408,6764.09,-4.961
-17.098,-7.253,-16.249,-11.343,-13.62,-7.894,6503.165,-11.542
-17.858,-7.362,-16.041,-12.511,-13.218,-9.508,4779.375,-14.169
-14.022,-2.132,-11.382,-7.635,-8.804,-4.62,1626.215,-8.662
-5.334,5.573,-3.331,0.259,-1.352,3.524,-1858.911,1.274
0.206,7.637,0.297,2.13,2.141,5.707,-4928.956,4.825
-5.183,-0.212,-5.161,-6.194,-2.619,-2.379,-7640.057,-1.765
-14.958,-9.135,-11.872,-15.048,-8.324,-11.298,-9918.197,-8.085
-18.8,-10.695,-13.347,-16.547,-9.227,-12.961,-11070.523,-7.994
-16.189,-7.735,-12.948,-14.635,-8.822,-10.901,-10472.681,-6.794
-7.497,-0.462,-8.359,-8.785,-4.409,-4.886,-8593.299,-2.381
5.555,12.305,3.372,3.837,6.81,7.387,-6880.069,8.988
10.662,18.388,7.911,10.926,10.027,14.01,-6368.416,13.992
2.197,9.598,-3.844,3.271,-3.064,6.24,-7039.879,4.55
-6.947,-1.033,-15.893,-6.22,-14.995,-3.588,-8503.144,-4.829
-7.302,-1.232,-15.428,-5.605,-13.2,-3.827,-10279.375,-4.162
-4.452,3.785,-9.91,0.158,-6.724,1.337,-11573.584,0.676
-4.211,5.7,-7.15,4.21,-3.971,5.574,-11787.657,5.919
-5.046,5.075,-5.54,6.343,-2.739,8.198,-11193.212,11.658
-5.046,5.395,-3.847,7.384,-1.33,9.151,-10541.143,13.627
-5.138,5.927,-4.637,6.285,-2.376,7.234,-10197.87,8.429
-4.648,4.927,-7.405,3.27,-5.286,3.475,-9939.337,1.548
-1.239,4.11,-6.994,1.6,-4.376,1.721,-9469.555,1.975
3.818,5.151,-1.618,3,2.007,3.335,-8943.201,9.465
6.821,6.531,3.652,4.195,7.716,4.501,-8798.798,14.123
6.32,5.785,3.054,0.794,6.576,0.993,-9140.247,9.011
3.458,2.692,-3.166,-6.661,-0.382,-6.333,-9550.108,-1.882
0.893,0.627,-8.6,-12.527,-6.082,-12.073,-9559.092,-8.576
-0.054,2.021,-8.822,-13.871,-6.252,-13.501,-9145,-7.641
-1.757,2.949,-7.992,-15.202,-5.49,-14.993,-8692.801,-7.114
-4.955,-0.653,-11.502,-20.073,-9.212,-19.904,-8497.442,-13.238
-3.409,-2.404,-13.955,-21.471,-11.779,-20.924,-8397.141,-16.771
8.102,7.136,-5.099,-10.318,-2.95,-9.083,-8009.578,-4.975
22.141,22.031,11.075,6.722,13.318,8.233,-7192.045,15.027
25.948,26.687,18.013,12.889,20.72,14.006,-5954.868,22.809
19.421,19.848,10.609,5.949,13.779,6.52,-4085.591,13.856
13.44,13.814,1.113,-0.771,4.039,-0.619,-1226.46,3.062
12.937,13.498,-0.457,0.073,1.888,-0.141,2700.766,1.825
13.578,13.592,3.249,4.072,5.551,3.84,7213.713,7.388
11.547,11.255,5.587,6.461,8.16,6.768,11340.106,11.65
7.991,8.912,4.566,7.23,6.941,7.962,14003.182,11.013
5.777,7.668,2.237,6.939,3.954,7.292,14812.806,7.307
4.934,5.277,-0.378,4.121,0.836,3.704,14707.931,2.96
3.137,1.128,-3.867,-1.009,-2.655,-1.719,14907.537,-0.845
0.887,-1.125,-6.697,-4.693,-5.185,-5.187,14996.56,-3.244
0.48,0.038,-7.306,-5.594,-5.641,-6.104,13477.142,-5.436
0.749,0.146,-8.035,-7.326,-6.519,-8.373,10266.621,-10.231
1.04,-2.085,-9.524,-10.126,-8.104,-11.648,6918.058,-15.382
5.777,0.743,-6.205,-7.171,-4.475,-8.694,4820.954,-12.824
17.065,12.904,5.404,4.631,7.522,3.184,4905.529,-0.078
30.941,28.654,21.265,19.585,23.104,17.962,7827.821,16.051
41.754,40.016,33.689,29.967,34.427,28.241,12677.556,27.501
42.076,40.09,34.148,28.181,33.975,26.566,16952.26,27.15
28.383,25.944,20.197,11.401,20.452,9.634,19039.058,12.064
10.289,5.882,0.891,-10.748,2.296,-13.053,19485.488,-10.217
3.813,-4.014,-10.015,-21.724,-8.664,-24.197,19553.612,-24.389
16.979,7.316,-2.729,-10.84,-3.001,-12.345,19794.934,-15.992
42.228,34.262,20.155,16.457,18.381,16.657,20069.504,13.415
61.468,56.195,41.58,40.145,39.533,41.281,20086.502,40.79
63.544,58.154,47.139,45.158,45.51,45.732,19788.731,46.798
53.287,45.357,40.199,35.271,39.226,34.844,19426.182,37.062
40.095,30.867,31.648,22.617,31.871,21.776,19265.798,26.53
27.719,18.882,23.366,12.278,24.686,11.548,19282.894,18.217
19.593,9.108,12.882,4.17,13.651,4.05,19252.216,9.057
20.431,5.836,4.793,0.403,3.734,1.364,19072.709,0.368
24.766,8.518,1.359,-1.282,-0.563,0.503,18851.871,-9.392
20.472,6.567,-3.884,-8.543,-4.838,-6.844,18646.092,-22.756
10.25,-1.891,-8.69,-17.086,-8.021,-16.041,18142.183,-27.421
8.348,-4.496,-2.149,-12.068,-0.711,-10.814,16669.44,-4.966
19.427,7.05,15.253,9.685,15.983,12.854,13838.357,40.039
38.384,28.985,33.435,35.08,32.822,39.748,10241.986,72.45
54.24,46.423,41.401,44.462,40.066,47.609,6884.595,57.113
54.826,45.301,30.64,28.439,28.771,28.613,3933.555,0.504
44.915,34.184,9.638,4.731,6.356,3.952,974.86,-49.208
38.51,29.839,-1.614,-3.412,-6.19,-3.073,-1912.832,-56.248
31.746,25.46,-3.28,-3.355,-7.648,-2.066,-4362.441,-38.269
14.56,7.43,-11.498,-14.698,-14.946,-13.1,-6342.787,-30.767
-1.602,-11.129,-21.894,-28.432,-24.807,-26.439,-7666.071,-32.564
4.678,-4.833,-11.916,-19.329,-14.398,-17.1,-7672.704,-19.839
32.509,24.919,20.902,13.222,19.122,15.424,-6625.045,13.223
54.451,47.474,50.27,42.689,49.38,45.797,-6272.679,53.427
48.906,41.476,51.943,46.116,51.855,51.051,-7577.492,74.146
24.894,17.949,25.704,22.794,25.224,28.391,-9523.802,44.339
4.962,-1.342,-7.916,-8.083,-10.444,-3.203,-11018.79,-20.181
-2.106,-9.567,-24.534,-24.542,-28.387,-19.654,-11966.416,-56.981
-3.46,-13.193,-21.183,-25.046,-23.751,-19.238,-12401.773,-47.167
-7.063,-17.83,-15.786,-23.42,-16.377,-17.211,-12397.089,-27.491
-10.967,-21.265,-15.437,-23.39,-15.416,-17.328,-12514.71,-15.498
-9.9,-19.582,-11.877,-20.633,-11.882,-14.949,-13152.036,-6.399
-4.378,-13.233,-4.17,-16.821,-3.936,-12.044,-13948.957,-6.906
4.452,-2.631,2.124,-12.238,2.147,-7.989,-14292.708,-14.515
16.881,11.706,8.078,-2.182,7.025,3.073,-13870.272,-8.471
25.929,21.197,14.927,8.775,13.316,15.346,-12913.401,12.3
18.176,12.152,12.484,3.577,12.032,9.818,-12164.079,17.699
-10.283,-17.738,-10.266,-26.764,-8.864,-22.219,-11986.791,-14.035
-39.778,-47.399,-40.587,-61.807,-38.52,-58.546,-11758.427,-60.023
-38.326,-45.403,-44.558,-63.449,-43.477,-60.136,-10909.296,-69.056
2.149,-4.044,-7.101,-19.172,-7.413,-15.002,-9844.372,-20.2
48.719,44.878,42.034,35.893,41.173,40.658,-9062.203,44.947
61.485,60.192,59.152,54.702,58.432,58.97,-8224.666,66.27
38.776,36.866,38.882,32.467,38.351,35.158,-6797.656,38.107
11.715,6.826,15.468,6.773,15.381,7.92,-4796.978,11.504
0.41,-5.966,12.217,3.314,13.23,3.868,-2551.148,17.972
-2.461,-8.333,15.334,7.847,17.263,8.404,-714.665,27.436
-7.449,-13.124,6.576,0.882,7.957,1.484,-116.072,6.736
-10.532,-16.846,-4.286,-8.501,-4.267,-7.702,-665.585,-20.31
-6.133,-12.628,-0.69,-4.49,-0.838,-3.172,-1562.453,-16.723
-1.884,-7.671,10.011,4.901,11.233,6.883,-2564.613,6.719
-6.011,-11.355,12.577,4.631,15.266,6.777,-3664.894,19.482
-13.182,-19.762,6.254,-4.635,9.451,-3.478,-4488.708,11.862
-15.361,-23.952,-3.912,-14.946,-1.33,-15.312,-4975.74,-9.828
-10.818,-19.474,-11.23,-17.858,-9.883,-18.889,-5580.9,-26.315
-1.423,-8.618,-7.515,-8.69,-6.855,-9.401,-6412.557,-19.609
6.193,-1.239,2.681,2.749,3.87,2.403,-6922.67,-0.197
5.229,-4.398,6.082,3.394,8.349,3.027,-6687.371,9.366
-2.674,-14.173,0.056,-5.456,3.065,-6.105,-6049.849,5
-10.943,-23.423,-8.744,-16.022,-5.283,-17.039,-5580.449,-5.692
-15.636,-28.811,-15.136,-24.931,-11.167,-26.088,-5066.36,-16.522
-15.402,-28.838,-16.137,-28.985,-11.804,-29.873,-3682.241,-20.313
-9.453,-22.183,-9.934,-23.41,-5.709,-23.769,-1351.57,-11.074
0.702,-10.677,2.068,-9.481,5.862,-9.329,1021.701,7.555
9.403,-1.395,13.438,2.631,16.942,2.82,3052.682,21.833
9.55,-1.507,15.61,3.461,19.025,2.904,5181.398,20.33
0.392,-9.999,8.17,-4.364,11.422,-6.002,7459.532,8.707
-8.869,-17.725,2.192,-8.957,5.428,-11.213,9660.722,4.583
-10.656,-19.137,4.484,-6.141,7.979,-8.535,11748.151,11.766
-10.169,-19.945,6.291,-6.069,9.799,-8.93,12992.657,12.534
-14.679,-25.789,-0.846,-15.006,2.364,-18.759,12496.804,-2.383
-19.349,-30.659,-8.751,-22.168,-5.651,-26.204,11247.025,-14.559
-16.354,-28.069,-6.039,-17.255,-2.718,-20.652,11300.238,-7.003
-10.527,-23.649,2.473,-8.015,6.154,-10.791,12802.021,8.001
-12.363,-25.467,3.515,-7.584,7.297,-10.175,13861.277,8.89
-21.279,-32.256,-5.067,-15.863,-1.758,-18.234,13122.5,-4.949
-26.877,-36.916,-12.817,-22.448,-10.16,-24.427,11018.203,-16.328
-22.866,-34.84,-11.02,-20.546,-8.553,-22.014,8772.964,-13.504
-14.497,-28.879,-3.417,-14.076,-0.659,-14.619,7066.334,-2.996
-12.26,-26.593,-1.493,-12.634,1.658,-11.989,5794.883,-0.283
-17.919,-30.062,-8.88,-19.014,-5.666,-17.596,4734.99,-9.692
-22.188,-32.567,-16.231,-24.977,-13.573,-23.315,3784.576,-18.96
-18.968,-28.75,-15.529,-23.041,-13.675,-21.184,2650.043,-16.986
-13.121,-22.313,-10.864,-16.576,-9.273,-14.442,1263.5,-8.801
-11.2,-19.845,-9.929,-13.435,-7.989,-11.323,550.308,-6.35
-13.066,-22.475,-13.629,-15.561,-11.383,-13.847,1523.574,-12.051
-14.944,-25.423,-17.102,-17.963,-14.703,-16.305,3308.466,-17.325
-14.714,-23.242,-15.531,-15.358,-12.712,-12.927,3987.784,-14.391
-13.307,-17.282,-10.029,-9.656,-6.76,-6.536,3721.5,-7.206
-13.077,-14.93,-7.339,-7.764,-4.068,-5.104,4067.035,-6.325
-14.926,-18.603,-10.879,-11.445,-7.821,-9.817,4690.243,-13.661
-17.957,-23.279,-17.345,-16.29,-14.493,-15.008,4207.38,-21.532
-20.375,-24.956,-22.228,-18.888,-19.865,-17.282,2795.416,-24.211
-19.157,-22.938,-22.603,-18.401,-20.92,-16.58,1384.999,-21.917
-12.44,-16.849,-17.515,-14.403,-16.067,-12.39,251.165,-16.855
-3.204,-7.733,-9.425,-7.761,-7.73,-5.116,-305.823,-10.853
3.216,0.368,-2.854,-1.921,-1.232,1.393,439.566,-5.822
6.282,4.48,0.547,0.843,1.507,4.147,2559.911,-2.482
8.813,5.855,2.714,2.058,3.085,4.643,4673.781,-0.093
8.417,4.751,2.828,1.114,3.04,2.991,5134.228,-0.787
3.187,0.801,-0.866,-3.55,-0.486,-1.754,4053.369,-5.81
2.062,0.74,-2.389,-5.061,-1.603,-3.133,2858.371,-7.309
12.111,10.442,4.76,3.937,5.671,5.623,2008.755,2.035
23.589,21.754,14.861,16.744,15.132,18.296,955.295,15.427
24.164,22.464,17.038,20.267,16.46,22.345,-143.899,20.123
18.237,14.303,10.542,12.552,9.716,15.147,-551.489,13.97
16.602,8.088,3.802,3.347,3.265,5.409,-397.707,5.467
17.276,6.021,1.165,-0.589,0.967,0.02,-575.179,0.256
13.292,2.549,-0.298,-1.596,-0.269,-2.104,-1335.4,-3.165
7.746,-2.63,-2.418,-2.323,-2.372,-2.867,-1963.404,-5.79
5.75,-6.721,-4.509,-2.607,-4.855,-2.786,-1909.484,-7.544
4.267,-11.404,-7.581,-4.511,-8.542,-4.852,-1549.343,-11.28
0.003,-17.492,-11.995,-9.851,-13.258,-10.829,-1559.984,-18.247
-3.14,-20.547,-14.64,-15.432,-15.679,-16.967,-1971.297,-24.12
-0.171,-17.305,-12.215,-16.458,-12.986,-18.299,-2220.471,-24.163
6.868,-10.782,-5.286,-12.28,-6.42,-14.348,-1988.249,-19.078
11.108,-7.171,1.626,-7.067,-0.338,-9.196,-1594.258,-13.196
9.529,-9.205,4.189,-5.178,1.823,-6.756,-1492.001,-8.967
5.355,-13.83,2.135,-7.052,-0.057,-7.547,-1659.709,-7.293
2.548,-16.979,-1.657,-10.298,-4.021,-10.221,-1705.296,-9.506
1.918,-17.408,-4.527,-12.432,-7.771,-12.826,-1437.272,-14.234
1.575,-16.506,-7.383,-13.819,-11.371,-14.712,-1082.948,-20.342
-0.404,-17.278,-13.372,-17.712,-17.404,-18.372,-927.498,-30
-2.066,-19.266,-19.504,-22.431,-23.4,-22.832,-933.352,-37.837
1.234,-16.327,-16.972,-19.86,-20.972,-20.417,-843.316,-31.789
9.818,-6.146,-4.879,-8.478,-8.746,-8.854,-559.766,-13.238
17.259,3.38,6.222,1.525,2.946,2.058,-249.806,1.161
18.903,5.338,9.476,3.41,6.558,4.897,-76.661,2.969
19.212,4.935,10.073,4.054,7.065,6.031,16.593,2.003
22.589,8.683,12.39,9.837,9.357,12.311,182.259,7.035
24.321,11.547,11.961,14.922,8.771,18.349,438.194,12.588
20.039,7.074,6.742,13.168,2.816,17.205,674.526,11.569
13.499,-0.964,1.94,8.045,-2.63,11.413,837.582,6.072
8.898,-6.189,0.305,4.102,-3.996,6.268,994.514,0.061
5.817,-8.458,-0.057,0.816,-3.588,2.617,1208.323,-6.02
3.84,-10.246,0.523,-2.097,-2.557,0.175,1440.031,-9.638
4.077,-11.507,2.664,-2.598,-0.341,0.174,1625.055,-7.411
5.881,-10.653,4.868,-0.492,1.756,2.598,1784.854,-2.158
7.174,-7.719,6.032,1.582,2.66,4.946,1989.328,0.177
7.504,-4.852,7.022,2.011,3.649,5.434,2235.304,-1.864
8.333,-3.12,8.438,2.283,5.56,5.385,2443.632,-4.87
11.051,-0.257,10.18,4.282,7.704,6.983,2585.566,-5.26
15.253,5.396,12.063,7.463,9.538,10.217,2735.232,-2.91
19.072,10.797,13.487,9.722,10.734,12.825,2957.879,-0.796
21.708,13.166,15.01,10.661,11.853,13.601,3205.131,-0.116
23.81,15.085,18.304,12.374,14.465,14.582,3380.988,1.947
25.068,18.519,22.346,15.377,17.91,17.107,3483.149,6.326
24.506,20.006,24.611,17.375,19.9,19.056,3610.324,9.474
22.846,17.521,26.312,18.424,21.366,19.906,3821.479,10.366
21.203,14.648,29,20.43,23.717,21.636,4049.305,11.622
18.249,13.201,28.237,20.227,22.938,21.873,4194.512,11.67
12.268,9.771,20.038,13.395,15.359,16.512,4268.945,6.77
5.022,3.485,9.658,4.086,5.785,9.009,4383.917,0.18
-0.272,-0.863,4.899,0.382,1.449,6.189,4595.164,-1.755
-3.969,-1.127,5.186,2.215,2.008,7.541,4819.041,0.174
-9.264,-2.041,4.456,2.591,1.914,7.122,4944.664,0.145
-16.543,-6.598,1.106,-0.984,-0.776,3.298,4991.034,-3.146
-21.981,-9.892,-1.391,-4.092,-3.329,0.082,5083.459,-5.647
-23.085,-7.865,-2.235,-4.651,-4.767,-0.717,5276.739,-5.764
-22.662,-5.381,-4.378,-6.138,-7.248,-2.05,5475.699,-6.43
-24.36,-7.977,-7.516,-9.453,-10.32,-4.78,5571.015,-8.412
-26.99,-12.404,-8.055,-10.578,-10.847,-5.491,5595.531,-8.531
-27.053,-12.634,-6.32,-8.371,-9.383,-3.014,5674.356,-6.094
-23.612,-8.733,-5.527,-5.936,-9.028,-0.087,5848.506,-4.045
-17.831,-3.99,-4.88,-3.539,-8.7,2.619,6023.486,-2.549
-11.579,0.349,-1.574,1.27,-5.28,7.125,6102.71,1.478
-7.346,3.777,2.611,6.762,-0.696,12.121,6117.955,7.485
-6.39,5.048,3.202,7.848,0.042,12.973,6181.016,10.533
-7.713,3.379,-0.731,3.187,-3.998,8.196,6325.736,8.293
-9.682,-0.406,-5.704,-2.891,-8.916,1.674,6464.629,4.158
-10.694,-3.326,-7.245,-4.843,-10.334,-1.132,6517.815,3.234
-10.092,-3.547,-4.763,-2.245,-7.925,0.835,6521.845,6.244
-10.135,-4.288,-3.377,-0.573,-6.567,2.553,6570.085,8.335
-12.865,-8.223,-6.594,-2.646,-9.53,0.893,6684.613,6.831
-16.175,-12.008,-10.745,-4.913,-13.238,-1.046,6792.894,5.011
-17.325,-12.165,-11.443,-4.423,-13.485,-0.872,6827.738,4.903
-16.359,-9.592,-8.933,-1.751,-10.761,0.53,6817.681,5.033
-14.661,-7.26,-6.049,0.829,-7.897,1.799,6847.585,4.501
-14.324,-7.796,-5.482,0.564,-7.302,1.145,6940.253,2.992
-17.378,-11.768,-7.452,-2.757,-9.129,-2.152,7025.55,0.36
-23.353,-17.777,-10.398,-7.133,-11.927,-6.972,7040.544,-3.107
-29.104,-23.492,-13.679,-11.349,-15.148,-12.084,7015.012,-7.298
-31.111,-26.146,-16.083,-13.62,-17.656,-15.148,7026.343,-10.345
-27.915,-24.211,-14.812,-11.277,-16.432,-13.047,7096.253,-8.592
-21.122,-18.308,-9.23,-4.689,-10.7,-6.281,7168.281,-1.835
-13.775,-10.563,-2.178,2.527,-3.714,0.897,7187.619,5.419
-8.207,-4.14,3.242,7.583,1.41,5.401,7171.971,9.492
-5.94,-1.781,5.37,9.312,3.611,6.418,7178.457,9.64
-7.402,-3.711,3.711,7.162,2.309,3.848,7219.789,6.212
-10.744,-7.786,-0.785,2.482,-2.169,-0.845,7250.768,0.853
-13.558,-11.832,-6.444,-2.487,-8.1,-5.556,7236.748,-4.642
-15.169,-14.614,-11.328,-6.638,-13.003,-9.432,7201.692,-9.657
-15.74,-15.471,-13.193,-9.17,-14.354,-12.056,7192.571,-13.152
-14.823,-14.481,-11.521,-9.572,-11.866,-13.054,7216.929,-13.826
-10.648,-11.173,-7.731,-7.342,-7.715,-11.349,7239.259,-10.959
-2.195,-4.578,-2.933,-1.449,-3.615,-5.363,7232.204,-4.365
8.832,5.095,3.562,8.417,1.701,4.766,7209.994,5.623
21.308,17.864,14.631,22.314,12.27,18.406,7204.867,19.908
32.804,30.81,28.793,37.325,26.733,32.851,7219.312,37.022
35.092,34.932,35.257,44.184,33.526,39.319,7220.427,47.323
26.166,28.215,28.656,38.344,26.858,33.028,7190.116,42.987
19.22,23.058,21.201,30.515,19.12,24.397,7153.857,33.621
24.821,28.675,26.548,34.173,24.389,27.426,7140.441,38.4
35.995,38.61,40.275,46.282,38.319,39.657,7138.603,55.673
38.88,40.617,43.857,48.496,41.726,42.483,7113.158,55.548
28.854,30.194,27.126,30.501,23.91,24.973,7051.129,21.653
14.69,14.986,2.792,4.74,-1.834,-0.872,6976.719,-23.384
7.345,5.856,-11.109,-11.166,-16.474,-17.488,6919.776,-52.421
7.039,4.778,-13.168,-13.998,-18.34,-20.815,6884.146,-59.017
10.501,9.4,-6.693,-5.952,-10.959,-12.006,6856.921,-40.113
18.751,18.4,11.118,12.426,8.593,8.324,6829.268,6.166
24.342,22.119,27.667,26.139,27.391,23.986,6794.193,47.995
14.58,9.662,16.164,11.66,16.724,10.276,6744.416,29.738
-2.553,-8.438,-18.68,-22.825,-19.961,-24.389,6682.559,-42.059
-4.041,-9.849,-35.831,-38.517,-39.576,-39.964,6619.463,-85.785
13.044,7.167,-18.58,-22.411,-22.833,-23.234,6560.808,-64.558
28.606,23.857,4.892,-1.301,1.51,-1.594,6505.784,-27.613
31.333,29.613,12.621,6.27,9.658,6.521,6457.458,-11.837
30.347,30.822,14.476,9.882,11.316,10.877,6418.982,-1.595
34.446,33.874,20.756,17.717,17.479,19.258,6380.209,12.887
38.87,35.417,23.761,21.997,20.505,23.747,6326.844,16.241
36.877,31.374,18.275,18.071,14.852,19.999,6256.789,7.178
30.221,24.129,12.872,13.514,9.204,15.574,6175.938,5.112
22.908,16.943,12.527,12.255,9.053,14.125,6092.283,14.127
14.489,9.178,10.16,7.723,7.324,9.274,6015.059,16.281
5.544,1.579,3.472,-0.96,1.075,0.567,5949.511,7.309
2.528,-0.36,3.109,-2.104,0.917,-0.331,5899.717,8.428
7.587,4.154,12.21,7.199,10.502,9.133,5871.392,26.012
11.597,6.871,14.638,10.349,13.156,12.018,5853.037,29.106
8.826,4.482,0.391,-1.765,-2.008,-0.514,5808.161,-1.974
5.46,3.084,-16.263,-14.738,-20.067,-13.042,5716.193,-36.367
4.249,2.281,-21.674,-17.531,-25.98,-14.092,5608.489,-40.983
-0.528,-5.134,-22.226,-19.124,-25.91,-13.733,5535.112,-31.631
-6.982,-15.024,-24.098,-25.138,-26.96,-19.18,5496.95,-35.743
-4.658,-14.86,-20.798,-25.137,-23.542,-20.155,5441.553,-43.869
9.237,-1.658,-9.11,-11.891,-12.649,-7.951,5342.452,-35.471
26.121,16.854,4.536,7.326,0.054,11.202,5224.815,-15.639
34.397,29.402,12.573,20.106,8.065,24.634,5098.1,0.293
29.161,28.257,12.234,20.702,8.596,25.933,4950.445,9.265
17.063,17.29,7.047,13.426,4.241,18.973,4804.31,12.927
7.467,6.887,1.483,4.992,-0.882,10.527,4692.684,7.475
3.211,2.47,-3.229,-1.156,-5.223,4.254,4598.565,-5.61
3.734,3.784,-5.125,-1.942,-6.985,3.183,4478.415,-11.667
7.157,7.336,-2.445,2.627,-4.62,7.463,4328.24,-2.283
8.959,7.795,0.975,5.461,-1.134,10.21,4186.09,8.584
7.125,3.841,0.138,1.51,-1.106,5.975,4077.158,4.443
5.387,0.077,-3.434,-4.637,-4.114,-0.846,3984.011,-9.059
6.767,0.213,-4.466,-6.166,-5.363,-2.853,3874.857,-13.573
8.566,2.425,-1.98,-3.064,-2.889,0.256,3745.925,-4.038
6.273,2.29,-0.806,-1.487,-1.091,1.774,3621.966,5.519
-0.7,-2.482,-5.312,-6.619,-4.957,-3.989,3517.975,0.566
-8.273,-9.897,-13.316,-16.515,-12.737,-14.811,3418.351,-15.568
-10.52,-14.166,-17.252,-22.587,-16.666,-21.62,3302.236,-25.311
-3.548,-9.502,-11.587,-17.089,-10.901,-16.748,3176.749,-17.155
10.229,3.218,0.788,-2.415,1.351,-2.766,3067.705,1.356
21.328,14.682,10.077,8.923,9.841,7.874,2980.048,12.144
21.878,16.885,9.816,8.453,8.638,6.755,2888.885,7.591
14.768,11.712,3.761,1.107,2.423,-0.996,2774.762,-2.136
7.628,5.129,-0.96,-4.741,-1.592,-6.897,2647.837,-5.785
2.265,-0.878,-2.98,-8.311,-2.523,-10.518,2529.302,-5.333
-3.401,-7.242,-5.591,-13.144,-4.183,-15.912,2424.914,-8.469
-8.026,-12.544,-9.592,-18.313,-7.979,-22.13,2325.617,-14.631
-7.367,-12.117,-10.955,-17.873,-10.004,-22.49,2222.42,-15.364
-1.835,-5.753,-7.488,-10.772,-7.221,-15.683,2112.501,-7.716
2.252,-1.111,-3.221,-4.659,-2.858,-10.024,1998.805,0.436
1.407,-3.084,-2.303,-5.061,-1.168,-11.162,1888.496,1.379
-1.581,-7.463,-3.617,-8.441,-1.601,-14.969,1792.806,-3.023
-4.662,-9.846,-4.708,-9.877,-2.257,-16.544,1877.939,-6.437
-9.406,-12.159,-6.618,-10.519,-4.294,-17.636,2883.422,-7.473
-16.163,-17.318,-11.695,-13.929,-9.458,-21.908,5847.668,-9.67
-21.092,-22.535,-17.789,-18.667,-15.157,-27.423,10419.446,-13.636
-18.644,-20.6,-18.288,-18.312,-15.166,-27.392,14305.339,-14.026
-9.286,-10.517,-11.622,-11.141,-8.391,-20.132,15698.364,-8.04
-1.045,-1.223,-4.409,-3.765,-1.294,-12.606,15032.474,-0.826
1.983,2.102,0.167,0.393,3.135,-8.778,13467.099,4.216
2.438,2.686,4.587,4.134,7.085,-5.98,11441.193,8.921
1.205,1.252,6.8,6.184,8.52,-4.881,9382.081,10.909
-1.254,-3.071,3.558,3.59,4.887,-7.792,7977.06,6.792
-2.957,-7.272,-1.84,-1.165,-0.212,-12.277,7175.894,0.543
-4.98,-9.537,-5.005,-4.808,-2.89,-15.685,6249.865,-2.845
-7.236,-9.828,-3.948,-5.078,-1.455,-16.228,5034.93,-1.879
-5.334,-6.908,2.017,-0.154,5.064,-11.902,4157.613,3.63
-0.33,-3.119,7.977,5.509,11.777,-6.569,3896.766,9.11
0.282,-3.812,6.818,4.718,11.072,-7.084,3616.41,7.992
-4.394,-8.016,0.45,-0.797,4.736,-11.954,2678.393,2.459
-7.874,-10.004,-4.065,-3.989,0.448,-14.57,1339.079,-0.292
-8.032,-9.307,-6.04,-4.467,-0.942,-14.757,357.383,-0.252
-7.698,-9.153,-8.129,-6.205,-2.821,-16.438,29.892,-1.799
-7.342,-9.174,-9.506,-8.753,-4.593,-18.946,-95.84,-4.482
-6.374,-7.953,-9.647,-9.892,-5.121,-19.798,-588.59,-5.489
-7.113,-7.939,-11.417,-11.602,-6.864,-20.877,-1434.56,-5.592
-10.648,-10.938,-15.249,-15.406,-10.43,-24.006,-2140.654,-6.45
-13.513,-13.497,-16.77,-17.851,-11.852,-26.212,-2412.026,-7.241
-13.208,-12.988,-14.427,-17.033,-9.598,-25.642,-2486.714,-7.708
-11.658,-11.876,-12.373,-15.985,-7.428,-24.842,-2768.001,-8.733
-11.162,-11.756,-12.823,-16.271,-7.669,-24.974,-3302.853,-8.972
-11.161,-10.448,-12.948,-15.8,-8.027,-24.099,-3777.365,-6.843
-10.077,-7.293,-11.038,-13.829,-6.805,-22.037,-3970.526,-4.478
-8.588,-5.706,-9.574,-12.523,-6.042,-21.201,-4023.773,-4.842
-8.462,-7.669,-10.438,-12.59,-7.318,-21.68,-4205.852,-6.604
-9.573,-10.507,-12.39,-12.572,-9.449,-21.494,-4554.656,-6.914
-10.79,-11.679,-14.198,-12.636,-11.508,-21.388,-4874.365,-6.869
-11.393,-11.647,-15.627,-13.376,-13.239,-22.486,-5023.978,-8.282
-11.002,-11.253,-16.1,-13.478,-13.705,-22.893,-5078.302,-9.443
-9.624,-9.65,-15.024,-12.131,-12.355,-21.159,-5193.492,-8.394
-7.304,-5.821,-12.559,-9.922,-9.661,-18.096,-5405.478,-5.464
-4.075,-1.149,-9.227,-6.962,-6.193,-14.484,-5612.91,-1.843
-1.149,1.392,-5.8,-3.742,-2.673,-11.282,-5721.581,0.57
-0.861,0.35,-3.928,-2.448,-0.683,-10.599,-5750.463,-0.099
-3.034,-2.692,-4.345,-3.842,-0.913,-12.652,-5792.584,-2.759
-4.218,-4.702,-5.05,-5.394,-1.534,-14.54,-5901.361,-4.061
-3.233,-4.441,-4.311,-5.237,-0.954,-14.569,-6040.3,-2.983
-2.48,-3.07,-3.353,-4.281,-0.192,-13.77,-6146.669,-1.731
-3.117,-1.822,-4.089,-4.045,-0.926,-13.423,-6203.328,-2.458
-3.599,-0.848,-6.315,-5.042,-3.12,-14.043,-6200.861,-4.72
-3.041,-0.299,-8.546,-6.534,-5.457,-15.144,-5840.322,-5.961
-3.491,-0.906,-10.172,-7.683,-6.908,-15.958,-4169.301,-5.032
-6.214,-2.308,-10.928,-8.2,-6.973,-16.149,-490.783,-3.377
-8.433,-3.232,-10.3,-7.842,-5.75,-15.476,3882.522,-2.126
-7.89,-3.698,-8.906,-6.848,-4.352,-14.401,6653.678,-1.22
-5.886,-3.681,-8.339,-5.708,-4.025,-13.615,7541.785,-0.525
-3.753,-2.005,-9.458,-4.892,-5.043,-13.22,8116.402,-0.328
-1.864,0.869,-11.555,-5.181,-6.798,-13.562,9102.567,-1.519
-1.487,2.532,-13.368,-6.317,-8.708,-14.605,9547.756,-4.235
-2.965,2.034,-14.473,-7.045,-10.521,-15.286,8527.637,-6.606
-4.925,-0.252,-15.561,-8.021,-12.221,-15.962,6526.362,-7.435
-7.414,-4.389,-17.617,-10.86,-14.128,-18.215,4424.044,-8.199
-10.24,-7.929,-19.536,-13.553,-15.406,-20.417,2326.291,-9.387
-10.213,-7.038,-18.357,-12.297,-13.902,-19.237,344.327,-8.924
-6.083,-2.558,-12.784,-6.473,-8.474,-14.252,-867.906,-4.44
-1.803,1.154,-4.896,1.225,-0.509,-7.515,-1249.095,4.796
-2.092,0.494,-1.144,4.223,4.014,-4.6,-1900.305,12.666
-7.854,-5.372,-8.441,-3.834,-2.319,-11.44,-3601.475,10.036
-15.735,-13.104,-23.723,-18.421,-17.284,-24.007,-5501.185,-0.827
-22.043,-19.228,-35.494,-29.105,-29.286,-33.444,-6284.376,-12.071
-26.283,-24.165,-37.222,-33.013,-30.953,-38.087,-6099.811,-20.161
-29.998,-29.572,-30.444,-31.495,-23.378,-38.07,-6289.786,-14.663
-34.338,-35.525,-22.2,-26.373,-14.335,-32.936,-7451.603,8.642
-37.975,-38.905,-22.117,-23.636,-15.038,-28.616,-8708.97,24.73
-38.727,-36.85,-30.774,-27.339,-25.908,-31.358,-9055.202,11.396
-37.841,-32.984,-40.291,-35.583,-37.155,-40.377,-8715.885,-21.713
-36.264,-30.791,-47.807,-44.616,-46.025,-50.509,-8717.891,-56.198
-30.771,-26.348,-50.604,-47.368,-50.68,-53.538,-9458.481,-76.305
-20.579,-16.843,-41.725,-37.809,-42.686,-43.921,-10270.969,-68.544
-9.785,-6.003,-23.471,-21.006,-23.488,-26.764,-10427.749,-39.317
-1.673,2.309,-7.357,-7.294,-6.511,-12.108,-10100.449,-11.512
3.42,8.004,1.291,0.262,1.638,-3.734,-10032.168,1.742
7.036,12.534,7.003,5.471,6.698,1.78,-10508.221,5.249
10.276,16.038,13.925,11.116,13.919,8.092,-11047.6,8.507
11.947,18.035,19.648,16.853,20.255,15.432,-11112.326,15.582
10.611,18.464,20.54,21.186,21.262,21.482,-10801.181,24.604
7.902,17.417,18.986,23.389,19.506,24.513,-10657.081,30.507
7.481,15.929,21.164,25.085,21.695,26.314,-10928.802,31.207
7.468,12.749,24.65,24.742,25.538,26.131,-11298.928,27.502
1.669,5.158,20.336,18.035,21.646,20.216,-11377.853,21.726
-5.513,-0.986,13.842,12.951,15.451,16.878,-11160.616,26.951
-2.142,3.739,19.826,22.663,21.709,28.921,-10851.222,51.708
9.486,15.582,32.126,37.815,34.003,45.434,-10559.358,68.808
16.93,23.836,34.363,39.653,35.494,46.411,-10308.659,51.388
18.576,26.475,29.369,32.405,29.258,37.405,-10032.257,23.735
17.062,23.618,22.428,24.726,20.821,29.32,-9615.341,8.595
8.218,12.346,5.434,8.18,1.915,13.338,-8544.199,-18.605
-6.06,-2.029,-16.389,-14.6,-21.383,-9.528,-3963.098,-61.651
-13.45,-7.65,-21.807,-21.409,-26.915,-16.478,7893.249,-75.879
-6.725,-0.49,-6.664,-5.737,-11.556,0.238,23839.307,-45.764
6.797,11.825,11.446,14.026,6.101,21.534,34231.356,-9.63
14.95,19.288,19.789,23.307,14.229,31.836,35567.646,5.121
16.805,20.878,22.91,25.864,17.898,35.157,32852.05,10.545
17.799,20.66,26.573,27.669,21.902,37.976,29666.89,18.716
16.007,17.326,26.121,25.662,21.311,37.106,25907.345,20.694
9.899,10.579,20.061,19.483,15.346,31.649,22368.67,12.866
4.085,5.723,15.185,15.424,10.722,27.661,20148.429,7.685
-1.48,2.339,12.671,13.952,8.244,26.067,17989.665,10.319
-8.941,-4.547,9.05,10.631,5.018,23.054,14120.094,12.049
-13.549,-11.733,6.242,6.673,3.327,19.977,9502.685,8.461
-11.774,-12.774,6.766,5.878,4.916,20.425,7188.404,5.403
-8.182,-9.665,8.821,7.892,7.375,23.814,8192.87,8.5
-7.635,-8.354,11.103,10.939,9.856,27.985,9950.58,17.725
-9.305,-9.406,13.832,14.301,13.057,31.896,10073.071,30.386
-11.945,-10.653,13.207,13.736,12.722,31.406,10185.567,36.893
-17.932,-14.283,3.162,3.1,2.052,20.244,14221.348,22.39
-25.596,-21.338,-11.446,-11.337,-14.061,4.459,21621.151,-3.616
-27.447,-24.771,-17.413,-14.893,-21.442,-0.454,25369.518,-11.785
-22.801,-20.414,-15.163,-10.197,-19.663,3.579,21511.58,-8.47
-18.556,-14.333,-15.871,-11.129,-20.47,2.023,15177.207,-22.46
-17.285,-12.331,-19.514,-15.277,-24.776,-2.929,11986.82,-41.592
-17.845,-14.985,-19.996,-13.585,-25.81,-1.34,11643.569,-38.177
-21.224,-20.802,-20.143,-11.007,-25.543,1.694,13147.386,-24.453
-25.935,-24.921,-22.786,-13.023,-27.794,-0.396,16956.044,-22.034
-25.915,-21.983,-21.43,-12.178,-26.844,-0.013,20956.876,-20.685
-20.17,-14.482,-12.917,-4.372,-18.391,7.933,22086.807,-7.473
-15.258,-9.814,-5.074,1.484,-9.645,14.611,21022.012,5.713
-14.451,-9.747,-3.619,-0.368,-7.594,13.445,20215.227,6.564
-15.541,-11.694,-5.408,-4.778,-9.77,9.003,19681.754,1.328
-17.087,-14.33,-6.378,-6.181,-11.001,7.265,18075.495,1.006
-17.764,-15.558,-5.542,-4.491,-9.586,8.992,15639.751,6.085
-15.133,-12.693,-3.028,-2.328,-6.407,11.088,13542.417,8.003
-9.437,-6.955,-0.273,-1.814,-3.509,10.825,11531.965,2.447
-5.058,-3.489,-0.32,-3.738,-3.488,8.099,8393.138,-4.866
-5.242,-4.495,-3.24,-6.404,-5.938,5.366,4267.859,-6.686
-6.739,-5.385,-4.278,-5.719,-6.329,6.528,623.056,-1.514
-4.842,-2.438,-0.979,-0.91,-2.551,11.637,-1741.441,5.885
-1.922,0.481,2.368,2.92,1.137,14.99,-3182.477,8.377
-3.299,-1.945,1.057,1.674,0.109,12.742,-4262.482,4.448
-7.552,-7.185,-2.844,-1.651,-3.64,8.478,-5112.475,0.279
-9.346,-8.093,-3.699,-1.176,-4.439,7.882,-5257.297,1.219
-8.399,-4.151,-0.178,3.71,-0.841,11.049,-4136.986,6.451
-8.106,-1.203,4.573,9.037,3.872,14.304,-2174.507,12.556
-8.688,-1.417,8.431,13.022,7.495,16.764,-819.063,17.162
-8.027,-1.67,11.032,15.844,9.968,18.821,-1335.489,18.066
-6.883,-0.852,10.129,14.654,9.145,17.032,-3853.082,11.564
-7.102,-1.083,5.087,8.55,4.001,10.199,-7392.987,0.108
-7.515,-1.7,1.637,4.605,0.128,5.775,-10664.462,-3.844
-8.761,-2.161,1.779,5.651,0.104,6.785,-12998.178,1.724
-14.13,-6.04,-0.113,4.921,-1.247,5.801,-14471.996,4.053
-19.408,-10.652,-2.061,3.865,-2.504,3.756,-15481.717,3.478
-16.769,-7.725,3.051,10.872,2.666,9.807,-16567.35,10.128
-8.53,1.09,10.954,21.93,10.155,20.901,-18038.471,19.305
-2.542,6.906,14.081,27.425,13.282,27.097,-19563.948,23.552
-1.886,5.762,14.558,27.686,14.525,27.754,-20597.905,28.074
-5.254,0.014,16.507,27.379,17.416,27.302,-20763.052,35.402
-9.554,-5.148,17.954,26.134,19.549,25.85,-19646.569,35.963
-12.965,-7.787,14.898,21.262,17.044,21.147,-17018.662,25.138
-15.613,-10.003,7.96,14.778,10.312,15.419,-13384.596,14.943
-15.848,-10.567,3.03,12.977,4.845,14.757,-9918.214,17.519
-12.389,-6.801,4.259,17.85,5.13,20.41,-7521.669,28.623
-8.798,-2.039,8.924,23.31,9.202,25.641,-6033.131,35.838
-9.366,-1.905,10.819,21.835,11.1,22.635,-4867.784,29.784
-14.541,-7.57,4.698,11.017,5.019,9.255,-3907.893,5.247
-21.605,-15.234,-8.089,-4.045,-8.187,-8.025,-3275.316,-29.363
-26.505,-20.145,-16.875,-13.157,-17.133,-17.488,-3042.047,-47.058
-27.957,-22.224,-15.295,-11.956,-14.616,-14.883,-3193.217,-32.241
-28.55,-24.141,-10.699,-6.714,-8.778,-8.181,-3325.192,-4.909
-29.084,-25.368,-10.258,-3.853,-8.02,-5.188,-2862.336,8.519
-28.12,-24.771,-11.799,-4.097,-9.926,-6.436,-2151.66,5.085
-27.187,-24.347,-12.499,-6.851,-10.703,-10.238,-2649.936,-6.169
-27.705,-24.844,-12.426,-9.447,-10.349,-13.194,-5048.93,-14.565
-26.306,-22.195,-9.841,-5.867,-7.585,-9.33,-8230.071,-8.012
-20.833,-14.128,-2.854,4.393,-0.383,1.408,-11062.091,11.62
-15.196,-6.399,5.316,12.444,8.29,9.732,-13636.604,24.832
-13.922,-5.208,8.385,11.811,11.663,9.016,-16120.654,20.643
-16.788,-9.227,4.132,5.604,7.126,2.248,-17999.784,8.501
-20.355,-14.028,-3.202,-0.648,-0.615,-4.985,-18658.724,0.063
-21.149,-16.396,-6.764,-3.303,-4.285,-8.391,-17982.677,-1.828
-18.556,-14.999,-3.63,-0.616,-0.954,-5.769,-16596.212,1.284
-16.534,-12.504,1.444,4.153,4.606,-0.606,-15484.301,6.503
-17.422,-11.55,2.891,6.185,6.451,2.056,-15244.426,10.57
-17.361,-10.465,2.458,5.796,5.954,2.16,-16038.724,11.142
-13.846,-7.963,4.281,5.824,7.652,2.066,-17822.564,10.115
-9.668,-5.311,7.526,7.239,11.021,3.244,-20023.562,14.037
-7.638,-3.623,8.639,9.187,11.997,5.817,-21674.705,22.994
-8.588,-3.718,6.439,9.593,9.285,7.541,-22228.721,26.256
-11.355,-5.666,3.493,7.864,6.199,6.628,-21712.02,19.97
-12.47,-7.258,3.747,7.433,6.641,6.083,-20443.16,16.852
-10.766,-6.277,7.52,10.956,10.001,9.372,-19057.742,25.301
-8.846,-3.63,10.399,15.03,11.971,13.502,-18294.216,34.077
-7.575,-1.407,8.978,14.841,10.007,13.342,-18550.19,31.18
-6.279,-0.746,4.531,10.382,5.546,9.233,-19566.736,21.773
-6.442,-2.412,0.869,5.238,2.207,5.218,-20335.194,17.441
-8.519,-5.125,0.284,2.357,2.297,3.388,-19921.026,19.783
-9.257,-5.882,1.101,1.162,4.02,2.336,-18615.092,20.958
-6.439,-4.21,0.676,-0.611,4.128,0.483,-17602.27,17.112
-2.619,-1.723,-0.178,-1.762,2.949,-0.367,-17698.673,14.692
-1.21,0.693,0.362,-0.058,2.945,1.656,-18690.787,18.703
-1.81,2.237,1.05,1.773,3.894,3.652,-19327.357,23.484
-1.975,2.405,0.683,0.694,4.463,2.402,-18413.525,22.791
-1.196,2.013,0.333,-1.226,4.879,-0.202,-16367.178,18.365
-0.953,1.85,-0.899,-2.353,3.967,-1.727,-14669.952,13.461
-1.715,1.435,-5.188,-4.961,-0.343,-4.096,-13946.181,8.248
-1.637,0.495,-10.357,-9.283,-5.927,-8.532,-13689.918,3.407
0.409,0.606,-12.215,-11.253,-8.506,-11.308,-13378.772,1.344
2.57,2.652,-10.717,-9.34,-7.561,-10.334,-13008.777,2.53
3.683,5.536,-7.93,-6.621,-4.708,-8.572,-12741.319,4.015
5.979,9.549,-4.112,-4.138,-0.605,-6.99,-12567.068,3.921
10.53,14.873,-0.912,-0.886,2.119,-4.197,-12457.754,3.497
13.658,17.707,-2.377,-0.148,-0.398,-3.438,-12471.247,0.087
12.232,15.703,-8.483,-5.401,-7.042,-8.617,-12537.41,-11.683
9.226,12.782,-13.701,-11.992,-12.378,-15.724,-12488.512,-24.719
8.633,12.274,-13.941,-12.781,-12.969,-17.838,-12371.976,-24.384
9.878,13.22,-9.841,-7.842,-8.971,-14.295,-12438.723,-11.918
12.008,15.665,-3.315,-1.247,-1.789,-8.538,-12838.894,0.26
15.153,19.826,3.684,5.037,6.029,-2.605,-13482.714,9.221
17.317,22.949,7.784,9.752,10.329,2.587,-14128.035,17.81
17.893,24.595,7.451,11.616,9.612,6.039,-14575.534,22.625
19.078,26.889,5.117,10.218,7.001,5.96,-14853.936,16.97
20.512,27.617,2.373,5.414,4.36,0.611,-15134.304,1.71
20.771,24.652,-0.538,0.144,1.575,-6.206,-15424.138,-10.799
20.933,22.234,-1.048,-0.293,1.249,-7.135,-15570.672,-10.045
19.621,21.872,0.549,2.021,3.335,-4.121,-15611.087,-2.542
12.7,17.328,-2.804,-2.502,0.311,-8.057,-15844.27,-3.22
2.467,7.033,-13.254,-15.055,-10.521,-20.553,-16407.902,-13.376
-0.41,2.017,-18.676,-21.692,-16.704,-27.31,-16936.532,-17.989
11.46,13.031,-7.059,-10.814,-5.629,-16.6,-16921.018,-7.121
29.427,31.836,12.905,8.107,14.172,2.094,-16419.705,9.272
35.593,38.06,21.049,15.983,22.542,9.548,-16069.302,15.536
26.752,28.142,14.341,10.852,16.14,3.723,-16301.61,11.724
16.221,17.668,6.235,4.861,7.762,-2.609,-16875.363,7.796
10.313,13.796,1.804,1.236,2.736,-5.524,-17275.48,5.145
5.403,10.623,-3.04,-3.72,-2.059,-9.349,-17258.54,1.173
2.71,7.676,-6.478,-6.87,-4.967,-12.136,-16864.559,0.625
4.491,8.64,-5.376,-5.319,-3.73,-10.953,-16195.576,6.108
5.641,9.212,-3.938,-4.253,-2.41,-10.256,-15412.55,10.64
2.309,4.01,-5.675,-7.115,-3.882,-13.359,-14757.208,8.924
-0.429,-1.844,-6.602,-9.058,-4.296,-15.612,-14388.579,4.547
4.794,1.987,-1.721,-3.868,0.762,-10.653,-14277.969,4.724
18.129,17.451,7.536,7.98,9.637,1.414,-14311.56,12.885
30.972,33.063,14.286,18.092,15.842,11.998,-14399.744,23.013
34.671,36.175,14.393,18.972,15.964,12.933,-14456.155,25.498
30.754,29.249,11.917,13.989,14.142,7.506,-14421.533,20.219
26.644,23.691,11.344,10.774,13.957,3.822,-14408.277,13.157
24.053,21.99,10.347,9.377,12.531,2.042,-14610.945,6.803
21.033,19.362,7.229,6.595,8.739,-1.26,-14943.25,2.705
18.717,15.425,4.833,3.656,5.956,-4.625,-15065.245,1.599
18.405,13.276,4.745,3.509,5.598,-4.695,-14876.325,2.541
19.465,13.603,7.518,7.311,8.168,-0.433,-14611.014,8.221
21.22,15.193,13.88,14.007,14.705,7.243,-14424.675,20.756
21.741,16.775,20.437,19.887,21.916,14.772,-14267.602,33.847
18.446,16.132,19.955,19.173,22.071,15.001,-14124.776,35.302
12.532,11.638,9.482,8.721,11.408,3.646,-14054.351,16.36
9.629,7.097,-2.177,-4.302,-1.12,-10.687,-14029.819,-13.035
13.718,9.125,-2.813,-7.443,-2.163,-13.948,-13959.506,-28.152
20.48,16.24,5.191,-0.859,5.957,-6.992,-13824.357,-22.559
22.598,20.215,10.648,5.031,11.114,-1.168,-13679.308,-11.399
21.545,20.179,13.072,8.745,13.071,2.636,-13567.792,-0.779
22.907,21.392,16.588,13.876,16.772,8.423,-13498.521,10.109
24.899,22.96,17.797,16.28,18.533,11.132,-13488.475,12.003
23.591,21.076,14.484,13.156,15.361,7.403,-13566.699,1.787
21.632,18.323,11.553,10.701,11.863,4.35,-13694.056,-6.346
24.063,19.812,13.439,14.056,13.028,7.966,-13794.331,-2.144
29.972,25.011,18.862,20.959,18.637,15.579,-13930.635,8.453
33.316,28.877,23.176,26.308,24.018,21.229,-14247.659,16.082
32.497,29.078,23.933,27.552,25.425,22.128,-14714.962,18.508
31.424,27.889,22.309,25.848,23.442,20.262,-15175.997,17.356
31.187,27.548,20.274,23.575,20.796,19.042,-15508.59,13.635
30.849,28.084,20.026,22.576,20.482,20.019,-15546.691,10.245
30.703,27.349,21.904,22.322,22.723,21.064,-15172.788,10.629
29.778,23.447,23.379,20.347,24.373,18.443,-14513.142,13.589
28.539,20.781,24.859,18.854,25.753,14.918,-13780.809,17.272
28.29,23.642,27.591,21.539,28.369,16.078,-13117.642,21.914
25.901,25.549,27.428,23.65,28.012,18.203,-12610.23,25.006
20.275,20.585,22.571,19.849,22.891,15.235,-12211.556,22.856
17.095,14.887,18.576,14.327,18.911,9.939,-11802.974,16.52
19.919,14.906,19.468,12.833,20.206,7.221,-11428.754,11.445
25.082,17.677,23.079,14.998,24.163,7.517,-11202.881,12.239
26.822,17.854,25.438,17.547,26.406,9.259,-11040.86,18.199
23.933,15.547,25.615,18.907,26.378,11.184,-10788.117,24.166
20.941,15.08,25.955,19.872,26.934,13.137,-10489.732,25.779
21.358,18.073,27.462,20.683,28.743,15.052,-10283.993,22.751
22.636,20.877,28.379,20.508,29.617,16.076,-10151.363,18.996
21.226,20.683,28.434,20.308,29.596,16.379,-9941.349,19.852
18.243,19.108,28.383,20.869,29.607,16.514,-9595.64,24.215
16.697,17.661,25.548,19.729,26.329,15.501,-9232.592,22.831
17.415,16.343,18.533,16.043,18.123,13.391,-8995.59,12.857
19.865,16.447,13.132,13.734,11.742,12.537,-8888.634,5.287
22.288,18.563,14.213,15.232,12.839,14.079,-8809.397,8.459
21.282,19.809,18.063,17.66,17.413,16.144,-8694.355,16.354
15.756,16.696,18.32,17.126,18.574,15.837,-8573.46,19.325
8.564,9.176,12.83,12.858,13.79,12.06,-8528.657,14.918
3.3,1.524,5.311,8.01,6.295,7.513,-8646.841,7.971
3.994,0.739,4.521,8.986,4.634,8.615,-9002.529,8.307
13.015,10.233,15.11,19.549,14.09,19.408,-9636.377,21.414
23.818,21.846,27.522,31.901,26.189,32.168,-10312.969,36.232
24.557,22.334,27.574,31.972,26.987,32.29,-10520.951,34.81
14.002,11.396,15.922,18.696,16.169,18.359,-10453.835,17.755
4.478,2.271,6.807,7.35,7.334,6.653,-11150.999,5.951
5.68,3.956,9.73,10.317,10.56,11.079,-12450.851,13.762
14.516,13.338,20.814,23.747,22.293,27.256,-12380.064,30.828
21.25,20.98,28.51,32.863,30.239,37.289,-9980.562,35.887
19.083,19.016,24.829,27.384,26.089,29.05,-6901.323,23.801
10.218,8.959,13.466,12.467,14.265,9.903,-4920.383,6.163
3.011,0.099,4.441,0.477,5.219,-4.692,-3934.456,-8.593
0.795,-2.645,2.442,-3.496,3.501,-8.867,-3429.019,-15.757
0.934,-1.651,6.238,-0.571,7.868,-4.527,-3629.31,-7.9
3.534,1.392,12.898,7.099,14.979,4.897,-4276.691,11.915
8.517,5.724,15.96,12.999,17.642,11.771,-4285.458,23.654
10.523,7.442,10.208,10.144,10.968,8.817,-3448.377,13.865
7.366,4.947,1.614,2.593,1.922,0.76,-2989.76,-3.419
4.032,2.792,-0.195,0.304,0.216,-1.187,-3662.844,-6.734
3.623,3.784,2.787,3.247,3.393,3.258,-4589.847,0.538
4.026,5.078,2.203,3.842,2.802,5.084,-4788.36,0.266
3.601,4.22,-2.457,0.43,-2.425,1.508,-4589.091,-8.979
2.211,1.699,-6.188,-3.14,-7.074,-2.84,-4721.099,-14.435
-0.249,-0.387,-6.265,-4.267,-7.455,-4.125,-5100.131,-11.444
-1.873,0.125,-2.17,-2.349,-2.78,-1.629,-5190.833,-5.686
-0.05,2.842,4.297,1.549,4.389,2.774,-4790.942,-1.348
5.786,6.805,10.322,6.197,10.7,7.143,-4111.324,3.515
13.547,11.448,14.192,10.025,14.512,10.351,-3531.863,8.856
17.649,13.361,13.782,9.453,13.784,9.906,-3302.604,8.397
15.301,11.303,10.897,5.374,10.449,6.322,-3225.273,2.788
12.684,10.064,11.928,4.134,11.28,4.404,-2830.766,1.069
15.382,12.088,16.511,6.217,15.907,4.886,-2065.037,2.922
20.594,15.088,19.109,8.04,18.245,6.066,-1438.973,2.849
24.528,18.532,20.576,11.725,19.015,10.397,-1266.388,5.406
26.136,21.939,23.024,17.524,20.96,16.812,-1206.35,12.647
23.652,21.033,21.979,17.401,20.095,16.706,-844.47,13.327
16.309,13.691,14.03,7.717,12.592,7.007,-282.038,1.771
7.051,4.468,3.592,-3.928,2.135,-4.297,119.54,-11.266
1.002,-0.952,-2.252,-9.463,-4.036,-9.121,270.326,-15.331
1.664,-1.352,-1.512,-8.44,-3.137,-6.785,407.888,-12.05
5.892,0.204,0.697,-5.683,-0.198,-2.342,734.888,-8.834
5.803,-0.957,-1.872,-6.769,-2.132,-2.605,1179.373,-11.277
-0.285,-6.019,-8.343,-12.764,-8.325,-9.438,1541.06,-18.655
-5.323,-10.556,-12.222,-18.422,-11.848,-16.708,1736.085,-24.839
-5.511,-11.721,-11.935,-20.289,-10.981,-19.409,1827.178,-27.024
-6.266,-12.67,-13.565,-22.07,-12.478,-20.721,1947.311,-28.449
-10.799,-14.874,-19.839,-26.114,-19.612,-23.738,2214.389,-30.815
-11.504,-13.264,-22.472,-26.834,-23.482,-23.78,2574.493,-29.852
-2.264,-4.895,-13.346,-19.625,-14.761,-16.337,2853.115,-21.826
9.825,5.087,1.79,-8.931,0.885,-5.537,3042.173,-10.059
15.823,11.398,11.22,-1.727,10.621,1.62,3274.754,-0.752
15.559,12.719,10.796,-1.95,9.954,1.029,3545.506,-1.119
10.581,7.562,2.296,-11.269,1.387,-9.063,3734.351,-16.951
2.804,-0.92,-8.973,-23.869,-9.702,-22.652,3864.071,-38.938
-0.218,-3.001,-13.997,-27.664,-14.795,-27.001,4091.292,-47.3
4.945,2.627,-10.241,-20.879,-11.228,-20.127,4430.174,-38.845
9.046,5.207,-6.438,-14.864,-7.465,-14.025,4764.173,-29.024
4.943,1.037,-8.396,-14.733,-9.49,-14.134,5059.603,-25.05
-0.66,-1.354,-11.039,-13.856,-12.152,-13.343,5181.318,-20.413
-0.511,1.146,-9.971,-9.776,-10.66,-8.853,4774.641,-15.197
1.683,1.651,-8.35,-8.364,-8.395,-6.933,3750.071,-16.521
0.003,-2.64,-9.178,-11.525,-9.053,-9.951,2514.415,-21.598
-4.378,-6.379,-10.597,-14.033,-10.764,-12.537,1504.588,-21.845
-8.208,-7.281,-11.703,-14.066,-11.962,-12.536,910.457,-20.37
-12.108,-9.652,-15.057,-16.199,-15.146,-14.556,872.948,-26.282
-13.175,-11.287,-16.611,-17.808,-16.776,-16.261,1504.761,-30.476
-3.299,-2.3,-5.983,-8.138,-6.297,-7.081,2704.373,-14.507
12.714,12.875,11.083,7.526,11.149,7.562,4213.733,8.775
17.516,16.131,13.77,9.164,14.202,7.729,5769.663,7.122
8.535,5.307,-0.823,-4.221,-1.241,-6.645,7109.141,-16.897
-0.631,-4.391,-14.702,-14.606,-16.802,-16.595,8011.515,-34.913
-3.387,-5.858,-16.512,-14.113,-19.268,-15.097,8455.784,-36.758
-3.285,-4.496,-9.579,-8.448,-11.285,-9.689,8654.37,-27.521
-2.901,-4.252,-2.106,-3.79,-2.382,-6.583,8804.714,-13.749
-2.091,-3.501,0.746,-2.776,1.122,-6.674,8911.102,-6.514
-2.572,-2.289,-1.47,-5.734,-0.976,-9.367,8946.45,-13.355
-6.738,-4.199,-7.9,-11.529,-7.719,-13.87,8983.116,-27.467
-11.234,-8,-14.733,-16.202,-15.639,-16.618,9087.043,-33.796
-10.321,-7.558,-15.528,-15.669,-17.576,-14.348,9233.529,-28.161
-6.716,-4.099,-12.057,-13.499,-14.414,-11.826,9347.608,-24.9
-7.686,-5.252,-12.28,-16.254,-14.482,-15.545,9373.128,-33.161
-12.66,-11.436,-15.901,-21.87,-17.907,-22.076,9336.715,-40.927
-15.543,-16.349,-16.808,-23.687,-18.319,-23.778,9353.26,-37.563
-14.671,-17.231,-14.202,-20.739,-15.006,-20,9516.428,-28.87
-12.718,-15.538,-11.103,-16.516,-11.603,-15.22,9784.624,-22.188
-10.698,-11.797,-8.375,-12.568,-9.083,-11.216,10012.846,-17.39
-8.355,-6.369,-5.969,-8.663,-6.782,-7.22,10108.579,-14.486
-7.403,-2.372,-5.717,-6.378,-6.351,-4.782,10129.777,-16.057
-8.512,-2.049,-7.615,-6.724,-8.4,-5.292,10192.714,-19.671
-9.413,-3.475,-7.544,-7.327,-8.826,-6.189,10319.367,-18.601
-9.808,-5.081,-4.455,-6.946,-5.693,-5.745,10441.317,-13.412
-12.583,-8.514,-3.655,-7.888,-4.262,-6.348,10525.488,-12.099
-16.152,-12.188,-6.303,-9.344,-6.813,-7.546,10615.759,-15.067
-12.493,-8.902,-5.269,-5.416,-6.566,-3.29,10744.421,-12.56
-1.829,1.164,0.592,3.222,-1.298,5.83,10870.552,-2.614
1.797,5.199,2.431,5.882,1.106,8.58,10943.091,3.345
-9.242,-4.621,-4.127,-3.614,-4.213,-1.297,10981.744,-4.322
-25.148,-20.433,-16.129,-19.66,-15.87,-17.38,11036.675,-23.934
-34.747,-31.276,-30.053,-33.434,-31.107,-30.487,11102.028,-44.484
-38.543,-35.873,-41.134,-41.355,-43.717,-38.028,11141.595,-55.662
-40.6,-37.347,-43.496,-42.845,-46.049,-40.199,11158.718,-55.189
-39.167,-34.514,-36.088,-36.477,-37.531,-34.346,11185.021,-44.891
-33.519,-27.7,-26.516,-26.396,-27.349,-23.375,11244.066,-32.158
-28.225,-21.941,-22.422,-20.663,-23.331,-16.447,11337.629,-25.799
-25.372,-18.816,-21.598,-19.119,-22.521,-14.727,11431.795,-22.942
-24.116,-16.97,-20.875,-18.082,-21.801,-13.875,11472.095,-19.75
-22.826,-15.189,-20.929,-16.883,-22.273,-11.913,11433.016,-19.808
-17.73,-10.188,-17.205,-11.945,-18.783,-5.285,11335.965,-19.283
-10.561,-3.125,-7.443,-3.086,-8.183,4.672,11107.238,-11.616
-8.784,-1.263,-0.699,0.951,-0.191,7.998,10407.75,-2.561
-11.899,-5.398,-3.195,-3.074,-2.703,2.321,9001.397,-0.757
-12.825,-8.393,-9.274,-7.682,-10.213,-3.124,7322.631,-4.424
-10.785,-7.202,-11.754,-7.953,-13.714,-3.182,6090.223,-6.189
-10.003,-5.646,-10.074,-6.563,-11.483,-1.574,5467.814,-4.543
-11.785,-7.124,-8.246,-6.68,-8.625,-1.937,5102.911,-4.595
-14.714,-11.123,-9.93,-8.506,-10.319,-3.996,4794.154,-9.243
-16.392,-13.986,-13.062,-9.765,-14.432,-5.423,4779.568,-13.897
-14.154,-11.441,-10.466,-6.806,-12.687,-3.343,5304.46,-11.541
-9.617,-5.148,-1.308,-0.469,-3.636,1.588,6145.497,-3.372
-8.596,-2.864,4.578,2.079,2.53,3.761,6885.446,0.934
-12.466,-7.027,0.101,-3.085,-1.988,-0.215,7388.884,-4.233
-15.982,-11.316,-9.631,-11.18,-12.206,-7.085,7703.705,-14.641
-15.071,-10.934,-14.53,-15.08,-17.41,-11.094,7895.005,-21.614
-11.697,-8.556,-11.711,-13.061,-14.351,-9.927,8142.487,-20.74
-11.373,-9.514,-9.205,-10.742,-11.584,-7.776,8623.651,-18.762
-16.18,-14.342,-14.455,-13.473,-17.052,-9.53,9309.05,-23.723
-21.051,-18.654,-22.612,-18.209,-25.546,-13.214,9996.065,-29.798
-21.385,-20.113,-25.128,-19.547,-27.995,-15.022,10438.41,-27.852
-20.364,-19.957,-22.928,-18.089,-25.647,-15.293,10637.358,-21.688
-21.427,-18.195,-20.758,-16.142,-23.746,-14.302,10986.442,-18.75
-20.772,-13.922,-17.726,-13.179,-20.988,-11.05,11692.219,-18.098
-15.763,-9.672,-12.904,-10.011,-15.841,-7.563,12332.205,-16.861
-12.143,-9.932,-11.162,-10.301,-13.352,-7.706,12491.02,-16.894
-14.172,-14.086,-15.063,-14.265,-16.658,-11.143,12379.736,-19.21
-14.894,-14.518,-17.431,-15.371,-18.954,-11.807,12434.588,-18.827
-7.206,-7.073,-11.829,-9.697,-13.745,-6.847,12726.655,-12.929
2.21,0.984,-4.811,-4.084,-7.233,-2.967,13021.296,-7.585
3.471,1.716,-5.438,-5.843,-8.176,-6.054,13178.418,-8.518
-1.692,-2.845,-11.719,-12.444,-14.557,-13.069,13284.297,-15.432
-5.859,-6.376,-16.84,-17.284,-19.78,-18.302,13437.325,-24.011
-6.063,-5.694,-18.754,-17.824,-22.021,-19.5,13586.999,-29.155
-4.796,-3.037,-20.872,-17.964,-24.621,-20.007,13613.602,-34.77
-5.046,-3.178,-25.411,-21.143,-29.625,-23.076,13459.305,-45.775
-4.343,-4.929,-27.25,-22.097,-32.044,-23.847,13181.631,-51.183
1.647,-1.934,-20.921,-15.176,-26.42,-17.404,12919.842,-40.191
10.667,6.486,-9.267,-3.835,-14.925,-7.094,12765.687,-19.78
16.331,14.011,0.877,5.312,-3.864,1.762,12634.531,-2.615
16.436,15.643,5.263,8.56,1.862,5.786,12313.43,4.227
13.316,11.524,3.17,5.308,0.563,3.494,11678.626,-0.231
9.511,5.395,-2.221,-0.686,-4.493,-1.537,10829.581,-9.232
7.498,2.231,-4.78,-2.827,-6.47,-2.489,9984.854,-11.576
9.449,4.131,-1.593,1.243,-2.356,2.643,9302.024,-2.874
13.11,7.593,2.911,6.305,2.697,8.36,8846.119,8.531
12.906,7.859,2.905,6.415,2.342,9.23,8698.185,11.204
8.474,5.128,-0.908,3.066,-2.126,7.502,8991.924,5.45
5.289,3.155,-2.914,2.503,-4.21,9.162,9787.358,2.918
5.322,3.123,-0.385,6.385,-1.21,14.532,10901.61,9.9
4.627,2.268,2.599,9.238,2.297,17.491,11868.552,17.517
-0.416,-2.923,-0.882,4.549,-0.864,12.598,12278.205,13.584
-8.114,-12.041,-10.423,-6.208,-10.46,2.486,12227.931,0.701
-10.932,-17.144,-14.26,-10.669,-14.646,-0.934,12113.355,-4.197
-3.859,-10.589,-4.801,-0.354,-5.6,9.635,12083.175,8.137
7.178,2.954,7.732,14.898,6.208,24.175,12098.894,24.552
14.588,13.17,11.945,21.173,9.595,29.345,12224.057,26.809
18.321,16.107,11.23,18.243,9.066,25.078,12467.286,14.529
18.541,12.737,11.072,12.857,10.063,18.418,12670.682,1.954
15.006,7.978,11.511,10.405,11.293,15.748,12790.812,1.247
12.251,7.901,13.189,13.353,12.984,19.719,12970.619,11.291
12.062,10.515,14.887,17.652,14.544,25.106,13233.811,20.91
10.077,9.166,12.998,17.294,12.744,25.049,13402.937,22.786
4.168,2.508,6.947,11.478,6.757,19.071,13360.94,16.931
-3.301,-6.537,-1.462,2.784,-2.071,10.093,13189.526,5.419
-9.399,-14.597,-9.267,-4.86,-10.524,1.832,13042.826,-5.766
-12.772,-19.162,-13.278,-7.915,-14.56,-1.746,12992.052,-8.991
-15.144,-21.447,-14.609,-8.034,-15.279,-1.314,12981.955,-5.494
-18.756,-24.749,-16.359,-9.302,-16.48,-1.381,12903.782,-2.52
-21.078,-28.048,-16.334,-10.475,-16.237,-2.165,12725.78,-1.103
-16.662,-25.404,-9.412,-5.643,-9.261,2.109,12534.324,3.832
-5.559,-14.002,3.47,7.151,3.755,14.442,12422.853,14.77
3.634,-1.374,13.141,19.612,13.538,26.712,12370.863,26.634
3.177,1.652,12.283,21.188,12.356,27.762,12276.906,31.412
-3.549,-4.31,5.414,13.714,4.914,19.717,12104.359,28.557
-7.062,-8.335,1.906,8.345,0.979,14.431,11925.961,24.845
-4.107,-5.029,3.385,9.496,2.027,15.704,11804.939,22.806
1.054,0.157,5.926,12.036,4.311,17.391,11707.99,18.223
3.458,1.107,7.013,11.336,5.677,15.561,11563.204,10.241
0.577,-2.724,4.158,6.903,3.114,10.978,11359.07,3.101
-7.054,-9.629,-3.536,-0.371,-4.758,3.99,11162.524,-1.827
-15.065,-17.044,-10.222,-7.044,-11.627,-2.986,11032.744,-4.336
-18.23,-21.11,-9.681,-8.358,-10.861,-4.611,10942.111,-1.106
-16.634,-20.683,-6.241,-6.128,-7.117,-1.914,10822.791,5.096
-14.295,-17.831,-8.076,-6.452,-9.078,-1.388,10665.622,5.503
-9.71,-11.67,-10.298,-6.338,-11.694,-0.575,10527.223,3.694
0.431,-1.369,-3.26,0.989,-4.666,7.255,10443.498,9.671
9.905,6.607,6.434,10.135,5.352,16.607,10368.638,18.405
12.214,7.534,7.955,13.157,6.956,19.333,10233.036,20.671
10.081,4.331,4.17,11.619,3.208,17.218,10044.252,17.386
5.27,-2.514,-0.151,7.048,-0.524,12.195,9875.681,11.348
-1.667,-11.957,-4.616,0.448,-4.196,5.04,9760.182,6.8
-2.141,-12.754,-3.98,0.926,-3.548,4.651,9649.445,12.037
9.593,1.519,5.939,14.02,5.547,17.195,9493.456,26.826
22.786,17.17,17.474,28.252,16.509,31.593,9314.72,38.199
24.742,19.271,20.857,30.88,20.18,34.749,9167.417,38.231
18.553,12.264,16.974,25.422,16.766,29.887,9054.74,33.822
13.713,8.015,12.762,20.989,12.607,25.949,8931.493,32.885
12.449,8.543,12.452,19.257,12.479,24.262,8776.468,34.265
11.561,7.889,14.647,17.316,15.552,21.722,8621.528,33.269
8.218,2.19,14.042,12.827,15.942,16.532,8497.876,28.015
3.22,-5.086,8.804,6.97,10.927,10.722,8386.602,21.963
1.085,-7.112,4.585,4.899,6.34,9.192,8247.345,21.461
5.148,-1.088,7.35,10.191,9.007,14.354,8071.837,27.812
12.855,8.866,15.113,19.052,17.055,22.297,7889.782,34.039
17.699,14.913,20.125,23.402,22.002,26.212,7733.034,32.978
16.723,13.488,19.039,21.151,20.176,24.622,7605.875,27.699
13.705,8.966,17.037,18.855,17.533,23.115,7494.032,27.977
12.335,6.308,18.858,20.77,19.654,25.207,7386.508,34.479
10.821,4.847,21.048,22.181,22.656,26.545,7273.097,36.693
7.551,3.044,18.857,18.939,20.739,23.103,7126.119,30.462
6.207,3.272,15.566,16.087,16.988,19.773,6892.032,25.345
9.962,7.455,18.296,20.868,19.112,24.317,6532.508,31.397
16.079,13.04,28.326,32.941,28.878,36.801,6083.851,48.552
19.548,16.341,39.161,44.145,39.933,48.391,5617.713,65.958
18.017,14.948,41.518,43.998,42.892,47.551,5182.637,65.695
12.929,8.005,32.454,30.309,34.299,32.102,4846.569,41.951
7.641,-0.831,20.261,15.125,21.908,15.647,4663.498,16.382
4.838,-5.164,14.82,10.141,15.95,10.878,4578.955,10.572
6.509,-1.867,17.041,13.623,18.14,14.999,4519.668,18.125
12.932,7.145,22.749,20.456,24.245,22.236,4491.167,26.784
19.753,15.568,28.593,28.806,30.226,31.446,4483.886,37
20.474,16.388,29.599,32.182,31.047,35.738,4423.902,43.77
13.651,8.664,21.205,23.445,22.522,26.995,4278.813,35.456
5.431,-0.777,9.02,9.123,10.222,12.316,4111.894,18.32
2.57,-3.862,5.142,3.793,6.201,6.964,3993.593,12.993
5.123,0.543,12.007,9.783,13.318,12.724,3926.243,24.246
8.298,5.423,19.684,14.99,21.671,17.236,3883.723,34.337
7.969,3.53,17.856,10.013,20.045,11.797,3846.832,26.893
6.519,-1.453,9.277,1.744,10.69,3.781,3780.831,10.54
12.832,3.841,9.881,6.686,10.484,9.555,3662.883,11.856
28.48,22.761,25.992,26.979,26.679,30.854,3524.438,37.256
41.214,39.471,41.71,43.568,42.761,48.033,3410.628,59.616
41.903,40.675,43.023,42.813,43.831,46.978,3340.923,58.085
36.738,33.812,37.297,34.581,37.646,37.785,3318.551,46.379
33.507,30.479,35.331,32.519,35.642,35.112,3306.926,44.406
29.987,28.671,34.787,34.724,35.25,37.821,3217.798,48.736
25.398,25.321,33.383,35.78,33.93,39.653,3002.74,49.348
25.382,25.458,36.11,37.69,37.022,41.042,2733.266,49.403
28.453,28.33,41.401,39.752,43.15,41.468,2524.063,51.834
25.889,24.772,40.1,35.524,42.606,36.089,2399.247,48.709
16.614,13.418,30.18,24.284,32.759,24.735,2298.238,35.844
8.402,4.231,19.891,14.189,22.145,14.893,2198.894,22.288
6.274,3.748,16.511,11.638,18.724,12.538,2144.229,17.027
7.611,7.2,17.649,13.527,19.972,14.643,2119.917,17.238
7.162,6.849,16,12.77,18.032,14.016,2018.105,15.928
3.143,1.426,9.669,7.262,11.247,8.317,1799.846,11.593
-1.699,-4.231,3.2,0.908,4.638,1.76,1577.75,7.095
-2.616,-4.925,1.776,-0.724,3.07,0.29,1449.679,6.556
3.244,1.031,6.856,5.148,7.421,6.336,1370.351,12.463
10.832,9.017,13.058,14.082,12.475,15.096,1253.935,20.766
10.015,10.088,13.059,17.197,11.903,17.876,1094.777,23.861
-0.022,2.064,7.654,12.465,7.169,12.974,961.462,20.534
-9.769,-7.866,2.29,5.55,3.07,6.258,937.308,15.514
-13.713,-14.154,-1.525,0.188,0.082,1.14,1043.972,12.016
-13.391,-15.909,-2.834,-2.406,-0.999,-1.758,1219.911,11.743
-10.267,-12.88,0.648,-0.83,2.467,-0.847,1396.475,14.996
-4.648,-6.423,6.989,3.555,8.672,3.064,1510.164,17.476
0.863,-0.051,10.788,7.116,12.02,6.439,1488.082,15.183
0.664,1.272,8.06,6.407,8.434,6.025,1366.046,9.881
-8.124,-6.115,-1.219,-0.757,-1.552,-0.198,1283.04,3.597
-19.034,-17.197,-10.583,-10.135,-10.899,-8.728,1273.169,-3.181
-20.356,-19.429,-9.978,-10.488,-10.042,-9.237,1245.038,-3.81
-9.879,-8.817,1.807,2.055,1.683,2.484,1148.994,8.111
0.1,2.556,13.454,15.582,13.517,15.382,1019.67,23.95
1.522,4.779,17.566,19.735,18.478,18.845,909.112,30.745
1.122,3.042,17.221,17.823,18.743,15.815,840.883,28.037
2.799,2.602,12.803,13.316,13.643,10.8,798.651,19.837
0.664,-0.614,2.78,4.414,2.029,2.722,759.416,7.327
-6.834,-8.334,-6.848,-6.033,-8.608,-6.744,722.471,-5.301
-13.903,-15.309,-10.008,-12.033,-11.506,-12.589,693.301,-12.413
-16.777,-17.868,-8.813,-12.977,-9.594,-13.248,679.937,-13.405
-17.312,-17.929,-8.094,-12.853,-8.468,-12.071,693.373,-12.216
-18.956,-19.589,-9.759,-15.22,-9.794,-13.958,725.415,-13.147
-21.23,-23.082,-12.604,-19.457,-12.261,-19.003,749.787,-16.593
-19.196,-21.984,-12.652,-19.95,-12.33,-20.046,731.345,-17.476
-11.754,-13.407,-7.693,-14.096,-7.783,-13.436,626.054,-12.729
-7.072,-6.831,-2.776,-8.795,-3.231,-7.143,420.397,-7.944
-11.632,-10.935,-4.014,-10.621,-4.59,-8.779,143.689,-8.478
-19.136,-19.605,-8.858,-15.32,-9.404,-13.738,-233.499,-10.551
-19.955,-21.355,-9.961,-14.885,-10.671,-13.418,-824.899,-9.211
-15.609,-16.021,-6.678,-10.316,-7.89,-8.981,-1658.613,-7.88
-13.894,-12.717,-5.402,-9.219,-6.917,-8.387,-2587.568,-11.445
-14.968,-13.562,-8.203,-11.91,-9.54,-11.452,-3402.976,-15.086
-14.563,-13.822,-11.328,-13.042,-12.682,-12.142,-3970.939,-13.512
-14.611,-14.782,-13.892,-14.2,-15.697,-12.653,-4294.223,-13.244
-17.326,-18.625,-15.61,-17.614,-17.429,-16.337,-4446.549,-17.931
-17.929,-19.419,-12.319,-16.926,-13.418,-16.513,-4463.619,-16.723
-12.785,-12.489,-3.176,-8.506,-3.816,-8.55,-4385.528,-3.906
-6.438,-3.557,5.031,-0.345,3.949,-0.841,-4319.203,7.05
-4.631,-0.81,7.02,0.234,5.41,-1.575,-4325.238,5.441
-4.91,-2.292,7.919,-0.881,6.798,-4.359,-4329.254,2.992
-3.086,-1.562,11.976,2.388,11.906,-2.197,-4245.766,7.5
-4.672,-2.289,8.926,0.525,8.672,-4.468,-4109.831,0.78
-14.517,-9.854,-7.348,-13.078,-9.506,-17.967,-3996.457,-24.309
-22.82,-16.872,-21.188,-24.75,-25.198,-29.505,-3898.331,-41.782
-18.951,-14.897,-19.547,-23.178,-24.021,-28.422,-3787.461,-35.902
-8.672,-8.021,-11.704,-16.66,-15.736,-22.768,-3698.703,-23.703
-2.674,-3.691,-8.974,-15.06,-12.333,-21.424,-3668.746,-20.258
-0.427,-2.285,-9.029,-16.325,-11.682,-21.993,-3678.074,-19.905
3.181,-1.848,-9.274,-17.373,-11.569,-21.928,-3683.104,-18.471
7.797,-2.885,-13.986,-21.334,-16.768,-24.937,-3650.786,-23.55
10.315,-3.448,-21.43,-27.191,-25.364,-30.145,-3567.336,-33.763
12.336,1.76,-21.245,-25.971,-25.904,-28.466,-3447.859,-33.273
21.638,13.783,-9.69,-14.398,-13.977,-16.409,-3323.731,-16.86
37.018,26.522,3.033,-1.962,-0.633,-3.1,-3198.29,-0.233
42.229,32.571,4.898,0.672,1.141,0.732,-3051.232,1.031
33.111,30.831,-2.657,-5.655,-6.75,-4.831,-2905.082,-9.538
27.259,27.831,-7.886,-11.577,-11.603,-10.681,-2814.086,-16.508
32.446,29.225,-5.873,-12.006,-8.514,-11.098,-2772.594,-13.96
35.669,31.654,-4.228,-11.574,-5.996,-10.339,-2721.228,-11.642
29.927,28.124,-10.293,-16.933,-12.106,-15.428,-2643.644,-18.665
24.294,19.092,-19.529,-26.447,-21.998,-25.131,-2588.999,-30.396
24.387,11.387,-22.532,-31.894,-25.362,-30.8,-2604.371,-35.208
24.062,8.229,-19.406,-30.583,-21.948,-29.101,-2679.196,-29.694
18.713,6.69,-18.764,-29.869,-20.825,-27.917,-2753.087,-25.711
11.631,3.565,-25.089,-36.561,-26.954,-34.914,-2767.979,-36.584
6.724,-0.703,-33.578,-46.059,-35.408,-44.917,-2705.51,-54.472
3.716,-4.145,-36.963,-48.905,-38.526,-47.658,-2584.006,-59.669
0.122,-6.888,-35.01,-45.745,-35.937,-44.261,-2452.54,-51.918
-5.266,-11.345,-34.15,-45.046,-34.094,-43.477,-2357.054,-46.521
-11.253,-18.868,-36.851,-48.314,-35.677,-46.231,-2294.035,-45.815
-15.621,-26.197,-38.342,-49.139,-36.44,-46.285,-2265.899,-40.17
-17.446,-27.885,-37.578,-45.706,-35.85,-42.548,-2325.252,-32.444
-18.623,-24.463,-41.084,-44.56,-40.657,-41.533,-2458.837,-38.956
-21.617,-23.438,-50.098,-49.799,-51.423,-46.905,-2541.878,-60.768
-26.737,-29.34,-56.775,-56.517,-58.9,-53.499,-2494.383,-76.03
-34.375,-39.16,-58.537,-60.427,-60.233,-57.084,-2346.017,-73.745
-45.634,-49.59,-61.607,-65.195,-62.581,-61.87,-2143.305,-69.231
-57.437,-60.149,-67.104,-72.75,-67.523,-69.848,-1936.797,-73.349
-62.671,-66.566,-67.628,-75.587,-67.743,-72.774,-1798.68,-74.793
-58.518,-62.63,-60.263,-67.828,-60.737,-64.926,-1748.881,-64.578
-51.938,-53.138,-53.244,-57.6,-54.565,-55.277,-1728.794,-54.42
-51.841,-49.974,-53.627,-55.93,-55.122,-54.467,-1687.215,-55.915
-57.718,-53.941,-56.194,-59.122,-56.708,-57.925,-1642.663,-60.307
-63.963,-57.672,-55.014,-58.338,-54.558,-57.109,-1635.042,-56.878
-66.905,-57.871,-52.461,-54.033,-52.18,-53.206,-1653.444,-49.73
-62.062,-52.573,-48.427,-47.663,-48.96,-47.525,-1663.17,-43.25
-49.976,-42.013,-39.838,-37.834,-40.757,-38.133,-1659.835,-35.394
-40.936,-32.881,-30.488,-27.817,-31.355,-28.443,-1634.566,-27.147
-41.057,-30.152,-26.54,-22.857,-27.387,-24.184,-1557.312,-22.125
-46.603,-32.976,-29.919,-25.613,-30.644,-27.792,-1444.548,-23.65
-54.589,-39.93,-39.376,-35.651,-39.743,-37.995,-1357.882,-33.667
-63.163,-47.952,-49.47,-46.265,-49.748,-47.773,-1314.004,-46.198
-66.727,-51.632,-53.812,-49.59,-54.427,-50.064,-1257.382,-50.477
-62.969,-49.818,-52.556,-46.77,-53.317,-47.016,-1106.805,-45.032
-58.283,-46.083,-49.995,-44.09,-50.527,-44.935,-835.519,-39.779
-58.723,-43.037,-47.992,-43.405,-48.537,-45.04,-562.541,-42.796
-61.125,-40.935,-46.06,-42.408,-47.111,-44.789,-479.189,-49.744
-60.103,-39.695,-44.223,-40.472,-45.904,-43.855,-620.516,-51.905
-57.512,-39.744,-43.779,-39.796,-46.036,-44.392,-838.264,-50.352
-56.672,-39.962,-44.12,-39.495,-46.964,-44.795,-1005.042,-49.219
-55.57,-38.292,-42.013,-35.545,-45.332,-40.818,-1103.561,-45.105
-52.688,-36.286,-37.519,-29.465,-41.006,-34.678,-1149.399,-37.032
-50.088,-36.505,-33.863,-26.37,-37.2,-31.893,-1169.648,-31.215
-47.729,-36.199,-30.82,-25.064,-33.724,-30.931,-1258.853,-28.855
-44.34,-32.922,-27.32,-22.441,-29.638,-28.257,-1498.72,-25.75
-43.812,-32.255,-27.111,-22.513,-28.997,-27.96,-1785.106,-23.837
-50.141,-38.452,-31.94,-28.32,-33.53,-33.641,-1896.674,-27.705
-58.579,-45.486,-35.895,-33.949,-36.976,-39.511,-1750.086,-34.151
-62.404,-47.806,-34.999,-34.891,-35.445,-40.413,-1496.538,-37.596
-61.723,-47.966,-32.548,-33.982,-32.715,-38.607,-1372.575,-38.212
-58.702,-48.143,-31.108,-33.109,-31.557,-36.214,-1437.989,-37.848
-54.448,-46.568,-30.01,-31.367,-31.132,-33.422,-1540.113,-36.767
-50.784,-42.547,-28.334,-28.487,-30.173,-30.587,-1583.096,-34.595
-46.997,-36.894,-23.811,-23.445,-25.986,-25.816,-1604.052,-29.208
-41.583,-31.586,-17.085,-17.353,-18.877,-19.594,-1606.853,-21.035
-39.124,-31.364,-16.178,-16.671,-16.804,-18.734,-1579.111,-16.662
-44.355,-38.007,-25.315,-24.345,-24.491,-25.94,-1575.638,-19.565
-52.456,-45.671,-36.796,-34.469,-35.162,-35.176,-1648.039,-26.801
-56.109,-49.252,-43.135,-42.016,-41.674,-42.402,-1796.988,-37.308
-55.68,-49.78,-44.718,-46.582,-43.893,-47.506,-2015.196,-47.982
-54.391,-48.348,-42.155,-45.981,-41.821,-47.628,-2279.218,-49.589
-51.976,-44.891,-35.432,-39.225,-35.148,-41.579,-2486.025,-40.529
-47.918,-41.179,-28.185,-31.04,-27.789,-33.97,-2513.454,-29.937
-44.082,-38.133,-23.152,-25.443,-22.97,-28.619,-2382.905,-23.385
-43.388,-35.975,-20.43,-22.924,-20.544,-26.276,-2253.324,-20.687
-46.666,-36.644,-20.569,-23.186,-20.67,-26.687,-2249.86,-21.289
-48.988,-39.258,-21.103,-23.551,-21.04,-26.97,-2365.964,-21.785
-45.739,-39.652,-18.022,-21.323,-17.645,-24.614,-2487.86,-18.62
-40.727,-36.933,-13.286,-17.715,-12.367,-20.95,-2508.298,-12.897
-37.016,-31.555,-9.31,-12.385,-8.051,-15.439,-2447.074,-4.521
-31.247,-23.731,-5.024,-5.134,-4.041,-7.956,-2395.262,4.625
-26.306,-19.42,-4.36,-3.935,-4.029,-7.046,-2369.203,3.078
-28.641,-22.933,-9.947,-12.193,-10.123,-16.275,-2327.004,-11.017
-33.848,-27.858,-14.151,-18.657,-14.457,-23.466,-2265.495,-19.551
-34.169,-28.472,-12.468,-16.455,-12.644,-21.013,-2188.204,-14.251
-28.565,-25.722,-8.912,-11.591,-8.997,-15.431,-2059.654,-7.474
-18.906,-19.17,-4.276,-6.885,-4.367,-10.266,-1916.942,-4.727
-10.515,-10.185,2.755,-0.109,2.895,-3.61,-1904.201,1.148
-11.311,-7.697,6.63,3.936,7.333,-0.271,-2087.25,8.723
-21.328,-16.722,0.637,-1.908,1.8,-6.57,-2388.93,7.483
-31.59,-28.524,-10.881,-13.739,-9.711,-17.991,-2699.314,-2.773
-35.839,-32.838,-17.416,-21.88,-16.453,-25.867,-2929.683,-12.454
-36.621,-32.565,-19.542,-25.957,-18.617,-30.35,-3070.528,-20.337
-37.78,-34.821,-25.018,-30.347,-24.05,-34.341,-3188.783,-29.553
-35.788,-34.883,-28.975,-30.142,-28.176,-32.468,-3252.736,-32.067
-25.447,-24.361,-20.295,-18.634,-19.827,-19.956,-3119.391,-20.235
-10.352,-8.184,-3.027,-1.659,-2.781,-3.567,-2813.244,-2.279
1.08,2.212,9.056,9.787,9.229,7.043,-2556.096,9.7
6.637,5.985,12.755,13.99,12.821,11.001,-2398.711,14.63
9.082,9.327,14.505,15.806,14.533,12.533,-2176.972,16.309
7.364,10.865,15.238,15.45,15.533,11.419,-1899.505,13.51
-0.085,5.214,11.016,9.993,11.645,5.395,-1761.556,5.7
-7.226,-3.261,4.353,2.696,5.023,-1.485,-1796.778,-1.013
-7.462,-5.176,1.926,0.149,2.458,-3.054,-1883.789,-2.859
-3.377,-1.375,4.342,2.075,4.861,-0.829,-1967.631,-3.47
-0.693,0.297,7.048,3.249,7.874,-0.296,-2016.24,-4.154
-0.013,-0.736,8.043,2.801,9.47,-1.247,-1940.386,-0.6
-1.072,-0.543,7.237,1.924,9.143,-1.654,-1726.903,5.097
-6.267,-1.308,3.071,-2.35,5.086,-5.135,-1523.622,2.509
-13.783,-5.958,-2.069,-9.711,0.047,-12.656,-1473.637,-8.08
-17.719,-10.698,-2.117,-12.52,0.224,-16.718,-1558.15,-12.273
-17.691,-12.089,0.697,-9.733,2.897,-15.056,-1689.094,-7.8
-16.271,-11.342,-1.522,-9.686,0.07,-14.791,-1809.226,-8.729
-10.878,-8.071,-6.008,-12.433,-4.947,-16.083,-1863.829,-15.983
-1.281,-1.694,-4.09,-9.887,-3.164,-12.106,-1858.101,-16.31
4.022,2.351,1.167,-4.103,2.217,-5.915,-1891.42,-9.79
0.528,-0.273,1.385,-3.252,2.431,-5.536,-1990.996,-6.567
-5.299,-5.736,-1.821,-6.15,-1.168,-8.902,-2064.348,-7.084
-7.703,-9.761,-2.449,-7.47,-2.24,-10.358,-2083.548,-6.614
-8.174,-12.798,-0.482,-7.791,-0.33,-10.96,-2103.383,-5.716
-10.645,-16.454,-1.294,-11.273,-0.988,-14.757,-2121.523,-9.18
-15.586,-20.212,-8.323,-18.328,-8.195,-21.28,-2132.132,-19.221
-17.04,-19.682,-14.986,-21.328,-15.592,-22.959,-2205.715,-27.025
-9.183,-11.214,-10.897,-12.749,-12.315,-13.694,-2343.899,-20.074
4.398,1.806,2.152,2.691,0.498,0.979,-2420.054,-1.975
13.665,11.262,11.882,12.626,10.571,9.629,-2402.482,10.412
13.712,11.908,12.672,12.039,11.824,8.391,-2433.323,9.853
10.123,7.891,10.447,7.539,9.802,4.039,-2582.624,4.967
11.582,9.312,11.634,7.908,10.668,5.051,-2771.806,5.678
19.786,19.561,16.372,15.052,14.736,12.707,-2958.976,12.634
29.087,31.348,21.598,24.055,19.627,21.608,-3145.868,20.122
33.949,36.518,24.628,28.755,22.991,26.308,-3266.939,23.507
32.918,33.731,24,26.82,23.139,25.177,-3253.978,22.376
26.682,25.973,19.874,20.611,19.901,19.749,-3138.007,18.663
19.21,18.088,15.402,15.365,16.097,14.706,-3014.772,15.978
17.934,16.471,15.566,16.298,16.622,16.183,-2949.079,19.169
23.996,22.514,20.715,22.702,22.004,23.679,-2940.793,26.396
28.322,28.617,24.04,26.651,25.539,28.257,-2973.385,27.344
24.394,27.624,20.646,23.324,22.432,24.951,-3037.661,19.872
16.929,21.73,14.549,17.405,16.745,19.06,-3109.738,14.095
13.898,18.152,12.215,14.893,14.625,16.652,-3158.787,14.17
16.518,19.72,14.727,15.62,16.973,17.335,-3155.926,15.445
20.042,22.388,18.498,16.139,20.566,17.521,-3083.542,15.876
20.682,21.833,19.365,14.381,21.312,15.122,-2968.202,14.753
17.733,18.039,14.833,9.747,16.328,9.855,-2865.134,8.814
12.55,13.465,6.563,3.88,7.441,3.921,-2791.978,-0.1
10.499,13.084,2.61,3.446,3.143,3.995,-2717.188,-0.962
16.06,19.774,8.881,12.522,9.114,12.933,-2630.782,11.441
24.317,27.645,19.036,23.272,18.744,21.934,-2574.16,24.626
28.866,31.345,24.742,27.694,24.026,24.28,-2574.478,26.545
30.987,33.38,27.307,29.098,26.57,24.952,-2617.424,23.82
33.018,35.571,30.475,32.128,29.994,27.929,-2688.266,27.404
34.804,37.22,33.596,35.68,33.404,30.74,-2762.868,34.785
35.044,37.933,32.986,36.274,32.933,30.244,-2792.187,35.598
30.724,34.97,25.782,30.787,25.525,24.599,-2758.484,25.795
24.26,28.946,17.313,22.974,16.466,18.065,-2706.391,14.207
24.231,27.669,17.793,22.709,16.333,19.492,-2711.005,13.303
31.01,33.466,26.52,30.749,25.02,28.09,-2819.046,22.019
36.821,39.518,33.636,37.972,32.893,35.021,-2983.482,29.293
39.214,41.884,36.14,40.648,36.367,38.208,-3088.694,32.132
39.285,41.378,36.276,40.538,36.85,39.467,-3057.766,33.878
35.945,38.588,33.158,37.735,33.438,37.66,-2904.672,33.577
30.083,34.315,27.051,33.316,26.965,33.666,-2701.9,30.491
25.438,30.027,22.819,30.2,22.605,30.927,-2508.441,28.985
25.663,28.783,25.187,30.629,25.283,31.975,-2340.55,32.727
31.23,32.994,32.626,34.765,33.527,37.065,-2227.456,39.002
37.101,38.5,38.069,39.083,39.584,42.371,-2210.27,41.759
38.891,39.117,38.034,39.678,39.408,43.449,-2247.568,39.831
37.503,34.643,35.235,36.127,36.461,39.67,-2237.08,36.712
34.334,28.903,32.337,30.517,34.063,33.358,-2151.352,33.971
31.065,26.099,30.355,26.543,32.414,28.735,-2048.886,31.348
31.097,27.939,29.834,26.872,31.423,28.858,-1967.316,29.181
34.323,31.84,30.287,30.031,31.283,32.105,-1890.839,28.081
37.328,35.248,31.055,32.874,31.897,35.067,-1813.912,28.785
38.255,37.191,31.185,33.476,32.122,35.852,-1778.286,30.2
36.773,35.479,28.557,30.812,29.651,33.164,-1811.683,27.816
34.956,31.321,23.973,26.875,25.166,28.547,-1861.809,20.614
36.786,31.304,23.444,27.48,24.597,28.523,-1865.909,17.845
40.834,36.349,28.734,33.552,29.895,35.148,-1857.912,25.486
40.489,39.005,31.735,36.661,32.938,39.501,-1913.773,32.244
36.179,37.343,28.705,33.103,29.803,36.525,-2025.859,29.592
37.515,39.195,29.028,32.654,30.245,35.746,-2105.981,29.312
47.311,47.476,37.621,41.258,39.492,43.698,-2081.74,39.427
55.519,54.115,44.6,49.309,47.005,51.073,-1969.944,47.771
55.729,53.384,41.896,47.413,43.973,48.577,-1868.479,43.333
53.463,49.13,33.762,38.905,35.029,39.917,-1840.421,31.326
53.75,46.622,27.781,31.667,28.704,33.074,-1831.227,22.763
54.472,46.465,26.477,28.5,27.68,30.225,-1789.254,21.396
55.81,48.896,28.844,29.296,30.273,30.992,-1793.208,24.561
61.833,55.212,33.248,33.785,34.467,35.422,-1916.882,29.62
69.325,61.509,36.368,37.996,37.38,39.251,-2069.758,33.352
71.029,62.332,35.643,37.626,36.946,37.685,-2117.616,32.576
68.582,60.076,32.93,34.838,34.621,33.56,-2054.193,28.304
70.385,62.622,33.257,36.255,34.691,34.689,-1949.019,26.757
81.425,74.615,41.106,45.947,41.769,45.011,-1818.549,34.521
98.606,92.628,54.275,59.881,54.277,59.235,-1645.715,48.892
113.448,108.584,64.281,70.019,63.795,69.096,-1468.991,60.223
119.192,116.489,65.846,72.867,64.868,71.885,-1347.498,63.633
115.051,114.729,60.105,69.188,58.871,68.288,-1273.087,59.236
105.759,106.819,51.129,61.693,50.126,60.592,-1190.42,49.14
99.075,100.577,44.893,56.124,44.302,54.928,-1085.723,40.103
100.361,101.391,46.066,56.921,45.554,55.923,-1019.262,39.29
106.321,105.608,51.132,60.404,50.442,59.212,-1036.38,44.199
108.36,105.99,51.825,59.874,51.204,57.731,-1081.997,45.731
104.257,102.745,47.762,56.361,47.436,53.14,-1081.55,42.71
99.28,100.465,45.379,54.538,45.235,50.806,-1046.68,41.343
95.179,97.64,44.986,52.182,45.033,48.514,-1049.175,40.824
88.944,90.408,41.762,45.31,42.122,42.002,-1143.929,35.409
82.603,82.409,37.415,38.409,38.019,35.423,-1296.85,28.117
79.864,78.965,36.606,37.408,37.339,34.311,-1396.984,25.804
76.235,76.517,36.184,38.897,36.886,35.406,-1399.075,26.421
68.145,70.289,32.386,37.842,32.803,34.346,-1378.408,25.545
62.46,65.229,30.337,37.26,30.593,34.37,-1400.467,26.869
64.415,66.787,34.323,40.483,34.905,38.254,-1441.246,33.865
68.229,69.549,38.821,43.327,39.695,40.998,-1459.458,39.159
66.835,66.534,37.705,41.662,38.311,38.265,-1448.723,34.798
60.078,59.423,31.787,36.599,31.999,32.186,-1406.066,23.82
51.742,52.654,24.05,29.362,24.002,25.027,-1328.441,11.523
47.277,49.131,19.398,23.663,18.893,19.947,-1243.555,2.754
50.621,51.238,24.477,27.689,23.747,24.041,-1190.113,8.091
57.96,57.099,37.307,41.382,37.13,37.433,-1174.037,29.518
60.908,60.102,46.657,52.349,47.045,48.388,-1171.718,48.679
56.075,55.779,45.916,51.464,46.066,47.627,-1167.747,47.762
46.276,46.287,38.934,43.061,38.547,39.242,-1173.505,32.59
36.835,38.149,33.837,37.432,33.389,33.732,-1203.515,22.731
32.119,34.603,34.142,37.65,34.094,34.051,-1261.997,24.137
30.695,31.789,35.288,37.672,35.777,33.893,-1360.576,26.436
28.227,27.05,33.286,34.668,34.3,30.891,-1480.966,25.014
24.766,23.426,30.718,32.955,31.956,29.964,-1538.938,25.167
22.991,22.822,30.39,34.409,31.251,32.581,-1482.395,27.898
23.2,23.198,31.525,36.125,31.748,34.77,-1360.255,29.259
22.805,22.026,32.181,35.629,32.267,33.502,-1227.136,28.417
20.264,20.072,32.021,34.132,32.509,30.485,-1097.247,28.627
16.84,19.286,31.245,33.716,31.92,29.036,-999.689,30.827
11.695,16.183,27.086,30.958,27.635,26.505,-950.024,29.217
3.285,7.137,18.639,22.409,19.529,18.895,-920.316,20.629
-3.903,-2.02,12.053,14.382,13.864,11.446,-917.778,12.725
-5.448,-4.331,11.571,13.896,14.159,10.887,-969.143,12.469
-4.373,-2.258,13.078,17.134,16.063,13.894,-1011.011,15.575
-4.744,-1.457,12.224,17.239,15.35,13.936,-955.903,14.842
-7.29,-3.332,9.468,14.044,12.279,10.855,-807.514,10.225
-10.495,-5.37,7.726,12.911,9.98,10.184,-572.222,8.619
-10.536,-4.4,10.082,18.211,12.321,16.352,-223.04,15.663
-6.91,-2.139,14.471,25.427,17.3,24.368,119.752,25.437
-6.029,-4.499,13.391,24.487,16.669,23.715,208.501,25.94
-11.757,-11.715,5.201,14.836,8.408,14.119,-4.46,17.483
-18.699,-17.131,-2.462,6.46,0.301,5.947,-284.28,10.519
-22.937,-20.14,-6.01,2.633,-3.818,2.179,-430.88,5.541
-29.412,-27.805,-11.245,-4.1,-9.455,-4.77,-466.566,-5.992
-38.593,-38.353,-19.64,-14.539,-18.232,-15.199,-479.841,-21.598
-40.465,-39.684,-21.94,-17.395,-21.344,-17.759,-482.245,-26.075
-30.298,-28.209,-11.385,-6.364,-11.522,-6.672,-463.748,-12.525
-16.332,-14.011,6.265,10.545,6.23,9.888,-450.047,8.314
-9.052,-7.62,19.086,21.125,19.389,19.934,-437.779,22.635
-12.205,-11.618,19.545,19.651,19.638,18.222,-371.403,24.174
-22.801,-22.21,8.67,8.459,8.438,7.582,-250.888,11.903
-33.078,-31.664,-4.953,-4.208,-5.149,-4.422,-162.919,-7.194
-34.653,-32.036,-10.358,-8.621,-10.525,-9.091,-160.845,-17.264
-26.426,-22.793,-3.315,-1.324,-3.529,-2.292,-207.01,-9.445
-15.981,-12.374,9.212,10.811,9.58,10.119,-257.492,6.777
-11.218,-9.13,16.223,17.226,17.76,17.193,-315.064,16.014
-14.578,-13.788,13.207,13.697,15.304,14.296,-376.181,13.092
-23.391,-21.735,3.66,3.343,5.308,4.834,-414.645,2.993
-30.669,-27.834,-5.836,-7.281,-4.593,-4.77,-413.741,-6.252
-29.723,-27.876,-9.141,-10.725,-7.624,-7.793,-364.502,-8.038
-23.331,-22.753,-5.73,-6.316,-3.846,-3.798,-317.569,-2.888
-21.543,-20.042,-2.632,-3.274,-0.86,-1.128,-408.228,0.687
-26.694,-23.786,-4.844,-7.663,-3.454,-5.21,-685.062,-2.991
-30.631,-28.641,-8.808,-14.179,-7.575,-11.615,-1004.883,-9.598
-29.084,-29.521,-10.448,-16.63,-8.889,-14.779,-1202.829,-12.761
-28.105,-29.1,-12.007,-17.247,-9.739,-15.94,-1240.612,-13.273
-33.39,-32.475,-16.28,-20.924,-13.312,-19.318,-1148.402,-15.356
-41.945,-40.007,-21.357,-27.103,-17.947,-25.17,-976.134,-18.878
-47.603,-47.233,-23.989,-31.133,-20.164,-29.724,-835.992,-19.843
-49.294,-51.033,-23.988,-31.18,-19.681,-30.942,-840.002,-16.708
-50.612,-53.6,-24.782,-31.091,-20.356,-31.652,-959.922,-14.478
-51.127,-54.949,-26.896,-32.293,-22.973,-32.63,-1062.784,-17.085
-43.646,-47.953,-23.675,-27.958,-20.546,-27.659,-1077.323,-17.362
-27.626,-31.43,-12.744,-15.078,-10.312,-14.853,-1026.906,-8.04
-15.633,-17.568,-3.168,-2.965,-1.257,-3.761,-961.804,3.517
-15.497,-15.72,-1.546,0.238,0.253,-1.74,-968.724,7.341
-19.792,-20.676,-3.414,-1.851,-1.006,-4.426,-1124.737,6.078
-21.038,-23.83,-3.835,-3.008,-0.583,-5.522,-1374.749,6.114
-21.575,-24.37,-3.801,-3.106,-0.43,-5.135,-1618.484,7.187
-23.83,-25.014,-4.288,-3.913,-1.536,-5.326,-1849.897,7.141
-24.286,-25.66,-3.708,-4.561,-1.37,-5.682,-2061.506,6.489
-20.571,-24.238,-2.121,-3.601,0.324,-4.992,-2191.975,6.577
-16.702,-20.946,-2.867,-2.305,-0.43,-3.975,-2247.381,6.86
-17.445,-19.31,-7.191,-3.578,-5.004,-4.808,-2299.695,5.342
-20.674,-20.229,-10.214,-6.602,-7.856,-6.954,-2362.633,2.744
-20.823,-19.742,-8.022,-6.81,-5.067,-6.803,-2382.55,2.628
-16.972,-15.803,-3.621,-2.358,-0.562,-2.572,-2336.883,6.956
-12.659,-11.367,-1.793,3.294,0.531,3.345,-2281.338,13.169
-12.169,-11.063,-4.378,4.544,-2.82,5.698,-2271.562,15.092
-16.616,-15.99,-9.051,-0.068,-7.66,1.794,-2266.433,10.292
-21.815,-21.401,-11.338,-5.748,-9.991,-4.389,-2181.161,3.13
-23.428,-22.653,-10.014,-7.792,-9.1,-7.291,-2007.992,-1.385
-21.57,-20.872,-7.086,-6.177,-6.485,-5.992,-1811.131,-1.198
-19.114,-20.13,-4.964,-4.231,-3.995,-3.926,-1635.957,1.102
-17.237,-19.942,-3.993,-3.216,-2.533,-2.579,-1459.268,2.348
-14.36,-16.032,-1.134,-0.315,0.179,0.839,-1195.54,5.586
-11.49,-10.936,3.873,3.893,4.836,5.467,-817.433,12.915
-12.641,-11.96,5.876,4.817,6.974,6.319,-492.368,19.53
-17.101,-17.367,3.517,3.053,4.746,3.923,-368.004,21.824
-18.179,-17.426,3.14,3.708,3.968,3.698,-345.234,20.985
-14.186,-10.899,6.26,5.82,6.723,5.15,-322.725,15.88
-13.882,-9.589,3.348,1.375,3.811,0.759,-274.271,1.867
-21.572,-19.163,-8.03,-10.392,-7.572,-10.414,-84.197,-17.003
-28.221,-28.584,-15.035,-18.31,-14.498,-18.531,275.081,-26.044
-26.732,-27.764,-9.803,-14.984,-9.057,-16.757,697.99,-17.996
-19.776,-19.59,1.489,-4.479,1.916,-7.648,1096.824,-0.458
-12.371,-11.416,9.64,5.059,9.167,1.774,1283.961,13.146
-9.633,-8.081,9.083,7.139,7.892,4.188,1112.711,11.993
-13.453,-10.512,1.565,1.821,0.047,-1.182,804.186,-2.108
-17.291,-14.225,-3.471,-2.656,-5.239,-5.755,656.828,-12.595
-14.358,-13.746,0.098,0.34,-1.763,-2.715,681.49,-7.222
-8.849,-10.431,6.821,6.59,5.343,3.425,841.943,5.709
-7.655,-8.622,9.314,8.807,8.538,5.864,1181.224,11.319
-7.767,-7.577,8.996,7.782,8.545,6.079,1553.546,9.126
-5.427,-6.824,8.714,6.481,7.764,6.359,1718.166,6.521
-4.232,-8.197,7.136,4.725,5.421,5.406,1677.62,5.86
-4.682,-8.152,6.4,5.19,4.67,5.983,1594.241,8.732
-3.415,-3.886,9.143,8.858,8.129,9.95,1534.616,15.076
-3.334,-2.405,8.656,7.588,7.993,9.774,1471.676,15.209
-8.693,-9.549,-2.302,-4.031,-3.412,0.141,1369.195,1.026
-13.7,-17.333,-15.473,-15.974,-17.079,-9.582,1195.1,-15.865
-10.408,-15.566,-16.488,-16.052,-17.876,-8.488,986.263,-16.888
-4.833,-10.182,-8.769,-9.843,-9.243,-2.441,850.823,-5.071
-6.223,-10.91,-6.116,-8.763,-5.676,-1.437,809.009,2.444
-7.984,-10.726,-7.426,-8.348,-6.879,-0.044,785.318,3.242
-1.991,-1.145,-3.812,-0.555,-3.894,8.827,755.62,7.512
4.357,8.766,1.469,7.695,1.025,16.948,725.128,15.051
3.661,8.835,0.498,6.513,0.242,14.55,661.913,13.329
1.21,4.29,-4.819,-1.213,-5.025,5.699,574.316,-0.545
1.608,2.026,-8.53,-7.4,-8.795,-0.954,539.38,-12.666
0.419,-1.743,-11.103,-11.115,-10.95,-4.684,593.606,-14.791
-4.635,-9.362,-14.971,-14.897,-14.23,-7.763,655.17,-13.699
-7.564,-12.999,-16.906,-16.669,-16.233,-8.237,611.999,-13.524
-3.271,-7.351,-12.544,-13.307,-12.686,-4.57,472.162,-10.581
5.409,1.335,-4.368,-7.685,-5.227,-0.249,314.902,-5.242
11.553,4.651,0.036,-6.301,-0.616,0.012,126.252,-3.833
11.611,1.675,-2.561,-11.106,-2.237,-4.59,-164.961,-9.475
7.113,-3.893,-8.026,-18.077,-6.849,-11.261,-558.566,-18.237
0.477,-10.411,-12.717,-23.791,-11.376,-17.625,-1016.75,-25.417
-5.694,-16.488,-16.434,-26.975,-15.284,-21.558,-1525.392,-29.137
-7.914,-17.892,-17.868,-25.922,-16.663,-20.207,-2022.156,-28.147
-6.003,-14.311,-15.86,-21.683,-14.531,-15.113,-2388.311,-23.565
-1.846,-9.626,-11.33,-16.721,-10.431,-10.091,-2591.649,-17.18
5.215,-3.008,-5.214,-9.42,-5.069,-3.293,-2709.968,-7.42
13.243,5.954,-0.604,-0.817,-0.753,5.294,-2796.949,3.069
16.937,11.244,-1.196,2.242,-1.15,8.088,-2847.366,5.101
16.231,10.194,-4.928,-1.638,-4.707,2.697,-2828.348,-4.503
14.373,6.162,-8.024,-7.105,-7.815,-4.195,-2639.644,-18.028
11.391,1.282,-10.424,-11.132,-10.092,-7.966,-2208.017,-24.919
6.164,-4.077,-13.148,-14.697,-12.235,-10.255,-1675.584,-22.787
-0.699,-9.839,-17.587,-20.113,-16.051,-14.689,-1271.729,-20.322
-7.583,-16.687,-24.463,-28.491,-22.98,-22.739,-1029.898,-24.579
-12.919,-23.35,-30.09,-36.384,-29.03,-30.977,-762.62,-30.707
-14.849,-25.065,-29.608,-37.512,-28.522,-32.718,-263.323,-30.687
-13.721,-21.996,-26.066,-33.312,-24.667,-28.617,429.887,-27.317
-14.903,-23.402,-28.559,-34.35,-27.113,-29.522,1059.154,-30.069
-19.774,-30.857,-35.9,-41.375,-34.591,-37.184,1479.915,-36.476
-20.233,-31.742,-36.06,-41.57,-34.837,-38.422,1679.289,-34.61
-13.336,-22.261,-27.764,-32.477,-26.406,-29.77,1608.038,-25.207
-7.753,-14.671,-22.292,-25.553,-20.53,-23.182,1346.19,-19.605
-8.649,-15.071,-23.15,-24.583,-21.397,-23.163,1145.184,-19.808
-10.078,-15.556,-23.211,-22.522,-22.461,-21.917,1107.103,-18.288
-5.996,-10.452,-18.356,-16.101,-18.612,-15.56,1112.598,-11.314
-0.772,-6.024,-13.221,-11.059,-13.186,-10.503,1064.402,-4.081
-2.927,-9.474,-15.316,-14.121,-14.311,-14.097,988.338,-5.24
-10.455,-15.857,-24.332,-23.001,-23.186,-23.788,954.822,-15.546
-12.853,-15.846,-31.278,-28.563,-30.865,-29.762,984.677,-24.481
-8.205,-10.895,-31.312,-27.5,-31.419,-28.499,996.966,-24.327
-3.93,-8.004,-27.211,-23.607,-27.065,-24.376,886.8,-19.062
-1.782,-6.485,-20.482,-17.883,-19.791,-18.882,677.064,-13.24
2.11,-2.209,-11.818,-9.706,-11.072,-10.978,493.252,-5.361
6.25,2.037,-5.748,-3.353,-5.432,-4.487,397.64,3
5.861,0.916,-5.878,-3.431,-5.74,-4.549,386.017,3.854
1.139,-4.096,-9.975,-8.322,-9.513,-10.176,449.986,-4.057
-3.919,-7.808,-12.846,-12.816,-11.937,-15.67,507.276,-9.295
-7.096,-9.533,-12.702,-14.893,-11.566,-17.967,455.146,-6.844
-8.527,-11.449,-12.596,-16.32,-11.746,-18.71,329.948,-6.504
-6.932,-11.095,-13.101,-16.084,-13.128,-17.951,251.699,-10.652
-1.167,-5.011,-10.796,-11.784,-11.842,-13.905,284.309,-10.746
4.093,1.669,-6.989,-7.615,-8.582,-9.987,382.099,-8.254
3.559,1.969,-5.761,-7.981,-7.003,-9.914,425.879,-9.403
0.294,-0.969,-4.885,-8.472,-5.026,-10.04,373.677,-8.945
-0.445,-0.675,-2.34,-5.828,-1.76,-7.991,305.149,-3.865
-1.192,1.018,-4.361,-5.586,-4.603,-8.637,282.639,-5.463
-5.544,-0.688,-12.719,-9.834,-14.773,-13.106,292.471,-17.174
-9.267,-4.422,-18.191,-12.823,-21.088,-16.03,299.797,-25.595
-8.366,-5.999,-17.089,-12.934,-19.13,-16.116,256.522,-25.196
-6.269,-4.837,-15.165,-12.877,-15.9,-15.448,112.043,-21.54
-7.126,-4.668,-15.025,-13.023,-15.002,-14.699,-85.351,-15.859
-10.007,-7.771,-15.235,-13.774,-14.873,-15.594,-185.323,-10.296
-11.896,-10.458,-15.656,-15.305,-15.296,-18.178,-120.917,-10.293
-12.747,-10.557,-17.18,-16.136,-17.164,-19.61,-23.437,-13.888
-14.304,-11.722,-19.325,-16.243,-19.449,-19.656,-87.122,-14.754
-15.673,-14.342,-20.02,-16.308,-19.629,-19.472,-368.594,-11.446
-14.833,-13.898,-18.345,-15.425,-17.217,-17.898,-818.693,-5.494
-11.499,-8.764,-14.19,-11.691,-12.675,-13.05,-1370.209,3.098
-6.882,-2.473,-8.59,-6.011,-6.947,-6.758,-1859.276,12.326
-4.263,-1.146,-7.702,-5.279,-6.188,-6.44,-2066.491,14.375
-5.544,-6.345,-14.787,-12.695,-13.861,-14.912,-1791.033,5.319
-6.508,-10.255,-20.719,-18.739,-20.466,-22.241,-894.583,-6.846
-3.18,-6.597,-18.066,-15.619,-18.283,-20.408,326.424,-14.537
0.579,-1.144,-13.865,-10.311,-14.541,-15.742,1159.531,-18.532
-0.333,-1.064,-15.537,-10.879,-16.61,-15.598,1320.247,-19.866
-3.654,-3.249,-18.798,-14.38,-20.065,-17.514,1212.777,-19.369
-2.874,-1.84,-14.991,-13.952,-15.933,-16.23,1208.595,-16.164
3.027,1.833,-4.113,-8.969,-3.921,-11.928,1288.791,-8.086
4.858,0.692,-1.839,-9.632,-0.962,-13.746,1367.085,-9.23
-4.342,-8.288,-19.441,-23.599,-19.67,-27.807,1461.686,-33.351
-15.739,-17.367,-39.025,-37.997,-40.716,-40.747,1523.116,-58.032
-18.349,-18.785,-39.485,-36.967,-41.205,-37.247,1428.839,-56.415
-17.002,-17.486,-29.518,-27.102,-30.68,-25.557,1241.52,-39.294
-20.524,-20.832,-23.977,-21.67,-24.79,-20.736,1229.884,-24.011
-23.723,-23.447,-17.82,-17.667,-17.458,-18.866,1495.153,-5.304
-17.949,-17.375,-5.465,-7.013,-3.079,-8.805,1772.296,22.408
-8.957,-8.481,4.319,6.528,7.707,6.718,1793.327,51.908
-7.519,-6.751,2.631,9.932,5.143,12.318,1654.415,59.439
-14.175,-12.086,-13.434,-8.165,-12.866,-6.074,1593.132,10.057
-22.65,-19.007,-37.773,-39.4,-39.043,-39.961,1621.849,-75.864
-25.317,-21.254,-48.189,-54.318,-49.641,-57.544,1590.461,-114.333
-19.007,-15.097,-34.149,-41.348,-34.341,-45.001,1324.429,-81.797
-10.944,-6.536,-16.741,-21.202,-16.854,-21.889,568.386,-38.039
-5.83,-1.505,-7.082,-5.645,-8.197,-1.689,-742.967,-6.925
2.575,5.116,10.444,13.55,10.147,19.308,-1977.876,30.421
11.685,12.313,30.237,28.289,31.815,31.494,-2112.867,51.976
8.328,8.445,22.83,19.091,23.597,19.442,-1030.848,26.889
-5.697,-4.391,-9.431,-5.668,-11.86,-4.814,-172.816,-15.154
-18.163,-15.238,-31.193,-20.416,-34.591,-16.627,-1027.796,-27.202
-25.688,-23.881,-23.591,-17.752,-23.738,-11.871,-3259.562,-3.725
-29.753,-32.19,-5.284,-11.359,-1.902,-5.781,-5400.856,23.422
-33.932,-39.552,-11.162,-21.798,-8.39,-17.151,-6642.973,5.651
-39.168,-44.524,-42.359,-48.823,-43.054,-44.624,-6762.96,-60.461
-32.146,-35.994,-52.561,-56.099,-55.6,-53.168,-5531.309,-94.457
-7.535,-10.789,-22.423,-25.225,-26.292,-23.482,-3431.502,-49.717
7.007,4.189,-0.581,0.308,-5.369,2.919,-1895.385,-4.33
-2.436,-4.149,-12.692,-8.589,-17.829,-4.758,-1904.301,-16.221
4.173,2.88,-6.13,-3.48,-9.975,-0.446,-2699.706,-9.387
49.359,47.952,47.614,49.359,45.568,50.917,-2335.508,71.703
86.633,87.074,91.297,96.561,89.81,98.434,-262.921,140.141
81.01,83.84,80.963,88.396,78.353,91.259,1235.485,111.847
59.563,60.928,49.672,53.888,45.57,55.91,188.324,43.4
50.374,47.221,39.319,39.901,35.434,40.509,-1836.268,33.162
48.788,42.913,42.536,42.277,40.278,42.85,-2052.481,59.622
44.526,39.439,29.587,28.818,27.13,29.48,-191.305,22.964
38.894,35.7,4.444,3.457,-0.511,3.844,1700.816,-61.205
41.591,39.774,3.881,3.267,-1.547,4.157,1973.088,-76.604
53.165,53.978,30.971,29.012,28.179,30.455,1233.017,-18.078
58.891,62.644,44.97,41.354,43.289,42.307,1211.339,18.787
53.6,55.44,33.174,30.52,29.761,30.774,2047.729,16.982
54.277,50.295,29.675,28.551,25.447,28.703,2589.315,30.626
73.716,67.179,52.801,51.141,49.601,50.864,2902.654,67.571
94.872,90.493,73.452,71.073,70.653,69.5,3681.911,86.3
94.025,91.46,61.896,60.807,58.328,58.542,4152.653,63.113
80.326,76.439,32.696,34.023,28.187,32.359,3353.2,19.955
81.783,74.389,22.59,25.741,17.457,24.265,2263.634,4.475
102.885,91.67,44.084,46.632,39.426,43.806,2460.08,38.629
120.462,107.919,71.727,70.592,68.768,66.088,3611.939,80.512
117.096,107.475,74.281,69.385,72.492,64.268,3980.888,73.666
103.482,99.459,57.3,52.981,54.893,48.378,2991.243,34.823
96.496,97.534,47.766,48.584,44.245,44.975,1971.86,24.069
91.226,94.01,46.13,50.503,42.723,47.077,2181.132,36.498
77.965,78.851,37.314,38.702,34.745,33.675,3123.906,24.535
67.732,65.551,29.747,25.796,27.583,18.996,3446.77,2.341
75.057,71.089,39.953,35.605,38.053,29.192,2809.357,19.613
91.408,87.871,59.319,59.602,57.852,54.67,1934.94,66.984
97.905,96.177,67.432,71.006,66.047,65.95,1009.925,89.756
91.317,90.265,61.415,63.006,59.701,56.341,-805.944,70.568
82.115,79.87,54.382,52.135,52.546,44.472,-3893.833,47.773
78.487,75.722,55.812,53.091,54.427,45.613,-7257.792,54.73
79.673,78.696,61.187,60.621,60.486,53.279,-9501.183,73.727
79.673,81.525,60.738,60.614,60.489,52.674,-9723.633,70.996
76.855,81.839,56.048,53.567,56.119,44.747,-7414.461,51.394
78.293,87.058,59.645,53.143,60.171,43.125,-3198.693,44.596
83.413,92.204,70.988,60.62,71.66,48.999,465.773,56.475
75.333,75.814,68.862,58.705,68.982,46.185,1632.894,62.901
56.491,50.425,52.376,45.716,52.29,33.508,915.518,49.249
52.211,53.925,46.792,42.808,47.446,31.183,-201.406,31.655
54.577,66.996,45.041,47.021,45.718,35.715,-804.974,25.15
41.777,50.749,27.116,39.481,26.524,28.402,-458.367,25.747
38.201,39.807,21.928,39,20.535,28.64,199.434,33.801
56.868,61.524,45.568,58.867,44.459,49.448,-10.262,46.262
51.352,55.962,48.244,53.816,48.263,42.51,-798.309,40.024
8.792,0.067,11.074,6.849,13.32,-9.455,-746.792,13.024
-18.621,-34.033,-14.513,-23.639,-10.199,-42.337,345.188,-1.845
-12.993,-17.471,-8.372,-12.732,-4.089,-29.474,1555.048,5.052
-8.259,-4.02,-4.779,-3.239,-1.873,-18.29,2605.514,7.713
-17.228,-18.844,-14.363,-13.097,-11.489,-27.672,3396.446,-2.095
-21.944,-29.743,-12.837,-13.737,-7.834,-26.076,3070.229,0.659
-17.478,-19.485,3.758,4.26,10.953,-4.224,1374.071,26.875
-20.806,-13.63,6.398,10.516,13.672,4.937,-381.184,42.734
-40.614,-33.507,-20.469,-14.187,-14.752,-18.419,-1130.613,15.49
-65.42,-65.071,-55.032,-48.913,-50.391,-51.965,-1727.855,-36.473
-84.229,-86.245,-73.391,-69.001,-68.5,-70.551,-3248.721,-74.755
-97.497,-95.302,-78.695,-77.377,-73.049,-78.62,-4604.306,-91.343
-107.286,-101.217,-83.67,-85.292,-77.526,-87.911,-4227.545,-97.255
-112.217,-106.085,-88.09,-89.356,-81.754,-92.497,-3257.134,-93.873
-109.832,-104.791,-83.795,-80.822,-77.788,-82.327,-3762.802,-79.15
-98.042,-93.049,-69.584,-61.824,-64.956,-62.241,-5192.262,-58.728
-81.37,-75.501,-53.846,-44.309,-50.775,-45.941,-5803.216,-40.755
-73.305,-65.955,-46.334,-38.589,-42.996,-41.669,-4949.801,-30.863
-79.675,-71.038,-48.748,-44.037,-43.516,-47.51,-2631.592,-30.486
-86.236,-78.051,-51.872,-48.505,-45.762,-52.25,84.491,-33.648
-81.337,-75.396,-48.772,-44.282,-43.905,-47.964,1264.759,-33.515
-75.909,-71.749,-46.764,-41.35,-43.421,-44.509,453.379,-33.87
-77.982,-73.666,-51.038,-47.078,-47.939,-50.88,-1169.933,-37.642
-74.055,-69.125,-50.371,-48.112,-46.986,-53.736,-2853.981,-34.112
-57.619,-53.578,-38.668,-35.796,-35.613,-42.223,-4834.543,-20.659
-47.43,-45.26,-31.985,-27.201,-29.705,-32.616,-7406.312,-16.823
-56.549,-54.954,-41.68,-35.69,-39.936,-39.437,-10374.36,-31.499
-66.803,-63.867,-50.823,-44.753,-49.171,-47.296,-13257.468,-44.117
-59.622,-55.475,-44.366,-38.971,-42.546,-41.137,-15628.256,-42.631
-44.677,-40.728,-32.998,-28.077,-31.027,-29.965,-17332.459,-37.611
-33.946,-30.774,-25.504,-20.104,-23.442,-20.891,-18565.516,-30.521
-26.22,-23.821,-18.523,-13.143,-16.145,-12.709,-19444.475,-19.278
-25.538,-23.831,-16.045,-12.767,-12.947,-12.162,-19794.626,-15.337
-36.045,-34.524,-22.586,-21.703,-18.886,-21.613,-19803.473,-21.008
-47.085,-44.438,-30.647,-29.267,-27.422,-29.204,-19947.852,-24.418
-47.529,-41.94,-32.906,-28.692,-31.181,-27.901,-20172.611,-23.853
-39.6,-31.341,-29.725,-24.725,-29.225,-23.462,-20311.488,-25.827
-30.86,-22.84,-23.142,-20.712,-23.032,-19.716,-20622.81,-27.121
-26.701,-20.427,-17.454,-16.907,-17.643,-15.921,-20976.743,-22.432
-29.74,-23.862,-19.333,-18.155,-19.968,-16.629,-20307.146,-18.321
-36.83,-29.873,-27.877,-26.768,-28.285,-25.486,-17085.166,-23.068
-39.452,-31.639,-32.085,-33.5,-31.063,-33.656,-10893.913,-31.288
-34.736,-27.238,-26.879,-30.137,-24.329,-31.13,-4413.439,-31.57
-31.081,-24.017,-22.616,-23.658,-20.463,-23.408,-1288.35,-24.874
-33.81,-26.436,-26.247,-23.182,-26.184,-20.722,-684.537,-20.825
-37.683,-30.59,-30.331,-26.197,-31.443,-22.426,1580.704,-23.505
-38.271,-33.33,-30.01,-28.248,-30.661,-24.27,5549.446,-31.223
-34.16,-32.74,-27.145,-27.837,-27.448,-24.224,6799.907,-36.923
-26.087,-27.551,-22.384,-23.442,-23.043,-20.372,4094.319,-32.716
-21.667,-23.584,-19.279,-18.771,-19.849,-15.686,586.161,-23.601
-26.565,-27.94,-22.442,-20.162,-22.041,-15.894,-2384.402,-22.947
-35.719,-37.99,-29.015,-26.24,-27.83,-20.057,-6060.099,-32.438
-41.16,-45.046,-32.4,-30.315,-31.318,-23.095,-9705.216,-39.174
-40.596,-45.272,-31.217,-30.104,-30.368,-23.69,-11010.334,-35.092
-36.123,-40.45,-28.003,-27.579,-26.98,-22.647,-10388.12,-26.364
-30.223,-32.995,-23.546,-23.597,-22.594,-19.643,-10732.474,-19.264
-27.599,-28.752,-20.606,-20.956,-20.133,-17.606,-13071.913,-15.996
-33.668,-34.959,-24.514,-25.245,-24.033,-22.027,-15208.033,-20.967
-43.789,-46.753,-31.954,-33.512,-31.035,-29.716,-15052.19,-30.892
-46.061,-49.26,-32.536,-34.047,-31.961,-29.564,-13473.84,-32.23
-39.293,-39.455,-25.247,-24.822,-25.713,-20.303,-12824.183,-21.243
-32.315,-29.809,-18.045,-16.64,-18.886,-12.72,-13710.642,-10.757
-26.809,-25.575,-12.417,-13.346,-12.657,-9.844,-14563.434,-9.327
-18.065,-19.032,-4.228,-7.503,-3.886,-3.642,-14093.216,-8.463
-7.539,-7.52,5.062,3.363,5.155,7.478,-13021.162,2.255
-2.048,1.102,9.811,11.783,9.123,14.802,-12767.273,17.598
-5.344,-0.753,6.924,10.046,5.888,11.184,-12543.498,21.577
-14.214,-10.188,-1.2,0.401,-2.112,0.772,-9524.377,10.597
-22.185,-16.906,-9.398,-7.845,-10.794,-6.205,-3865.581,-3.738
-25.896,-17.847,-15.866,-13.147,-18.423,-9.913,-75.547,-19.842
-23.413,-15.944,-18.738,-17.986,-21.965,-15.298,-95.592,-39.173
-11.233,-6.432,-11.883,-14.27,-15.389,-13.494,-774.703,-43.565
7.087,12.501,3.769,1.609,-0.618,1.629,-467.81,-25.736
18.101,25.687,15.676,13.869,10.626,14.058,-761.354,-10.385
17.161,23.438,18.211,13.143,13.903,13.005,-1664.199,-10.669
15.464,18.184,19.852,12.125,16.602,11.929,-1881.549,-9.282
19.269,20.911,24.53,18.498,21.151,19.533,-2120.296,2.411
20.754,24.193,24.695,21.529,20.54,23.907,-3523.274,10.093
14.662,18.459,17.801,14.965,13.638,17.552,-5122.243,7.241
8.481,9.304,13.233,9.075,9.911,11.553,-5500.66,6.679
9.279,7.333,16.221,11.443,13.384,14.724,-5111.167,13.543
10.562,8.768,17.855,13.176,14.524,17.773,-5306.308,13.555
4.486,3.92,11.658,6.553,7.655,11.767,-6232.665,2.008
-1.009,-1.005,7.638,1.961,3.536,7.153,-6853.996,-2.273
4.611,6.279,15.778,10.864,11.721,16.574,-6535.945,11.928
13.434,17.947,27.721,24.323,23.369,31.131,-5799.145,28.759
11.365,15.732,28.164,24.778,23.498,32.089,-5536.729,28.345
1.324,1.923,15.835,10.598,11.234,17.657,-5905.395,11.373
-1.258,-3.691,5.066,-2.107,0.817,4.914,-6244.692,-3.602
9.49,6.247,7.326,-0.311,3.254,7.084,-5988.013,-2.456
22.819,19.504,15.92,8.869,11.479,16.188,-5259.131,6.427
28.848,26.416,17.018,10.007,11.865,16.512,-4529.433,4.874
29.138,28.524,10.815,3.788,5.027,9.754,-4108.258,-6.034
24.405,24.006,8.522,2.891,2.384,9.536,-3963.553,-7.963
13.381,11.508,13.328,8.676,7.477,16.604,-3778.578,3.52
4.245,2.233,19.601,12.409,15.086,20.453,-3346.754,14.654
5.916,4.339,23.977,12.606,21.144,18.875,-2880.069,18.835
13.119,10.658,21.931,11.425,19.16,15.723,-2660.141,18.869
13.382,12.217,8.783,6.398,3.719,10.646,-2585.673,15.888
4.909,9.162,-6.891,-2.187,-14.327,3.145,-2324.629,8.831
-4.377,4.315,-13.351,-11.356,-20.742,-6.509,-1761.255,-10.679
-12.173,-4.267,-13.373,-19.141,-19.414,-16.145,-1106.787,-41.64
-17.034,-12.894,-10.101,-17.255,-16.384,-14.702,-614.923,-53.485
-11.863,-8.766,1.768,0.54,-6.029,4.692,-269.846,-25.464
-2.029,3.585,15.822,20.625,7.931,27.294,228.368,19.96
-5.888,-0.574,14.365,21.884,8.018,31.618,1152.964,43.357
-28.64,-28.79,-8.118,-1.396,-13.435,10.448,2440.395,16.548
-54.274,-58.94,-36.568,-34.832,-41.947,-24.659,3711.248,-44.498
-62.664,-65.409,-46.722,-52.042,-51.662,-46.241,4672.705,-74.928
-52.507,-49.2,-33.528,-41.833,-37.193,-37.922,5504.754,-46.218
-43.08,-37.856,-20.263,-25.682,-23.326,-19.929,6632.302,-10.059
-45.023,-43.66,-21.884,-25.432,-25.069,-18.076,8172.774,-14.545
-47.7,-47.979,-27.427,-33.937,-30.252,-26.459,9776.431,-41.832
-45.279,-42.799,-31.375,-40.762,-33.967,-32.88,10903.876,-61.677
-49.134,-44.323,-44.404,-53.103,-48.267,-45.319,11440.298,-81.179
-61.996,-56.87,-61.371,-66.409,-67.163,-60.021,12024.69,-96.274
-63.612,-59.969,-54.626,-53.545,-61.11,-47.775,13247.145,-66.936
-41.608,-38.709,-18.059,-10.787,-24.046,-4.332,14698.794,4.537
-17.123,-11.559,12.887,22.112,7.263,27.983,15460.466,47.028
-14.905,-8.009,9.772,15.7,4.078,18.994,15300.774,22.12
-27.174,-22.112,-10.335,-8.398,-16.212,-6.698,14749.956,-19.338
-30.882,-23.266,-17.978,-16.565,-24.044,-13.8,14328.283,-22.086
-24.758,-9.075,-12.281,-10.28,-17.918,-5.866,14480.596,-2.775
-28.011,-8.975,-11.158,-10.747,-15.65,-5.681,16207.971,-6.646
-44.842,-33.793,-21.53,-22.053,-25.818,-16.496,20960.688,-36.233
-52.824,-52.415,-31.179,-28.386,-36.841,-21.639,28875.734,-55.192
-38.164,-37.965,-26.879,-19.028,-33.644,-11.106,37632.124,-40.281
-20.726,-14.589,-14.998,-6.387,-21.27,0.676,44579.513,-9.531
-24.147,-18.331,-12.796,-10.343,-17.589,-6.676,49066.377,-0.376
-38.41,-36.219,-20.74,-26.431,-24.34,-26.065,51657.462,-19.922
-39.747,-36.421,-23.7,-32.152,-27.4,-32.758,52706.449,-34.573
-30.35,-24.473,-17.311,-22.935,-22.116,-22.633,52320.435,-22.968
-27.175,-22.975,-11.367,-14.443,-16.782,-12.628,50539.386,-5.486
-31.019,-32.337,-10.815,-14.748,-15.689,-11.989,47451.702,-4.643
-33.208,-40.174,-12.163,-18.482,-16.232,-16.344,43593.048,-14.41
-35.297,-42.613,-15.45,-22.685,-19.166,-22.373,39911.956,-20.333
-42.668,-44.391,-22.984,-29.08,-26.598,-30.239,37483.638,-20.545
-51.956,-50.303,-30.676,-35.851,-34.17,-37.258,37528.683,-21.835
-54.553,-55.959,-32.253,-38.439,-35.761,-39.519,40361.835,-27.516
-44.195,-48.239,-25.413,-33.231,-29.438,-34.478,43872.863,-30.363
-24.82,-26.415,-13.099,-21.198,-18.023,-23.1,45292.027,-21.57
-12.385,-11.39,-4.664,-11.669,-10.003,-13.457,44517.989,-7.392
-16.224,-16.042,-6.468,-11.97,-11.248,-12.246,43396.949,-2.229
-26.165,-26.41,-11.604,-16.072,-15.281,-14.659,42620.438,-6.508
-30.175,-29.037,-11.385,-16.413,-14.107,-14.627,41190.195,-9.713
-29.984,-29.683,-8.699,-15.609,-11.315,-14.807,38221.462,-8.628
-31.567,-34.856,-9.842,-17.342,-13.22,-17.566,34406.596,-6.691
-34.56,-40.399,-13.581,-19.595,-17.353,-19.853,31483.008,-5.14
-35.601,-41.623,-15.458,-20.877,-18.306,-20.74,30487.495,-5.937
-34.169,-39.76,-15.438,-22.894,-16.859,-22.881,31049.215,-12.345
-32.841,-38.254,-16.268,-25.306,-17.133,-25.621,32006.182,-17.761
-33.437,-38.422,-15.442,-21.873,-16.544,-21.648,32365.179,-3.829
-35.107,-39.29,-5.161,-8.222,-5.793,-6.513,31674.857,31.256
-38.894,-41.435,7.707,2.016,8.507,4.73,29432.566,46.958
-50.242,-50.775,-3.864,-15.265,-3.1,-13.265,25225.265,5.103
-68.708,-69.73,-44.366,-57.19,-46.222,-57.626,20028.185,-66.657
-79.923,-84.252,-72.633,-83.817,-76.446,-86.451,15674.357,-100.497
-72.125,-79.215,-56.138,-65.697,-58.425,-67.037,12558.853,-60.426
-53.975,-62.427,-19.917,-27.589,-19.33,-25.408,9733.957,12.524
-43.745,-53.422,-10.819,-19.483,-9.513,-17.626,7274.792,25.042
-46.937,-56.629,-32.379,-47.192,-32.194,-49.943,6601.627,-45.891
-52.344,-60.661,-48.835,-69.589,-48.971,-74.756,8512.677,-110.764
-54.028,-62.442,-50.088,-71.038,-49.843,-74.502,12442.918,-115.843
-59.35,-70.076,-58.938,-74.804,-60.141,-76.415,17316.074,-106.161
-63.349,-75.537,-68.324,-77.293,-72.313,-77.801,21894.505,-94.909
-50.214,-60.405,-46.325,-50.88,-50.886,-49.377,25005.708,-42.841
-25.957,-31.201,-6.417,-10.945,-9.614,-8.174,25971.341,16.266
-11.339,-12.958,6.651,1.108,2.851,2.841,24375.862,7.596
-9.322,-13.32,-5.961,-10.588,-11.719,-9.577,20643.265,-38.789
-9.093,-17.261,-5.035,-8.519,-9.891,-6.136,16926.493,-31.076
-9.891,-15.133,15.594,11.577,14.328,15.428,15515.491,28.427
-17.704,-16.422,24.227,18.78,25.041,22.545,16795.967,55.741
-25.89,-23.478,8.135,2.537,7.488,5.23,19262.169,22.555
-20.446,-18.681,-7.671,-10.804,-10.92,-8.855,20651.153,-12.06
-4.645,-0.797,-2.29,-2.536,-5.808,0.027,19784.29,-3.521
4.382,7.146,14.326,15.01,13.042,19.644,17671.016,29.447
3.125,1.105,27.493,28.577,28.855,35.639,16247.759,68.95
-1.491,-5.342,30.328,31.763,33.583,39.56,16333.673,100.825
-10.574,-13.304,13.025,12.492,16.783,17.884,17117.929,78.834
-21.27,-21.042,-12.787,-17.778,-9.236,-15.873,17544.776,11.829
-25.005,-18.582,-18.677,-29.272,-14.029,-28.247,17385.134,-26.265
-31.171,-23.805,-19.319,-35.156,-13.63,-33.087,16396.82,-44.434
-49.596,-54.148,-46.778,-62.984,-42.98,-60.322,13832.761,-96.486
-57.907,-72.494,-70.723,-80.329,-68.882,-75.857,9781.683,-127.985
-34.176,-41.157,-46.665,-49.247,-43.326,-41.845,5764.846,-77.007
-3.392,2.99,-11.578,-11.976,-7.866,-5.665,3014.633,-25.56
-2.572,6.64,-22.501,-22.297,-23.466,-21.14,949.849,-57.744
-17.813,-13.154,-48.756,-47.122,-53.734,-48.407,-1692.123,-100.667
-11.196,-14.055,-33.104,-31.224,-36.88,-30.498,-4831.943,-66.488
10.935,-1.759,6.168,7.864,5.153,11.585,-7373.846,1.616
13.449,-1.75,18.509,22.047,18.95,29.046,-8877.764,28.257
-5.673,-10.624,1.263,7.342,2.741,17.028,-9583.265,13.478
-19.682,-12.274,-15.145,-7.885,-13.272,1.334,-9797.561,-4.993
-20.551,-10.037,-18.54,-11.279,-17.068,-5.047,-9958.648,-8.882
-19.102,-15.15,-18.11,-11.298,-16.576,-8.213,-9886.349,1.787
-17.815,-22.891,-20.414,-13.137,-18.553,-11.933,-8755.265,16.089
-14.806,-23.561,-23.673,-15.287,-21.907,-14.38,-7071.842,16.054
-16.277,-22.032,-25.662,-18.773,-23.533,-18.437,-6454.998,0.197
-26.414,-27.366,-28.221,-25.089,-25.221,-26.83,-6947.212,-12.578
-37.677,-36.952,-34.116,-31.756,-30.985,-34.738,-7340.894,-11.956
-41.294,-43.228,-41.719,-35.778,-38.742,-37.298,-7937.131,-8.831
-38.162,-43.718,-46.319,-37.68,-42.232,-37.495,-9779.293,-15.564
-35.821,-41.609,-47.029,-40.217,-41.117,-41.161,-11398.063,-28.787
-40.303,-42.66,-48.959,-44.679,-42.374,-48.317,-9917.931,-37.125
-48.189,-46.973,-53.631,-47.498,-47.36,-52.033,-5440.82,-34.61
-49.217,-48.006,-53.842,-43.816,-46.952,-47.296,-1199.824,-24.486
-43.532,-46.504,-48.802,-38.853,-40.266,-41.928,141.454,-19.003
-43.234,-48.842,-49.377,-42.996,-40.133,-47.315,-1687.044,-27.17
-51.065,-50.841,-57.808,-52.39,-49.321,-57.775,-5289.742,-40.181
-54.697,-45.685,-61.497,-52.707,-53.628,-56.887,-9094.773,-42.821
-45.258,-37.441,-51.863,-39.747,-43.267,-40.886,-12336.925,-32.693
-30.461,-31.091,-35.813,-23.466,-25.586,-23.288,-14656.192,-17.788
-23.209,-24.361,-25.006,-14.711,-13.509,-17.791,-15573.34,-4.376
-23.007,-16.042,-20.714,-12.231,-9.261,-20.435,-14987.873,6.789
-19.582,-8.986,-15.121,-4.765,-5.01,-14.903,-13974.773,19.92
-8.62,-2.513,-4.789,11.103,4.059,2.093,-14302.89,35.874
4.59,6.087,1.977,20.609,11.059,12.027,-16365.209,36.911
13.274,14.98,-2.197,13.652,7.618,4.459,-18747.271,11.242
16.167,20.611,-9.405,5.442,-0.342,-2.863,-20577.815,-11.5
14.685,21.842,-10.799,8.196,-3.408,1.646,-22356.009,-6.145
11.053,20.686,-10.033,10.789,-3.219,3.717,-24170.778,4.629
11.543,20.379,-8.08,8.509,-0.407,-0.863,-25254.401,2.378
18.972,21.844,0.449,12.411,9.446,2.298,-25479.157,3.12
24.259,22.45,9.861,20.261,19.788,11.197,-25670.083,12.026
19.224,17.436,8.46,17.421,18.187,8.637,-26204.284,10.418
11.097,8.001,0.454,6.211,8.932,-3.579,-26443.678,-2.216
11.949,5.923,0.351,3.323,7.876,-6.682,-25908.462,-2.03
21.901,17.584,9.986,11.951,17.731,3.341,-25202.671,15.125
29.228,28.145,17.328,17.77,25.729,10.348,-25280.99,23.498
22.294,18.576,12.547,8.909,21.109,1.045,-26214.838,8.47
5.716,-2.796,-0.107,-7.821,8.189,-16.757,-27159.016,-9.461
0.255,-6.953,-4.784,-11.53,3.099,-20.369,-27410.065,-2.894
13.851,12.39,4.969,4.61,11.906,-2.964,-27125.439,19.018
30.457,30.738,17.087,22.516,22.355,15.433,-26952.134,25.418
37.123,33.663,21.561,27.671,25.569,19.341,-27187.165,15.188
35.215,29.674,19.359,22.879,23.725,12.933,-27501.1,4.889
29.352,26.346,14.445,15.81,20.057,5.727,-27464.891,-2.492
25.277,24.046,12.471,13.683,18.543,5.566,-27119.562,-1.896
25.575,22.198,13.913,15.812,19.388,10.184,-26843.248,9.449
26.113,20.195,12.874,14.042,17.361,8.984,-26797.545,16.037
24.853,19.111,10.254,9.949,13.467,3.784,-26751.696,10.694
26.231,21.545,14.331,14.334,16.388,7.867,-26408.551,12.121
34.375,28.977,27.933,29.477,30.106,24.352,-25733.667,34.834
43.991,38.133,40.237,42.325,43.495,38.687,-24958.287,57.668
45.597,42.024,38.389,39.619,41.703,36.254,-24324.075,49.561
42.052,40.139,28.964,28.756,30.862,24.697,-23844.708,23.169
41.514,38.726,28.011,26.534,28.897,21.896,-23334.155,16.792
38.311,35.99,32.323,29.591,33.858,25.01,-22665.282,28.401
25.192,24.188,26.158,21.39,29.2,17.333,-21925.259,23.809
11.953,9.898,10.301,3.755,14.203,0.479,-21273.134,1.143
11.622,8.43,2.968,-3.08,6.349,-5.373,-20728.447,-5.182
21.899,17.742,12.077,7.965,14.008,6.747,-20197.889,14.035
31.674,24.892,23.44,20.821,23.891,20.345,-19677.876,25.889
36.844,30.911,25.827,25.1,25.44,24.743,-19294.202,17.608
39.745,41.315,24.448,26.801,24.163,26.443,-19095.442,13.175
36.98,45.196,20.122,24.578,20.427,24.707,-18931.908,13.936
24.05,30.225,9.033,13.007,9.789,13.831,-18624.167,3.353
11.09,9.849,1.838,4.448,2.878,5.546,-18170.398,-2.322
15.5,11.404,12.265,15.145,13.268,16.33,-17708.408,19.086
35.387,35.318,33.507,38.319,33.987,40.144,-17327.334,49.289
48.997,53.534,44.967,51.33,44.841,54.078,-16984.746,56.675
48.038,54.512,41.114,47.772,40.392,50.656,-16557.435,44.524
46.366,53.206,36.151,41.935,34.781,44.15,-15892.685,38.183
50.152,55.076,37.784,40.698,36.298,42.824,-14925.655,40.999
50.325,51.192,38.802,37.914,37.818,41.137,-13877.313,38.332
44.69,43.291,35.15,32.949,34.291,36.928,-13087.341,29.943
41.973,41.22,31.92,30.996,30.328,34.161,-12576.298,26.281
45.854,44.125,32.176,31.398,29.767,33.197,-12063.219,27.001
48.601,42.803,32.843,29.916,30.574,30.961,-11309.599,24.919
42.167,35.508,31.366,26.764,30.278,27.3,-10360.746,19.443
31.742,30.891,29.014,25.24,28.815,25.28,-9556.607,14.764
29.977,34.862,27.737,26.451,27.006,26.976,-9108.106,13.623
36.624,40.811,27.287,27.521,25.435,29.65,-8835.559,15.585
37.328,36.862,25.317,24.259,23.153,27.397,-8588.312,16.704
27.996,24.445,21.897,18.425,20.151,21.233,-8443.985,15.184
23.869,21.162,22.577,18.342,21.076,20.745,-8346.678,16.919
32.85,34.173,29.129,25.557,27.484,28.015,-8104.371,25.632
39.605,45.643,32.054,29.287,30.39,31.749,-7728.619,31.621
32.031,39.349,23.956,22.067,22.72,24.654,-7299.553,24.081
21.98,24.65,12.959,11.958,12.297,15.029,-6591.099,10.526
22.383,19.291,11.159,10.998,10.786,14.457,-5249.628,7.583
25.327,22.89,17.408,18.106,17.048,21.474,-3317.98,16.508
21.844,25.649,23.334,24.225,23.066,27.083,-1268.106,26.141
19.65,27.758,27.102,27.282,26.99,29.67,434.147,32.487
23.264,29.655,28.465,28.083,28.064,30.456,1628.345,35.435
23.742,25.609,24.074,23.527,22.925,26.086,2519.953,29.669
19.875,19.677,18.177,16.779,16.413,19.266,3491.588,17.572
23.299,23.33,21.359,18.762,19.437,20.725,4702.362,14.415
37.233,36.92,34.088,32.687,32.302,34.278,5999.603,30.32
49.97,50.191,44.627,47.44,42.996,49.89,7200.193,52.563
51.918,55.145,43.96,48.524,42.555,51.795,8149.515,50.705
46.067,51.605,36.63,37.041,35.539,38.764,8629.333,21.885
39.379,44.215,32.993,30.109,31.77,29.535,8584.447,5.745
33.952,37.257,33.756,33.735,31.782,33.147,8324.511,17.386
30.909,33.665,33.369,36.396,30.922,37.188,8233.817,27.711
32.348,34.452,32.604,33.775,30.607,35.063,8382.006,26.825
34.862,36.605,33.132,31.806,31.791,32.832,8547.826,30.367
33.004,36.377,30.399,29.721,28.988,30.687,8563.828,34.26
28.725,33.253,23.232,23.184,21.331,24.348,8550.259,23.904
26.149,28.486,18.571,16.038,16.583,17.562,8729.058,8.926
24.509,23.829,20.851,14.904,19.145,16.963,9025.399,9.804
22.958,21.604,26.091,18.854,24.414,21.43,9047.839,24.428
22.669,23.086,28.056,21.19,25.92,24.053,8538.271,32.088
24.183,27.425,25.84,18.67,23.098,21.316,7624.444,23.617
27.655,31.319,24.594,15.79,21.617,17.595,6562.153,12.576
31.655,30.981,27.278,17.731,24.534,18.639,5466.88,14.39
32.98,27.911,29.453,22.065,26.989,22.74,4379.48,24.578
31.446,27.124,27.049,22.885,24.73,23.854,3416.574,27.501
29.868,28.895,22.35,19.414,20.24,20.244,2702.03,18.932
28.552,30.983,19.243,15.894,17.172,15.695,2208.736,9.272
25.941,33.409,18.616,15.584,16.137,14.408,1812.355,8.285
22.376,33.53,18.35,16.627,15.629,15.639,1442.836,13.015
19.531,27.9,16.918,15.435,14.529,15.479,1085.776,13.946
19.643,21.547,16.705,13.458,14.489,14.265,759.291,10.032
24.626,22.432,20.483,15.596,17.773,16.66,567.217,9.554
32.467,29.149,26.942,22.842,23.602,24.322,605.41,17.432
37.369,33.224,32.254,30.021,28.816,32.15,735.048,27.719
35.717,30.532,32.919,30.375,29.87,32.629,658.568,29.744
29.762,25.585,27.942,22.939,25.148,24.641,295.57,21.099
25.508,24.69,21.728,15.22,18.756,16.433,-183.648,11.995
26.571,27.144,20.536,14.557,17.418,15.716,-679.996,12.335
28.751,26.175,22.736,17.496,20.108,18.753,-1140.027,17.457
25.1,19.241,21.252,15.667,19.571,17.051,-1346.516,16.449
16.728,12.476,16.492,10.058,15.327,11.608,-1180.493,10.534
10.346,10.514,13.996,7.398,12.792,9.144,-862.843,8.538
7.102,8.752,12.555,6.83,11.581,9.095,-578.215,9.503
2.91,2.818,7.556,3.747,7.151,6.706,-230.524,6.42
-2.935,-2.953,1.073,0.405,0.801,3.435,196.936,1.129
-6.594,-3.63,-0.797,1.359,-1.369,3.736,520.909,0.721
-6.333,-1.531,2.53,4.662,2.054,6.543,727.195,4.925
-5.797,-2.112,4.825,4.062,5.144,6.271,958.487,6.818
-8.949,-7.572,1.171,-3.193,2.393,-0.038,1116.545,2.399
-13.531,-13.617,-5.022,-11.564,-3.564,-7.505,969.083,-3.788
-13.693,-13.984,-6.997,-13.148,-6.042,-8.878,572.341,-4.505
-9.822,-10.375,-5.316,-9.635,-4.844,-6.257,158.96,-1.089
-8.513,-9.518,-5.233,-8.936,-4.928,-7.128,-212.521,-0.761
-11.339,-11.268,-6.248,-10.995,-6.369,-10.287,-531.001,-3.815
-12.1,-9.35,-3.526,-8.396,-4.363,-7.852,-635.107,-3.053
-7.393,-2.466,2.923,0.327,1.732,1.094,-472.414,4.064
-2.43,2.737,7.28,7.398,6.102,8.304,-255.12,10.421
-1.99,2.669,6.583,7.85,5.124,8.785,-143.748,10.098
-2.784,2.479,4.594,5.997,2.593,6.996,107.261,7.002
-1.71,4.42,4.349,5.825,2.487,7.119,1065.769,8.459
-3.411,2.508,3.283,4.534,2.405,6.241,2691.866,14.511
-11.076,-5.771,-2.034,-1.806,-2.127,-0.261,3798.292,13.474
-19.232,-14.572,-11.295,-12.646,-11.439,-12.193,3556.492,-5.777
-22.037,-17.769,-19.895,-21.997,-20.756,-22.555,2727.36,-32.809
-19.159,-14.16,-21.534,-22.988,-23.432,-23.18,2389.644,-44.205
-13.909,-7.797,-15.95,-17.07,-18.694,-15.783,2866.284,-36.11
-11.702,-5.17,-10.808,-12.55,-13.804,-9.955,4203.041,-24.891
-13.145,-6.67,-8.789,-10.19,-11.416,-6.536,5891.445,-16.902
-10.008,-4.081,-2.53,-2.177,-4.51,3.153,6586.624,-3.92
1.171,5.838,9.477,10.871,7.83,17.762,5722.958,12.562
10.311,13.738,17.44,18.033,15.634,24.921,4312.17,19.025
9.702,13.105,17.306,16.315,15.11,22.442,3358.185,14.579
4.691,9.15,15.515,12.891,12.81,19.286,2890.749,12.472
-0.413,4.975,13.712,8.964,10.587,16.496,2630.446,14.072
-9.214,-3.351,6.626,-0.551,3.415,7.507,2415.511,7.306
-19.348,-13.953,-3.061,-12.113,-6.277,-4.611,2074.199,-7.346
-19.116,-15.354,-3.06,-12.566,-6.531,-5.649,1592.346,-11.52
-4.988,-1.668,10.905,3.174,7.121,10.48,1357.657,5.419
9.419,14.581,26.257,21.304,22.411,29.784,1861.755,28.479
11.219,18.164,30.732,26.684,26.84,36.5,3048.617,36.699
4.71,12.694,27.548,22.555,23.309,33.6,4156.04,30.489
-1.478,8.167,22.032,17.854,17.233,30.117,4791.355,21.393
-7.925,3.453,11.457,11.433,5.832,25.218,5865.538,10.663
-14.146,-2.796,-0.113,3.285,-6.728,18.434,8188.684,-1.872
-14.597,-5.252,-1.143,0.856,-8.152,16.013,11055.342,-7.148
-10.473,-2.937,7.588,6.04,0.964,20.332,13415.906,0.552
-7.765,-0.179,14.832,12.627,8.568,27.224,14868.175,15.439
-7.22,1.021,15.176,15.126,8.93,31.346,15329.246,23.792
-7.364,1.097,9.787,11.343,3.549,28.459,15217.841,12.898
-7.052,2.339,3.773,5.411,-2.497,22.208,15702.704,-7.323
-1.247,9.933,6.876,8.783,0.344,26.191,17746.126,-6.767
12.236,24.003,21.876,24.084,15.053,43.597,20566.164,18.13
22.375,32.73,34.216,34.002,27.346,54.301,21986.972,32.091
16.734,26.117,28.562,24.266,21.773,43.023,21025.972,16.575
1.444,11.326,10.907,6.123,3.944,24.083,19132.103,-4.708
-7.321,1.801,-1.137,-2.633,-8.57,16.711,18801.959,-11.309
-6.676,0.148,-1.956,-1.678,-9.682,18.615,21591.888,-9.959
-4.491,1.521,2.725,1.438,-4.833,20.848,25922.647,-6
-3.441,3.083,7.316,3.912,0.074,22.518,27853.99,2.942
-3.005,2.83,6.087,2.392,-1.291,21.338,26237.682,6.767
-4.733,-0.983,-2.884,-5.25,-10.881,13.887,23382.558,-4.862
-7.008,-4.568,-10.321,-11.704,-18.661,6.701,20327.337,-19.105
-6.044,-2.527,-7.033,-8.832,-15.141,8.648,16856.697,-16.872
-3.71,1.561,1.714,-0.877,-6.114,16.065,14272.683,-2.179
-6.476,-1.77,3.147,0.006,-4.283,16.512,13537.244,3.104
-16.174,-14.267,-6.66,-11.56,-12.924,4.239,13187.9,-11.572
-26.761,-27.206,-18.427,-27.442,-23.114,-12.74,11760.509,-31.02
-32.39,-33.274,-21.244,-35.368,-24.867,-22.331,10037.704,-34.412
-33.608,-34.11,-17.011,-33.799,-20.346,-22.734,9301.376,-24.69
-32.834,-33.413,-18.015,-31.181,-22.209,-21.426,8957.192,-22.21
-27.878,-28.828,-25.163,-29.628,-31.519,-20.341,7500.694,-29.679
-15.02,-16.201,-23.009,-21.558,-31.358,-13.034,5191.944,-29.234
-0.32,-1.687,-9.177,-8.337,-17.986,-1.318,4122.028,-18.134
3.037,1.516,-1.704,-3.003,-9.826,2.6,5506.84,-12.218
-5.682,-6.818,-5.986,-7.72,-13.114,-3.147,8203.715,-14.015
-13.648,-13.617,-9.193,-11.593,-15.462,-7.97,10386.369,-13.499
-14.299,-13.198,-8.463,-11.28,-14.157,-8.207,12006.271,-11.043
-11.776,-10.941,-11.685,-12.555,-16.884,-9.478,14761.168,-12.509
