EEG 1,EEG 2,EEG 3,EEG 4,EEG 5,EEG 6,EEG 7,EEG 8
18.074,20.602,11.43,12.303,11.782,13.802,9.743,13.809
13.237,16.221,8.807,10.427,8.961,11.799,7.652,12.266
3.817,6.427,-3.049,-1.548,-2.782,0.173,-3.269,0.921
-5.36,-4.766,-17.837,-17.418,-16.607,-14.94,-16.86,-13.826
-11.845,-14.317,-27.103,-28.049,-24.512,-25.312,-25.172,-23.512
-15.207,-20.428,-29.437,-31.438,-26.339,-29.366,-27.454,-26.747
-15.075,-21.061,-28.407,-30.66,-25.749,-29.221,-27.069,-26.244
-12.763,-16.569,-25.484,-26.657,-23.152,-25.006,-24.344,-22.217
-11.07,-11.74,-21.706,-20.983,-19.1,-18.598,-19.629,-16.1
-10.775,-10.821,-20.652,-18.847,-17.656,-15.679,-17.168,-13.454
-10.572,-12.953,-23.631,-22.256,-20.567,-18.511,-19.52,-16.623
-10.327,-14.676,-26.573,-25.801,-23.77,-22.098,-22.928,-20.393
-9.66,-12.956,-24.358,-22.889,-22.147,-19.995,-21.456,-18.118
-6.294,-7.161,-17.02,-14.246,-15.482,-12.226,-14.264,-9.957
-1.395,-1.269,-11.002,-7.689,-9.521,-5.62,-7.131,-2.751
-0.016,0.12,-11.603,-7.9,-9.408,-4.975,-5.089,-1.137
-2.813,-2.289,-16.092,-11.106,-13.22,-7.767,-6.32,-2.709
-4.776,-4.205,-17.945,-11.582,-15.055,-8.804,-6.192,-2.742
-2.681,-2.94,-14.683,-7.909,-12.168,-5.822,-3.681,0.343
1.318,0.558,-9.632,-2.805,-7.357,-1.004,-1.329,4.151
3.058,3.08,-7.985,0.193,-5.753,1.525,-1.489,5.393
1.839,2.906,-10.282,0.847,-8.247,1.297,-3.316,4.481
1.029,1.8,-11.411,1.909,-9.897,1.803,-3.47,5.072
1.889,1.551,-9.293,3.521,-8.36,3.513,-1.507,7.523
2.154,1.801,-7.972,3.213,-7.32,3.398,-0.631,8.345
2.024,2.886,-9.093,2.201,-8.153,2.324,-0.821,7.833
3.561,5.221,-10.078,3.58,-8.298,3.842,1.08,9.757
5.605,6.765,-10.299,5.834,-7.821,6.766,4.232,13.333
6.499,6.834,-10.128,6.537,-7.801,7.832,5.547,14.663
7.643,8.031,-8.167,7.276,-6.572,7.775,5.551,13.664
10.303,11.109,-4.499,9.365,-3.46,8.709,6.421,12.861
13.324,13.959,-1.249,11.484,-0.255,10.474,8.376,13.056
15.258,15.599,0.92,12.708,2.171,11.631,10.157,12.995
15.747,16.518,2.52,12.866,4.084,10.981,10.372,11.189
14.708,16.405,2.861,11.102,4.757,8.005,8.313,7.336
13.108,14.785,1.526,7.14,3.517,3.442,4.865,2.611
13.833,13.682,0.77,3.535,2.321,0.057,2.537,-1
17.48,15.671,2.245,3.043,3.121,-0.235,2.358,-3.01
19.872,18.829,3.225,3.85,3.723,0.139,1.69,-5.28
18.583,19.594,1.664,2.999,2.126,-1.082,-0.847,-7.939
16.519,18.458,0.752,2.1,1.306,-1.954,-2.073,-8.29
14.49,15.62,1.809,2.198,2.639,-2.421,-0.971,-6.998
8.651,8.347,0.294,-0.675,1.56,-6.331,-1.713,-8.612
-0.172,-0.744,-4.722,-6.969,-3.365,-12.73,-4.666,-12.753
-4.071,-3.115,-6.879,-9.448,-6.005,-14.464,-3.339,-12.746
1.184,4.011,-2.632,-3.571,-2.259,-8.112,4.858,-5.387
11.117,14.629,4.364,6.271,4.617,1.914,14.007,4.756
20.191,23.716,10.45,14.201,10.686,10.064,18.959,12.081
26.998,31.411,15.067,19.199,15.023,14.971,19.946,15.231
30.375,36.867,16.809,21.61,16.221,16.892,17.432,14.549
28.37,37.096,14.512,20.592,13.416,15.344,11.688,10.52
23.684,33.718,11.495,17.762,10.16,12.06,6.421,6.211
23.104,33.015,12.321,17.341,10.976,11.448,5.842,5.667
28.884,37.481,16.884,20.822,15.651,15.363,9.797,9.191
36.786,43.864,21.926,26.102,20.871,21.537,15.418,14.323
42.74,49.386,25.959,31.244,24.942,27.372,20.739,19.476
44.984,53.039,28.486,34.559,27.207,30.887,23.999,23.062
43.695,53.919,28.651,35.046,26.833,31.458,23.946,24.043
42.19,52.965,28.17,35.208,25.533,31.775,22.799,24.691
42.005,51.411,29.07,36.815,25.593,33.24,22.83,26.256
40.441,48.767,28.578,35.972,24.729,32.053,21.123,24.696
38.015,46.534,23.961,29.868,20.391,26.179,15.416,17.829
39.201,47.795,19.176,23.771,16.534,20.925,11.12,11.93
43.632,51.302,19.39,24.041,17.979,21.746,14.004,14.177
46.998,53.664,23.733,29.579,22.931,27.253,21.622,23.363
48.73,55.114,27.961,34.898,26.631,32.383,27.614,31.734
49.05,55.996,28.475,35.478,26.208,32.657,27.74,31.465
45.36,53.663,24.133,30.002,21.626,26.555,21.82,21.261
38.126,47.739,17.649,21.506,15.685,17.199,14.094,8.017
31.997,42.096,12.552,14.546,10.983,9.602,8.714,-0.747
29.911,39.506,10.464,11.728,8.554,6.739,6.392,-2.529
31.229,39.421,12.159,13.693,9.667,8.992,7.243,1.549
33.249,40.774,15.896,18.552,13.184,14.195,10.361,7.983
33.161,42.557,16.892,21.726,14.072,17.91,11.473,11.729
32.088,44.315,15.068,21.826,11.892,18.557,10.043,11.698
33.98,46.893,16.613,23.048,13.251,19.903,12.407,12.9
37.566,48.919,21.929,26.335,18.969,23.099,19.289,17.398
37.751,47.789,23.77,26.982,21.392,23.942,22.656,20.463
34.537,44.802,19.689,23.284,17.645,20.724,19,18.789
31.552,42.112,14.404,18.093,12.606,15.83,13.147,13.948
29.713,38.816,11.458,13.663,9.889,11.061,9.653,8.668
27.7,34.563,10.239,10.768,8.562,7.398,8.61,5.251
26.612,32.814,10.879,11.354,8.689,7.668,10.258,6.714
29.875,36.833,16.07,17.299,13.329,14.018,16.896,14.553
34.592,42.138,22.664,23.726,19.732,21.07,24.984,22.554
32.084,40.326,21.453,22.195,18.694,20.201,25.492,21.619
23.266,32.698,12.964,14.592,10.075,13.095,18.253,13.93
18.879,28.413,8.348,10.841,4.597,9.139,12.794,9.465
22.418,29.778,11.368,12.88,6.844,10.463,13.631,10.197
27.439,31.82,15.27,14.623,10.971,11.837,16.656,10.655
29.215,32.541,16.067,14.186,12.566,11.458,17.893,9.041
29.516,34.043,17.174,15.379,14.005,12.425,18.908,8.913
31.257,36.928,21.159,19.133,17.572,15.568,22.51,11.858
33.079,39.106,23.888,20.588,19.753,16.704,25.593,13.258
32.848,39.794,21.717,17.54,17.517,13.751,23.957,9.893
32.975,40.911,18.974,15.299,15.057,11.442,21.252,6.812
36.04,43.262,20.7,17.899,16.841,13.7,22.675,9.103
39.113,44.495,23.886,21.788,19.755,17.313,25.716,13.695
37.473,41.835,22.242,21.87,18.088,17.205,24.542,14.497
31.473,36.098,15.841,18.233,12.184,13.399,18.682,10.43
25.689,31.143,10.599,14.586,7.54,9.78,13.14,5.721
22.709,28.931,9.877,13.24,7.124,8.755,11.621,4.381
22.643,28.948,12.533,14.401,9.604,10.352,13.455,6.873
25.4,30.295,16.178,16.597,12.563,12.759,15.423,10.036
28.585,30.683,17.722,15.922,13.226,11.97,13.916,9.081
29.799,29.344,16.396,11.454,11.381,7.527,9.629,4.25
31.75,30.509,16.404,9.377,11.683,5.965,8.822,2.685
36.072,35.556,19.826,12.924,16.041,10.189,13.734,7.327
38.904,39.206,23.151,16.642,20.185,14.241,19.049,12.482
40.349,40.819,26.189,18.44,23.431,15.689,22.983,15.743
44.372,44.911,31.603,21.949,28.642,18.417,28.116,19.885
47.444,48.661,34.971,24.488,31.824,20.796,30.861,22.192
43.958,45.951,30.863,20.808,27.719,17.717,26.422,18.185
37.624,39.426,23.627,14.32,20.568,11.24,18.966,11.239
34.42,35.888,20.566,11.738,17.478,7.805,15.51,7.964
33.442,36.607,22.309,14.387,19.031,10.151,17.611,10.566
31.889,38.589,25.244,19.554,21.883,15.96,22.852,16.566
30.236,39.467,26.651,23.69,23.646,20.378,27.317,21.363
29.034,38.625,25.792,24.615,23.412,20.605,27.501,22.215
27.38,37.132,23.99,24.084,21.842,19.359,24.462,21.343
24.744,35.352,22.032,23.778,19.72,19.009,21.498,20.777
20.367,30.536,17.427,20.097,15.371,15.564,17.32,16.705
14.313,21.998,9.394,10.992,7.962,6.823,9.686,7.117
9.521,15.102,2.406,2.278,1.138,-1.192,1.935,-1.683
8.905,14.318,0.124,-0.213,-1.203,-3.1,-1.261,-3.914
12.729,18.229,2.346,2.851,1.424,-0.149,1.142,-0.714
19.368,24.062,8.112,8.525,7.67,5.033,8.027,5.384
25.477,30.198,15.309,14.701,14.886,11.183,16.866,13.191
27.508,34.006,19.606,18.852,18.971,15.979,23.344,19.494
25.125,32.902,18.405,18.915,17.634,16.622,24.288,20.463
21.416,27.993,14.271,15.357,13.582,12.96,20.941,16.862
19.495,24.3,11.874,11.245,11.584,8.173,17.276,13.047
19.217,25.343,12.128,9.836,12.179,5.777,14.984,10.974
18.028,28.263,12.201,11.291,12.161,6.379,12.631,9.396
16.338,28.997,11.769,14.257,11.553,9.334,11.004,9.392
17.697,29.218,13.63,19.064,13.344,14.741,13.374,13.896
21.321,31.092,17.187,24.735,16.425,20.581,18.321,20.473
22.425,31.971,19.197,28.157,17.544,23.547,21.164,23.676
20.219,29.484,19.675,28.739,17.695,23.577,21.698,23.287
16.225,23.903,18.896,26.712,17.676,21.194,20.794,21.056
9.22,15.847,14.178,20.318,13.837,14.708,15.47,15.249
0.241,7.755,6.421,11.466,5.993,5.908,6.126,6.49
-4.335,4.217,2.61,7.394,1.546,1.863,0.604,1.705
-1.055,7.324,6.836,11.711,5.561,6.487,4.581,5.911
4.979,13.626,14.193,19.385,13.029,15.138,13.7,15.091
8.432,18.56,18.578,24.306,17.138,21.158,20.2,21.879
11.271,21.825,20.924,26.352,18.825,23.358,22.29,23.955
15.513,24.378,23.536,27.511,21.063,23.732,21.983,23.589
17.913,25.562,24.642,28.346,22.367,23.924,20.379,23.89
16.664,25.444,23.112,29.354,21.247,24.854,18.456,25.459
14.64,24.512,21.098,30.114,19.582,25.283,17.117,24.951
15.212,23.962,21.544,30.673,20.35,24.663,17.044,21.734
17.92,25.728,25.182,32.975,24.126,25.67,18.469,20.834
17.911,26.962,28.168,35.321,26.798,27.696,18.484,22.882
13.039,22.196,25.408,31.664,23.515,24.729,13.322,20.887
8.423,13.367,17.375,21.165,15.359,15.165,4.405,11.85
8.538,8.208,10.807,12.685,9.012,7.515,-1.565,3.97
11.684,9.416,11.34,14.176,9.6,9.661,0.8,6.078
14.758,11.953,16.194,20.728,14.587,16.258,8.153,13.258
16.476,11.245,18.771,22.901,17.729,17.845,12.138,14.882
16.263,8.904,18.256,21.256,17.716,15.853,10.971,11.781
13.716,6.628,16.568,19.73,16.258,14.568,8.151,9.496
9.738,2.071,12.851,16.152,12.953,10.937,4.322,6.028
7.817,-3.8,9.135,10.735,9.6,4.527,0.029,0.229
10.344,-5.204,10.877,10.026,11.056,2.406,-1.135,-1.805
14.049,-0.981,17.254,15.929,16.924,7.392,1.871,3.242
15.07,3.596,21.616,22.17,21.43,13.703,5.783,10.492
14.291,4.616,20.55,22.803,21.145,15.402,7.672,13.385
13.896,3.634,16.137,18.657,17.324,12.879,7.594,11.281
15.167,4.931,14.191,16.771,15.278,12.274,9.156,11.232
18.25,9.204,18.487,21.46,19.235,17.37,15.314,18.607
20.921,12.001,23.971,26.992,24.642,22.798,21.961,27.186
20.426,9.831,22.386,25.103,23.058,20.483,21.608,26.458
16.314,4.161,13.591,16.066,14.328,10.565,13.915,16.238
12.432,0.422,6.367,8.452,7.576,2.01,7.847,7.515
14.067,3.162,7.844,8.987,9.68,2.114,10.081,8.455
19.622,9.669,14.417,14.471,16.47,7.889,15.276,14.811
21.681,12.648,17.439,17.328,19.447,11.753,15.573,18.408
19.002,10.803,16.408,16.965,18.549,12.751,13.99,19.396
18.321,10.632,18.731,19.581,20.995,16.232,18.262,23.541
21.826,14.88,25.633,26.659,27.736,23.133,26.683,30.795
21.834,16.055,27.7,29.678,29.699,25.556,29.117,32.862
12.678,8.003,19.233,21.722,21.612,17.619,21.122,24.476
0.835,-3.256,8.026,9.145,11.194,5.677,10.593,12.427
-5.123,-9.285,2.824,2.135,6.749,-0.911,5.803,5.792
-7.206,-11.534,0.825,0.423,5.065,-2.757,4.165,3.196
-10.726,-14.892,-3.1,-1.175,1.104,-4.799,0.699,-0.504
-14.189,-18.166,-6.141,-2.489,-1.738,-6.696,-2.101,-4.029
-14.571,-18.494,-4.9,-2.051,-0.059,-6.798,-0.908,-4.916
-13.701,-17.332,-2.502,-2.016,2.096,-6.968,1.383,-5.407
-14.936,-17.386,-2.789,-3.961,0.729,-8.706,1.445,-7.448
-18.326,-18.762,-5.164,-6.659,-2.301,-11.022,0.3,-9.748
-20.169,-19.077,-6.995,-8.49,-3.663,-12.605,-0.627,-11.085
-17.732,-16.234,-6.873,-8.52,-2.838,-12.548,-1.537,-11.05
-13.831,-11.958,-5.419,-7.169,-1.363,-11.016,-1.801,-9.37
-12.174,-9.772,-3.474,-6.093,0.272,-9.593,0.63,-6.398
-10.934,-9.652,-0.573,-5.598,3.246,-8.873,6.671,-2.361
-6.313,-8.035,3.796,-2.919,7.721,-6.312,14.476,3.268
0.1,-3.375,8.186,3.634,11.562,0.02,20.361,9.788
1.517,-0.538,8.608,8.663,11.307,5.081,19.994,12.872
-5.373,-5.138,2.295,5.19,5.164,1.937,11.954,8.421
-15.189,-13.831,-6.932,-3.559,-3.119,-6.285,1.943,0.055
-21.017,-18.941,-11.872,-8.151,-7.237,-10.301,-2.083,-4.006
-21.324,-18.807,-9.88,-5.633,-5.374,-7.542,1.529,-0.858
-16.949,-15.401,-3.324,0.918,0.26,-1.314,9.152,6.698
-10.227,-10.764,3.268,7.483,6.411,4.952,16.233,14.292
-7.047,-8.891,4.994,9.538,8.875,7.439,18.501,17.378
-11.54,-12.603,0.34,5.37,5.363,4.077,14.656,14.324
-20.638,-19.859,-7.286,-1.608,-1.622,-2.458,8.191,8.189
-27.864,-26.406,-13.224,-6.94,-7.423,-7.542,3.843,3.445
-30.209,-29.512,-15.616,-9.221,-9.84,-9.295,2.835,1.961
-28.901,-28.584,-14.772,-9.149,-9.268,-8.869,3.872,2.791
-26.585,-25.271,-11.568,-7.787,-6.803,-8.02,5.997,4.105
-26.641,-24.116,-9.491,-8.104,-5.637,-9.214,6.541,3.11
-30.421,-27.387,-12.231,-12.106,-8.859,-13.534,2.867,-1.551
-34.333,-30.113,-17.355,-15.605,-13.791,-16.899,-1.504,-5.35
-34.668,-28.197,-19.724,-14.502,-15.753,-15.645,-1.538,-3.519
-32.175,-24.813,-18.997,-11.851,-14.962,-12.919,0.567,0.031
-29.074,-23.075,-18.083,-11.592,-14.133,-12.902,-0.333,-1.298
-26.203,-21.937,-18.135,-12.373,-14.076,-14.248,-3.859,-5.7
-24.134,-20.837,-18.278,-11.36,-14.295,-13.67,-6.745,-7.541
-24.182,-21.882,-18.197,-9.524,-14.849,-11.911,-8.908,-7.541
-27.372,-26.978,-18.951,-10.45,-16.326,-12.554,-11.072,-9.063
-33.047,-34.657,-21.26,-15.009,-18.649,-16.698,-11.708,-11.405
-39.155,-41.143,-24.268,-20.182,-21.046,-21.874,-10.31,-12.932
-43.656,-44.406,-26.343,-23.458,-23.013,-25.671,-8.945,-14.263
-45.391,-44.756,-26.607,-25.014,-24.136,-27.723,-8.965,-16.023
-44.026,-42.197,-25.406,-24.933,-23.663,-27.71,-9.356,-16.752
-40.232,-36.858,-23.616,-22.128,-21.686,-24.653,-9.182,-14.566
-36.109,-31.384,-21.914,-17.101,-19.625,-19.449,-9.256,-10.469
-32.833,-27.89,-19.534,-11.5,-17.432,-13.945,-9.12,-6.539
-28.767,-23.689,-14.723,-5.026,-12.982,-7.531,-5.764,-1.643
-23.831,-17.086,-9.163,1.321,-7.448,-0.952,-0.122,4.214
-21.493,-12.764,-7.633,2.842,-5.538,0.859,1.783,5.994
-23.396,-14.264,-10.886,-2.026,-8.2,-3.791,-1.742,1.417
-26.844,-18.348,-14.553,-8.541,-11.604,-9.826,-5.779,-4.671
-27.234,-19.576,-14.175,-10.57,-11.564,-10.949,-5.382,-5.854
-22.779,-16.411,-9.022,-6.473,-6.725,-5.979,-0.261,-0.604
-17.499,-12.933,-3.268,-1.673,-0.673,-0.849,4.355,5.332
-15.59,-12.478,-1.313,-1.652,1.826,-1.061,3.725,5.926
-15.549,-12.179,-2.315,-4.207,0.899,-4.207,-0.119,2.708
-13.646,-8.929,-2.426,-4.41,0.137,-5.175,-2.215,0.679
-9.324,-4.461,-0.036,-1.728,1.523,-3.166,-0.839,1.574
-5.283,-1.3,2.958,1.28,3.839,-0.339,2,3.795
-4.477,-0.258,3.624,2.251,4.385,1.03,3.056,4.54
-7.293,-1.812,0.955,0.237,1.853,-0.67,0.592,1.814
-11.142,-5.85,-3.543,-3.817,-2.369,-5.118,-4.52,-3.725
-13.055,-10.012,-7.027,-7.167,-5.487,-9.087,-9.117,-8.405
-11.388,-9.663,-6.609,-6.249,-4.972,-8.087,-8.987,-7.52
-6.049,-3.165,-1.725,-0.387,-0.278,-1.655,-3.083,-0.916
-0.319,3.46,3.504,4.995,4.946,3.693,2.921,4.148
0.043,3.296,3.232,3.699,4.846,1.557,1.823,1.129
-6.588,-2.276,-2.801,-2.675,-1.45,-5.574,-5.376,-6.545
-14.727,-6.934,-8.667,-6.983,-8.102,-9.866,-10.532,-10.331
-18.775,-9.134,-10.866,-7.11,-10.842,-9.227,-10.245,-8.718
-19.977,-12.776,-12.08,-7.775,-11.864,-8.747,-9.298,-7.589
-22.451,-18.558,-14.496,-10.872,-13.773,-10.727,-10.827,-9.083
-25.881,-21.858,-15.885,-12.037,-14.834,-11.231,-11.47,-8.84
-26.969,-20.988,-13.889,-8.916,-12.796,-8.254,-8.317,-4.876
-25.597,-19.953,-10.295,-6.081,-9.381,-6.044,-4.239,-1.379
-25.583,-21.893,-10.312,-9.77,-9.386,-9.859,-4.466,-3.511
-29.378,-25.461,-16.691,-19.796,-15.319,-19.185,-10.009,-11.226
-34.939,-28.125,-24.982,-28.498,-23.432,-27.202,-15.773,-18.121
-39.085,-29.518,-28.783,-29.98,-27.753,-28.658,-17.112,-18.903
-40.83,-29.839,-27.475,-26.557,-26.98,-25.568,-15.24,-15.632
-40.54,-28.054,-23.903,-22.138,-23.641,-21.397,-12.515,-11.813
-38.802,-24.884,-19.672,-16.927,-19.732,-16.131,-8.636,-7.226
-36.663,-23.588,-16.546,-12.292,-16.831,-10.896,-4.546,-2.666
-35.416,-25.17,-16.381,-11.483,-16.295,-9.05,-2.968,-1.067
-35.692,-27.44,-18.387,-13.997,-17.53,-10.838,-4.127,-2.438
-36.886,-29.473,-20.193,-16.509,-18.866,-13.609,-5.978,-4.444
-37.858,-32.152,-20.403,-17.758,-19.36,-15.948,-7.237,-6.329
-38.442,-34.838,-19.392,-18.632,-19.032,-17.834,-7.653,-8.343
-39.028,-35.858,-18.763,-20.038,-18.773,-19.416,-7.307,-9.88
-37.9,-34.39,-18.081,-20.672,-18.099,-19.609,-5.565,-8.967
-32.504,-29.954,-14.124,-16.973,-14.293,-15.548,-1.053,-3.48
-25.198,-24.093,-7.685,-9.75,-8.323,-8.161,4.337,4.185
-21.591,-21.364,-5.059,-6.459,-6.206,-4.536,5.098,7.018
-22.163,-23.775,-8.422,-10.385,-9.976,-8.075,-0.371,2.377
-22.545,-27.237,-12.472,-15.247,-14.322,-13.098,-7.002,-4.253
-20.229,-26.575,-12.418,-15.02,-14.167,-13.492,-9.528,-6.9
-16.228,-21.465,-9.182,-11.093,-10.472,-9.841,-7.525,-5.06
-13.351,-16.86,-6.815,-8.644,-8.046,-7.324,-4.696,-2.527
-13.902,-17.355,-7.842,-10.78,-9.632,-9.699,-5.05,-3.229
-17.318,-21.333,-11.207,-15.439,-13.203,-14.599,-8.511,-6.48
-21.449,-24.455,-14.592,-18.242,-15.707,-17.051,-11.855,-8.275
-25.597,-26.764,-17.518,-18.603,-17.402,-16.915,-14.22,-8.213
-29.313,-29.86,-19.944,-18.401,-19.458,-16.713,-16.758,-8.778
-29.967,-31.077,-19.692,-16.626,-19.796,-15.294,-17.787,-8.823
-26.913,-28.26,-16.277,-12.532,-17.165,-11.282,-15.409,-6.36
-25.167,-25.317,-14.516,-9.849,-16.046,-8.169,-12.983,-4.635
-26.558,-24.645,-16.061,-9.667,-18.21,-7.744,-13.06,-5.761
-24.537,-21.387,-14.329,-6.827,-16.722,-5.632,-11.335,-5.237
-17.436,-13.734,-7.483,-0.788,-9.401,-0.88,-6.238,-1.889
-13.659,-8.753,-3.728,1.232,-5.179,0.194,-4.498,-2.228
-16.288,-10.86,-6.599,-3.502,-8.387,-5.208,-9.647,-8.968
-18.127,-14.7,-9.739,-9.025,-12.197,-11.493,-15.854,-16.027
-15.916,-14.577,-9.425,-10.393,-12.056,-13.319,-17.445,-17.721
-14.221,-11.661,-8.603,-8.824,-10.929,-11.345,-15.166,-14.787
-13.403,-7.871,-7.6,-5.947,-9.635,-7.329,-10.45,-9.378
-8.833,-2.382,-3.574,-1.331,-5.441,-1.603,-3.335,-2.166
-3.029,1.951,0.58,1.663,-1.146,1.782,1.296,2.492
-3.726,-0.562,-1.602,-2.924,-3.39,-2.943,-3.449,-1.689
-9.73,-7.817,-9.198,-13.217,-11.31,-13.208,-15.097,-12.649
-12.427,-11.347,-14.8,-20.254,-17.361,-20.077,-23.741,-21.128
-9.36,-8.861,-14.993,-20.254,-18.252,-20.07,-25.003,-22.531
-5.249,-4.706,-12.142,-16.636,-16.073,-16.276,-22.224,-19.521
-3.647,-1.757,-8.961,-12.856,-12.726,-12.167,-19.211,-16.06
-5.069,-1.096,-7.697,-11.129,-10.57,-10.58,-18.416,-15.267
-8.713,-3.453,-10.227,-13.007,-12.453,-12.959,-21.458,-18.5
-11.817,-6.786,-14.592,-16.685,-16.802,-16.837,-26.033,-22.93
-11.557,-8.113,-16.469,-18.745,-18.866,-18.677,-27.427,-24.487
-8.482,-7.488,-14.854,-18.498,-17.169,-18.008,-24.748,-23.16
-5.044,-6.715,-11.984,-17.058,-14.051,-15.978,-21.246,-21.486
-3.382,-6.791,-10.426,-15.685,-12.681,-13.791,-19.834,-20.585
-4.83,-7.52,-11.691,-15.692,-14.647,-12.841,-20.402,-20.15
-6.806,-7.045,-13.597,-16.061,-16.933,-12.35,-19.984,-19.038
-3.589,-2.935,-11.559,-13.858,-14.429,-9.547,-16.47,-16.079
5.328,4.185,-5.303,-8.921,-7.44,-4.257,-11.947,-11.952
13.27,10.063,0.385,-4.382,-1.446,0.503,-9.434,-8.381
15.16,11.393,1.771,-3.185,-0.052,1.975,-8.95,-6.731
12.805,9.312,-1.008,-6.02,-2.726,-0.375,-10.013,-8.489
10.296,7.432,-5.787,-10.896,-7.4,-4.685,-13.6,-13.671
8.725,7.565,-10.214,-14.689,-12.086,-8.276,-18.884,-19.312
7.046,8.188,-12.765,-16.137,-15.117,-10.166,-22.51,-22.532
4.881,6.782,-13.295,-16.311,-15.658,-11.155,-22.705,-23.341
3.418,3.989,-11.72,-15.471,-13.4,-11.04,-19.884,-22.331
4.031,3.277,-7.987,-12.593,-9.008,-8.358,-14.879,-18.942
5.078,4.37,-4.963,-9.557,-6.095,-4.741,-10.789,-15.053
3.562,3.114,-5.529,-9.919,-7.189,-4.393,-10.807,-14.724
-0.06,-0.834,-7.741,-13.219,-9.297,-7.594,-13.094,-17.92
-3.439,-4.071,-9.17,-16.242,-10.003,-10.579,-14.334,-20.491
-5.009,-4.766,-10.042,-16.71,-10.774,-10.525,-13.956,-19.58
-4.308,-3.806,-10.377,-14.649,-12.098,-8.027,-12.73,-16.51
-3.175,-3.99,-10.835,-13.396,-13.615,-6.718,-12.919,-15.763
-3.7,-6.808,-13.055,-15.674,-16.113,-8.967,-16.652,-19.416
-5.448,-10.305,-16.606,-19.525,-19.351,-12.977,-22.004,-24.433
-6.528,-12.035,-19.16,-21.617,-21.352,-15.635,-24.556,-27.097
-5.084,-11.049,-18.82,-20.796,-20.31,-15.002,-21.944,-25.969
-1.308,-7.799,-15.894,-17.883,-16.792,-11.325,-16.362,-22.073
1.855,-4.062,-13.179,-14.921,-14.117,-7.498,-13.045,-18.801
3.36,-0.896,-12.075,-12.963,-13.862,-5.457,-13.302,-17.594
5.362,1.619,-10.903,-11.654,-13.507,-4.597,-12.934,-16.392
7.397,1.86,-9.821,-12.45,-12.216,-5.979,-11.186,-15.987
6.401,-1.026,-10.957,-16.638,-12.621,-10.859,-11.948,-19.212
2.628,-4.384,-13.291,-21.376,-14.967,-15.897,-14.981,-23.591
-0.395,-5.934,-14.088,-23.263,-16.443,-17.082,-15.783,-24.175
0.157,-5.273,-12.431,-21.231,-15.097,-13.941,-11.829,-19.636
4.165,-1.597,-8.366,-15.058,-10.84,-7.491,-4.124,-11.473
8.499,4.077,-3.04,-7,-5.374,-0.21,3.682,-3.174
10.845,8.226,1.279,-1.439,-1.058,4.27,8.376,1.557
11.877,9.114,3.445,0.058,0.982,5.066,10.014,2.596
11.417,7.075,3.075,-1.518,0.223,3.545,9,1.204
8.945,3.257,0.671,-4.626,-2.521,1.021,5.696,-1.995
8.237,1.261,-0.348,-5.68,-3.381,0.189,3.723,-3.992
12.323,3.55,1.947,-2.887,-0.562,2.599,4.968,-2.666
16.223,6.1,3.331,-0.638,1.291,4.573,4.828,-1.797
12.966,3.121,-0.032,-2.922,-1.793,2.225,0.143,-5.014
4.368,-3.908,-4.635,-6.672,-6.277,-1.94,-4.53,-9.029
-0.207,-6.901,-4.794,-6.628,-6.507,-2.315,-3.825,-8.356
3.282,-2.557,-1.29,-3.116,-3.173,1.551,0.476,-3.687
8.48,2.686,0.551,-0.912,-1.419,4.434,2.402,-0.929
9.279,2.796,-1.048,-2.516,-3.043,2.821,-0.488,-3.311
6.768,-0.744,-4.032,-6.972,-6.067,-2.155,-5.807,-9.004
4.535,-3.741,-6.708,-12.075,-8.618,-7.368,-9.63,-13.893
4.146,-4.293,-8.337,-15.311,-9.881,-10.32,-10.278,-15.144
4.666,-3.427,-8.766,-16.263,-10.119,-11.413,-9.958,-14.317
4.952,-2.834,-7.808,-16.131,-9.405,-11.985,-9.863,-14.059
6.43,-1.638,-4.652,-13.658,-6.523,-10.086,-6.934,-12.843
10.995,2.329,0.655,-6.706,-1.039,-3.273,0.612,-7.558
16.157,7.103,5.22,1.324,3.997,4.498,8.055,-0.603
17.227,7.8,5.016,3.459,3.927,5.957,7.841,0.91
14.591,5.107,0.64,-0.139,-0.908,1.899,-0.866,-3.881
12.312,4.336,-2.515,-2.396,-4.659,-0.134,-10.074,-7.421
11.513,6.153,-1.086,-0.363,-3.455,2.389,-12.477,-5.116
11.958,7.951,4.55,4.225,2.24,7.045,-7.723,0.869
15.578,10.848,12.893,10.706,10.636,12.879,0.882,7.469
23.041,17.212,21.187,18.142,19.052,19.29,9.631,12.85
30.466,24.293,25.924,23.264,23.896,23.637,14.499,15.351
32.424,25.643,25.417,23.13,23.148,23.24,13.417,13.98
29.008,21.054,22.695,20.12,20.218,20.464,11.471,12.072
26.649,18.645,23.641,20.764,21.63,21.953,16.833,16.363
27.397,21.118,27.837,24.886,26.461,27.071,25.577,24.12
25.542,21.077,28.233,24.67,26.706,26.877,24.059,22.53
19.429,15.103,23.384,18.677,21.254,19.935,11.681,11.056
14.749,9.624,18.248,13.307,16.054,14.019,1.393,3.704
14.347,9.489,13.871,10.127,12.237,11.192,-1.395,4.706
15.868,11.634,9.674,6.583,8.871,7.831,1.236,6.485
17.692,12.395,9.13,4.093,9.274,4.649,8.497,5.227
19.249,12.469,11.721,3.626,12.386,3.378,11.893,0.941
19.155,13.292,10.982,2.895,11.146,2.688,0.239,-5.156
16.502,13.549,5.189,1.272,4.367,1.794,-18.95,-9.964
12.284,11.618,-1.257,-0.457,-2.36,0.818,-27.552,-11.843
10.492,10.513,-3.457,-0.19,-4.031,1.647,-20.911,-8.68
14.667,14.269,0.803,4.828,0.784,6.973,-7.454,1.005
22.65,20.364,8.763,12.662,9.332,14.529,5.463,11.474
29.232,23.507,15.835,18.84,17.396,19.824,14.819,16.227
30.082,21.774,18.164,20.278,20.329,20.557,13.911,14.654
23.087,15.329,11.72,13.964,13.199,14.403,-3.249,7.06
12.147,6.712,-1.201,2.017,-0.915,3.048,-24.19,-3.766
5.192,0.828,-9.364,-5.928,-9.446,-4.871,-27.738,-10.091
6.404,0.938,-5.098,-2.981,-4.9,-2.629,-12.785,-6.84
14.616,7.268,7.437,8.631,7.443,8.421,4.477,4.719
23.837,15.435,17.574,20.03,16.876,19.785,11.918,17.479
26.023,17.685,18.536,22.626,17.689,22.238,10.309,22.831
21.09,13.326,14.922,17.718,14.869,16.808,11.661,20.75
15.977,9.161,13.509,11.904,14.37,10.341,18.094,13.934
12.364,6.884,10.043,5.071,10.927,2.9,8.407,-0.405
8.136,3.34,0.207,-3.488,0.217,-5.782,-23.337,-16.075
5.668,0.021,-7.758,-7.973,-8.389,-9.749,-45.05,-19.2
7.598,0.679,-6.624,-5.679,-6.897,-6.865,-37.65,-11.246
10.914,3.663,-1.548,-1.327,-0.915,-2.104,-22.465,-4.359
12.373,5.371,1.738,2.29,3.074,1.764,-15.743,-0.33
13.561,6.889,4.977,7.059,6.508,6.383,-7.872,5.863
15.496,9.181,8.214,11.233,9.628,10.129,3.356,11.195
14.945,8.678,7.023,10.254,8.369,8.727,4.717,9.271
9.458,3.131,1.504,5.817,3.016,3.861,-3.839,4.147
1.05,-5.207,-2.944,3.024,-0.953,1.013,-5.23,6.227
-7.058,-13.733,-4.005,1.99,-1.109,0.703,8.232,16.613
-15.039,-22.794,-5.756,-1.726,-1.696,-2.236,21.076,21.378
-23.668,-32.429,-11.856,-9.931,-7.102,-10.525,14.321,8.373
-27.829,-36.901,-15.012,-13.642,-10.218,-14.504,6.732,-2.387
-20.728,-29.507,-2.257,-0.686,3.164,-0.698,45.267,23.493
-8.11,-16.124,16.788,16.738,23.485,17.788,100.133,57.994
-6.772,-13.034,10.288,7.967,16.257,8.273,61.505,28.511
-19.451,-23.257,-22.384,-23.562,-19.72,-24.86,-64.5,-48.539
-29.766,-32.355,-43.393,-41.807,-42.856,-43.137,-136.212,-83.344
-29.144,-32.65,-39.195,-38.784,-37.612,-39.064,-111.803,-65.905
-22.921,-27.675,-28.039,-31.905,-24.62,-31.623,-70.788,-47.332
-13.55,-18.42,-15.191,-21.079,-10.961,-20.14,-38.125,-26.768
-2.953,-8.072,0.79,-3.921,5.262,-1.79,1.695,8.642
0.745,-5.871,5.805,2.142,9.947,4.374,12.668,19.64
-3.413,-10.861,-5.191,-8.934,-2.113,-8.353,-24.502,-13.596
-4.447,-10.402,-11.567,-14.188,-8.999,-14.751,-47.288,-36.087
3.37,-0.66,2.445,2.897,6.196,3.667,0.167,1.736
12.556,8.88,23.12,25.646,28.773,28.68,75.068,61.424
12.844,8.801,23.606,24.454,29.537,27.445,79.298,58.835
2.874,-1.264,-0.983,-3.397,2.615,-3.008,-10.265,-16.154
-9.058,-13.831,-24.943,-28.213,-24.016,-29.771,-98.312,-77.536
-15.679,-21.902,-27.769,-30.115,-27.185,-31.296,-102.893,-71.823
-16.55,-22.863,-17.731,-19.648,-16.092,-19.655,-55.937,-38.052
-15.239,-18.794,-9.994,-11.177,-8.003,-10.428,-19.896,-16.709
-15.656,-16.291,-6.337,-6.393,-4.01,-5.185,1.649,-1.023
-16.806,-17.844,-2.351,-3.313,1.591,-2.052,24.824,14.97
-16.264,-19.869,-1.747,-5.822,3.703,-5.123,26.859,10.559
-17.164,-21.617,-11.027,-17.649,-6.054,-17.514,-12.171,-20.418
-20.662,-23.814,-21.914,-29.38,-18.411,-28.856,-50.871,-42.44
-22.978,-25.045,-22.288,-30.226,-19.212,-28.449,-47.58,-32.294
-24.851,-26.226,-18.151,-26.922,-14.582,-24.377,-28.121,-18.452
-27.893,-27.85,-19.226,-28.308,-15.373,-26.401,-24.739,-25.053
-26.752,-25.387,-19.085,-27.004,-15.135,-26.303,-20.265,-30.551
-19.391,-18.028,-10.739,-16.442,-6.374,-16.128,1.078,-14.497
-13.71,-12.507,-2.419,-6.122,2.451,-5.28,16.064,5.186
-13.833,-11.333,-2.149,-4.652,2.724,-3.355,6.751,6.615
-13.611,-9.893,-3.718,-6,0.635,-4.937,-5.708,-1.58
-8.958,-6.644,1.116,-2.309,4.831,-1.75,3.124,0.309
-3.401,-3.807,9.721,4.577,12.813,5.125,23.215,13.521
-0.283,-1.206,14.681,9.21,17.208,10.158,30.81,24.489
0.478,1.149,13.707,9.728,16.029,10.573,23.726,24.146
-1.034,0.169,9.907,7.183,12.638,7.065,16.661,15.588
-5.265,-5.229,6.99,3.865,10.583,2.798,16.5,8.652
-10.862,-11.541,6.207,2.854,10.425,1.651,17.763,9.832
-14.944,-14.506,6.19,4.825,10.147,3.99,15.627,15.445
-15.306,-12.127,4.436,6.049,7.576,5.409,11.866,16.393
-12.11,-5.516,0.483,4.022,3.149,3.318,10.447,10.85
-9.067,1.392,-2.506,2.087,0.226,1.573,13.533,7.093
-10.282,4.695,-2.068,3.176,0.655,3.412,18.991,10.638
-14.729,3.603,-0.803,3.594,1.558,4.719,20.699,14.743
-17.129,1.559,-1.193,0.54,0.995,2.229,16.832,11.965
-14.489,3.291,0.228,-0.634,2.789,1.28,14.631,8.135
-10.591,7.314,4.364,2.511,7.415,4.66,17.974,10.428
-10.523,7.669,4.451,3.013,7.836,5.745,19.67,13.026
-11.066,5.984,0.414,0.384,4.237,3.649,17.051,11.473
-6.533,8.791,1.845,4.34,6.086,7.415,18.553,13.547
-0.664,14.434,9.821,15.836,14.038,18.36,26.716,23.057
0.25,16.683,15.164,24.457,19.301,26.876,34.055,32.085
-1.654,15.322,14.436,25.237,19.256,27.827,36.279,34.253
-2.161,13.383,11.853,22.457,17.771,24.785,34.271,31.119
-2.814,10.89,10.402,19.977,16.55,21.578,29.297,26.8
-5.063,7.629,10.95,18.789,16.254,19.732,24.846,24.76
-5.384,6.273,14.294,20.116,18.734,20.668,25.324,26.552
-2.36,7.776,18.395,23.274,22.653,23.523,29.262,29.654
-0.684,8.708,18.957,24.801,23.457,24.786,30.321,29.877
-2.952,6.695,15.538,23.4,20.017,23.199,25.759,26.47
-5.375,3.941,11.919,20.806,15.797,20.505,18.496,21.626
-4.291,3.98,10.86,18.946,14.016,18.415,13.15,17.793
0.512,8.348,12.987,20.116,15.73,18.804,13.427,17.568
6.807,14.36,16.764,23.992,19.135,21.602,17.607,20.278
9.677,15.652,17.598,24.844,19.393,21.815,17.458,19.945
6.524,10.095,13.176,19.932,14.376,16.664,9.426,14.138
1.629,3.958,7.438,14.573,8.309,11.09,1.189,8.751
0.705,3.773,4.725,13.425,5.71,10.127,0.377,8.597
4.467,8.5,4.975,15.277,6.374,13.056,4.767,11.775
8.571,11.893,5.589,16.862,7.403,16.178,7.935,14.392
8.84,10.238,4.411,15.901,6.6,16.235,8.323,14.449
6.025,5.716,1.795,12.614,4.329,13.036,9.495,12.962
3.128,2.11,0.049,9.535,2.83,9.421,13.872,11.985
0.472,-0.11,-0.546,7.225,2.43,6.275,17.406,8.74
-3.844,-3.151,-2.657,3.288,0.531,1.592,12.342,-0.927
-10.238,-8.086,-6.718,-1.974,-3.105,-3.779,-0.999,-11.394
-15.714,-13.258,-8.978,-4.929,-4.695,-6.21,-10.968,-12.902
-17.252,-16.466,-7.104,-4.572,-2.591,-5.214,-9.026,-6.885
-15.997,-17.001,-2.797,-2.723,1.234,-2.909,2.555,-1.321
-14.496,-14.853,2.359,0.795,6.262,0.86,19.418,4.569
-12.95,-10.72,7.287,6.337,11.951,6.667,34.837,14.768
-11.091,-7.152,8.593,9.83,13.607,10.725,35.134,21.6
-9.531,-6.107,4.564,7.772,8.679,9.403,17.022,16.623
-8.32,-5.795,-0.459,3.922,2.631,6.01,-0.836,7.889
-6.807,-3.391,-1.132,3.48,1.673,5.487,-1.8,7.266
-4.288,0.776,2.565,5.5,5.409,7.09,9.37,12.683
-0.199,4.92,7.157,7.014,10.086,8.119,20.897,15.873
4.338,8.141,9.424,7.372,12.391,7.816,26.992,14.876
7.137,9.865,7.781,6.41,10.351,6.154,24.363,13.036
9.874,11.264,5.43,5.933,7.258,5.481,16.108,14.021
14.739,13.604,6.568,7.703,7.926,7.493,10.53,15.464
16.443,13.775,7.021,7.486,8.343,7.191,5.739,9.105
11.438,9.936,2.711,3.559,4.082,2.604,-2.306,-2.484
7.307,7.061,1.053,3.446,2.433,1.908,-3.812,-3.901
9.568,8.714,7.213,9.826,8.519,8.271,6.279,7.589
13.517,12.552,14.016,15.612,14.861,14.135,15.373,17.463
15.484,16.635,16.029,17.861,16.25,15.984,15.839,18.601
16.973,20.15,16.293,19.465,16.524,17.107,15.159,17.411
17.822,20.635,16.686,19.746,17.338,17.413,17.694,17.365
16.498,17.87,15.406,16.842,15.713,14.885,18.291,15.794
14.208,15.003,12.144,13.254,11.417,11.771,14.185,12.701
13.291,13.374,8.861,11.561,7.778,10.636,8.459,10.053
14.256,12.023,7.716,10.819,7.14,10.242,4.639,7.927
15.083,10.436,8.263,8.978,7.894,8.362,3.414,5.502
13.748,8.951,7.648,6.022,6.996,5.486,2.876,2.947
11.814,8.741,6.225,4.597,5.883,4.696,3.298,2.886
11.972,10.204,7.395,6.287,8.241,7.09,8.02,7.078
12.89,11.296,9.863,8.168,11.702,9.064,14.932,10.868
11.26,10.316,8.245,6.508,10.235,7.146,16.538,8.526
8.201,8.912,2.65,2.58,4.538,3.252,13.228,3.071
7.684,9.066,-2.018,-0.461,-0.094,0.438,9.853,-0.181
8.966,9.342,-5.238,-3.754,-3.814,-2.868,1.7,-3.894
7.972,7.614,-8.871,-8.887,-8.663,-8.212,-11.77,-10.064
5.093,4.808,-10.293,-12.746,-10.747,-12.188,-13.762,-12.444
4.15,3.039,-7.154,-12.456,-7.083,-11.769,1.82,-8.088
4.656,1.835,-4.438,-11.01,-3.92,-9.864,10.496,-5.015
2.854,-0.263,-7.321,-12.186,-7.293,-10.247,-5.119,-8.96
0.124,-1.594,-10.799,-12.891,-11.12,-10.246,-22.788,-12.312
1.151,-0.275,-7.978,-8.678,-7.675,-6.019,-19.84,-8.364
4.885,1.438,-2.66,-3.156,-1.846,-1.035,-11.392,-4.018
6.552,0.942,-1.055,-2.468,-0.836,-0.554,-14.481,-5.586
5.456,-0.623,-0.675,-5.548,-1.43,-3.208,-16.834,-8.185
4.429,-1.345,2.295,-7.484,1.029,-4.84,-8.454,-7.363
4.851,-1.599,5.345,-7.316,3.955,-4.994,-1.821,-5.798
5.671,-1.879,5.357,-6.863,4.325,-5.127,-5.367,-5.521
6.607,-0.384,4.573,-5.4,4.485,-4.131,-8.167,-4.124
9.048,4.102,6.616,-1.164,7.274,-0.279,-0.369,-0.417
12.635,8.967,9.682,3.563,10.276,4.19,9.356,2.39
14.942,11.089,9.192,4.619,9.355,5.442,7.697,1.716
14.951,10.587,5.467,2.007,5.385,3.445,-2.216,-0.593
13.977,8.956,3.184,0.119,3.047,1.883,-6.286,-1.046
13.619,7.083,4.609,1.808,4.414,3.18,-0.08,0.901
13.854,5.941,6.119,3.44,5.628,4.439,6.335,1.339
13.107,6.136,2.663,-0.153,1.574,1.356,2.969,-2.441
10.402,6.388,-3.974,-6.47,-5.671,-4.207,-7.307,-6.716
7.002,5.271,-6.743,-8.254,-8.847,-6.096,-13.632,-6.543
5.284,4.467,-3.287,-3.715,-5.534,-2.163,-8.755,-1.347
6.353,7.121,3.383,3.484,1.539,4.83,8.46,7.064
8.452,12.255,9.907,9.566,8.907,10.886,29.754,13.889
8.555,14.579,11.765,10.741,11.11,11.558,35.439,11.965
7.213,13.163,7.38,6.753,6.146,6.846,19.86,3.56
7.99,13.765,3.501,4.129,1.675,3.902,6.572,0.596
10.477,17.5,4.816,6.661,2.925,6.386,8.029,6.426
10.264,17.845,5.593,8.982,3.257,8.435,3.87,10.943
5.141,11.556,-0.948,4.09,-4.592,2.872,-19.729,2.511
-2.09,3.293,-11.955,-6.764,-16.546,-8.787,-45.64,-16.662
-5.593,-0.548,-17.513,-13.592,-21.631,-15.994,-50.62,-27.721
-4.012,0.079,-14.619,-11.621,-17.806,-13.911,-37.307,-21.641
-2.045,0.291,-10.055,-7.225,-13.224,-9.405,-25.527,-11.255
-1.453,-0.008,-6.629,-4.038,-10.217,-6.175,-18.21,-4.743
-0.28,2.287,-1.87,0.214,-5.049,-1.901,-5.612,2.197
0.229,4.346,1.36,2.928,-0.73,0.383,6.284,7.317
-1.993,1.964,-1.087,-0.2,-2.422,-3.542,4.607,4.332
-4.216,-1.541,-4.998,-5.172,-5.941,-8.85,-4.187,-1.36
-3.895,-2.144,-5.26,-6.476,-5.673,-9.98,-4.514,-1.328
-3.657,-3.103,-5.152,-7.186,-5.39,-10.821,2.233,0.542
-4.953,-6.726,-8.332,-11.056,-9.439,-15.017,3.507,-2.229
-4.815,-8.342,-10.644,-12.71,-12.939,-16.36,-0.987,-4.559
-1.983,-4.52,-6.188,-5.477,-8.689,-8.465,1.451,2.012
1.223,1.199,3.872,6.956,1.996,4.077,15.856,15.155
3.106,3.714,12.466,15.298,10.807,12.294,31.496,25.567
3.92,2.743,15.39,17.12,13.311,14.701,37.64,29.446
2.996,0.758,13.688,15.84,11.223,14.232,32.776,27.276
-1.154,-2.223,8.211,12.212,5.255,10.27,17.383,17.644
-6.264,-6.941,0.328,5.946,-3.676,2.652,-2.916,3.528
-8.454,-11.802,-5.862,-0.452,-10.856,-4.69,-16.087,-6.276
-8.995,-14.985,-9.297,-5.374,-14.512,-9.411,-22.192,-9.699
-10.832,-16.303,-12.125,-9.495,-17.032,-12.75,-30.326,-12.808
-12.398,-16.669,-13.033,-12.217,-17.352,-15.199,-34.494,-17.289
-10.875,-16.507,-9.512,-11.549,-12.956,-14.844,-24.629,-17.864
-7.477,-15.448,-4.643,-8.757,-7.406,-11.983,-11.718,-14.065
-5.919,-14.557,-4.117,-9.027,-6.979,-11.912,-12.146,-14.049
-6.361,-15.282,-7.688,-13.905,-11.411,-17.172,-21.772,-20.783
-5.272,-16.131,-9.809,-18.355,-14.417,-22.285,-25.738,-26.141
-1.944,-14.385,-7.981,-18.477,-12.551,-22.127,-19.276,-23.999
0.596,-10.108,-5.459,-16.461,-9.144,-19.305,-9.393,-18.71
0.517,-6.601,-6.339,-17.011,-9.282,-19.844,-5.973,-18.284
-1.015,-6.71,-10.344,-21.435,-13.038,-24.941,-11.634,-23.891
-1.85,-8.749,-13.38,-25.278,-16.051,-29.258,-18.845,-28.575
-1.888,-9.347,-13.463,-24.572,-16.223,-28.776,-20.418,-27.676
-2.614,-8.867,-12.549,-21.686,-15.322,-25.942,-17.345,-24.616
-3.372,-8.901,-11.83,-19.468,-14.421,-23.408,-13.534,-22.642
-3.726,-9.858,-11.752,-17.778,-14.177,-21.257,-11.468,-20.899
-6.69,-13.199,-14.896,-18.448,-17.298,-21.43,-13.544,-20.346
-12.571,-18.862,-20.981,-22.879,-23.511,-25.061,-18.9,-22.562
-17.078,-23.93,-24.982,-27.662,-27.837,-29.156,-23.008,-25.442
-19.644,-28.384,-25.85,-30.702,-28.972,-32.339,-24.758,-27.758
-24,-34.653,-28.146,-34.91,-30.985,-37.198,-26.389,-31.734
-29.738,-40.694,-32.222,-40.78,-34.265,-43.408,-27.275,-36.583
-31.868,-41.693,-32.682,-43.05,-33.948,-45.744,-24.593,-37.059
-29.387,-38.157,-29.323,-39.712,-30.032,-42.759,-20.215,-33.039
-26.712,-34.792,-28.379,-35.752,-28.611,-39.353,-19.711,-30.859
-25.472,-32.566,-30.492,-33.933,-30.419,-37.647,-22.232,-31.41
-23.68,-30.305,-30.769,-32.562,-30.854,-35.767,-22.617,-30.34
-22.474,-30.471,-29.73,-32.631,-30.43,-35.259,-22.507,-29.422
-24.017,-34.127,-30.995,-35.857,-32.188,-38.477,-25.818,-32.737
-24.921,-35.56,-31.782,-38.045,-32.946,-41.256,-27.541,-35.729
-19.619,-29.283,-25.693,-33.189,-26.654,-37.103,-17.784,-30.35
-8.906,-18,-13.565,-22.92,-14.411,-27.199,1.706,-18.322
-1.199,-10.405,-6.314,-16.945,-7.226,-20.939,9.793,-11.911
-3.14,-11.822,-11.601,-21.027,-13.227,-23.968,-9.134,-18.195
-9.093,-16.693,-19.898,-26.546,-22.615,-28.268,-35.004,-26.337
-8.104,-15.696,-17.055,-21.635,-20.125,-22.881,-37.127,-21.909
-1.318,-10.195,-7.056,-10.563,-9.7,-11.935,-20.132,-9.723
1.326,-8.26,-3.395,-6.288,-5.636,-7.489,-8.089,-4.568
-1.52,-10.164,-5.522,-8.867,-7.461,-9.664,-2.305,-6.604
-3.969,-11.6,-5.574,-10.426,-7.256,-11.295,4.362,-7.392
-5.715,-14.099,-7.15,-12.538,-9.082,-13.581,-0.605,-9.433
-10.052,-19.572,-15.525,-19.194,-18.027,-19.586,-21.572,-17.438
-15.032,-23.654,-23.776,-24.709,-26.372,-23.948,-36.196,-24.535
-16.796,-23.801,-25.537,-24.476,-27.833,-23.134,-33.814,-25.141
-16.678,-24.031,-25.39,-23.906,-27.588,-22.549,-29.781,-24.837
-18.123,-27.005,-28.213,-27.807,-30.466,-26.122,-33.567,-28.265
-20.236,-29.959,-31.429,-32.783,-33.525,-30.385,-38.395,-31.943
-18.698,-29.197,-30.167,-32.92,-31.83,-30.481,-37.151,-31.073
-12.176,-23.823,-23.622,-26.969,-24.944,-25.692,-28.918,-25.444
-4.869,-16.309,-15.617,-19.316,-17.174,-19.329,-17.224,-18.673
-1.424,-11.051,-10.535,-15.204,-12.842,-15.655,-8.474,-14.522
-1.548,-10.144,-9.745,-16.046,-12.728,-16.611,-7.965,-14.505
-1.188,-10.562,-10.949,-19.144,-14.143,-19.856,-13.581,-16.786
1.924,-8.567,-10.48,-20.974,-13.5,-21.165,-16.24,-17.537
5.296,-5.612,-7.91,-20.763,-10.642,-19.933,-12.258,-16.205
4.894,-6.362,-6.7,-20.354,-9.078,-19.366,-7.914,-16.38
0.562,-11.556,-8.11,-20.355,-9.837,-20.178,-4.767,-18.16
-3.073,-15.501,-8.121,-18.226,-9.009,-18.43,4.396,-16.212
-2.32,-13.289,-4.609,-13.075,-5.18,-12.867,14.321,-10.301
0.146,-8.637,-2.686,-9.483,-3.821,-8.913,6.574,-8.357
-0.637,-8.172,-6.129,-10.601,-7.994,-9.912,-14.947,-12.714
-4.399,-11.172,-10.767,-12.971,-12.689,-12.251,-23.824,-16.158
-7.291,-12.843,-12.908,-13.844,-14.5,-13.511,-17.882,-16.746
-7.893,-12.68,-14.682,-14.899,-16.465,-15.292,-20.54,-19.887
-6.608,-12.307,-16.401,-15.497,-18.969,-16.27,-32.396,-23.673
-2.455,-9.881,-13.423,-11.452,-16.551,-12.12,-30.505,-19.667
4.677,-3.16,-5.038,-2.595,-8.35,-3.266,-14.48,-8.609
11.153,4.642,2.096,5.177,-1.724,4.017,-6.1,-0.69
12.881,7.269,3.386,6.946,-0.994,5.139,-7.66,-0.669
9.899,3.759,1.388,3.972,-2.594,1.998,-3.895,-3.705
6.446,0.772,-0.154,1.26,-3.193,-0.221,2.739,-5.193
6.485,3.068,-0.731,0.916,-3.468,-0.008,-3.108,-6.798
9.053,6.306,-0.696,0.506,-3.69,-0.478,-16.995,-10.415
10.886,5.921,0.981,-0.837,-2.18,-2.275,-19.741,-12.231
11.628,5.137,3.948,-1.496,0.838,-2.994,-9.821,-10.047
11.094,5.961,3.957,-3.61,1.193,-4.726,-4.209,-9.985
6.992,3.362,-2.023,-10.314,-4.218,-11.286,-11.091,-16.326
2.303,-1.851,-7.774,-15.143,-9.711,-16.226,-18.308,-19.865
4.513,-0.229,-4.074,-8.066,-6.482,-8.89,-11.875,-9.802
11.074,7.184,4.869,5.138,1.655,4.759,0.964,4.327
11.532,8.609,6.48,8.652,2.958,8.318,2.749,4.213
5.227,2.611,-0.111,0.943,-3.437,0.833,-6.544,-7.616
-0.004,-2.383,-5.868,-6.272,-9.19,-5.244,-13.927,-14.983
-1.67,-3.86,-6.993,-7.219,-10.428,-4.843,-14.092,-13.71
-3.156,-5.528,-6.162,-5.818,-9.144,-3.078,-10.51,-10.795
-5.744,-8.323,-5.514,-5.695,-7.733,-3.748,-7.222,-10.225
-7.333,-9.341,-5.059,-5.61,-7.199,-4.789,-6.253,-10.575
-7.612,-8.362,-5.269,-4.548,-7.845,-4.452,-7.845,-10.729
-7.923,-8.417,-6.149,-3.803,-8.496,-4.084,-9.925,-10.845
-5.958,-7.903,-4.208,-1.619,-5.721,-2.273,-7.904,-8.71
0.88,-2.361,2.867,4.914,1.643,3.934,0.236,-2.367
8.085,5.259,10.231,12.085,8.812,11.258,8.637,4.683
8.829,7.605,11.936,13.523,10.857,13.242,10.226,6.997
3.087,3.432,8.73,8.942,8.662,8.699,7.831,3.746
-3.29,-2.322,5.352,3.2,6.242,2.169,8.897,-0.766
-5.188,-4.788,4.624,0.938,5.511,-0.861,9.502,-2.153
-2.138,-2.81,5.96,3.04,5.606,1.14,2.189,-0.42
2.27,0.69,8.161,6.009,6.632,4.204,-0.034,2.525
3.358,1.379,10.257,5.509,9.117,3.491,18.121,5.788
-1.052,-2.207,8.153,0.052,8.08,-1.721,32.638,5.192
-8.241,-7.752,-1.396,-8.263,-1.757,-8.399,10.582,-3.999
-12.781,-11.915,-11.438,-14.266,-13.039,-12.175,-25.565,-15.198
-11.58,-11.778,-12.017,-13.13,-13.941,-9.919,-33.1,-16.825
-6.207,-6.15,-5.957,-6.003,-7.648,-2.873,-22.37,-10.454
-0.704,1.706,-2.996,0.676,-5.24,3.753,-23.978,-6.12
3.169,6.832,-2.805,3.553,-5.682,6.766,-27.959,-4.947
7.179,9.074,0.945,5.438,-1.558,8.356,-15.609,-1.289
11.59,11.227,5.75,7.667,3.952,10.152,-3.342,2.961
13.412,13.09,5.021,7.57,3.46,9.915,-8.72,1.634
12.005,13.227,1.715,5.854,0.536,7.997,-13.972,-1.235
10.485,12.225,2.718,6.158,2.809,7.793,0.305,2.142
10.045,10.658,5.792,7.381,7.269,8.575,17.578,7.226
8.482,8.29,4.71,6.083,6.255,7.317,12.989,5.078
4.807,5.375,0.525,2.997,0.922,4.588,-6.23,-1.885
0.779,2.095,-1.75,0.882,-2.272,2.632,-15.247,-5.33
-1.863,-0.765,-0.5,1.198,-1.113,2.756,-6.708,-3.007
-3.186,-1.286,2.593,3.812,2.153,5.044,7.339,1.253
-4.667,-0.13,4.284,5.524,3.814,6.545,12.03,2.373
-7.068,-0.839,2.555,3.054,1.826,4.11,2.618,-1.395
-8.472,-3.11,0.374,-0.439,-0.669,0.83,-7.998,-4.555
-5.777,-1.795,3.468,2.053,2.432,3.448,-0.713,1.057
1.189,4.971,13.093,11.709,12.735,12.934,25.389,15.386
7.252,11.541,21.987,20.589,22.696,21.587,47.792,27.116
5.256,9.949,19.227,18.437,20.554,19.508,41.632,22.976
-5.132,-0.139,3.407,5.014,4.556,6.387,7.497,3.491
-14.441,-8.556,-11.356,-6.105,-10.862,-4.369,-23.019,-12.486
-15.176,-7.956,-12.238,-4.452,-12.463,-2.469,-23.64,-10.375
-11.956,-4.528,-5.23,2.477,-5.84,4.387,-7.603,0.145
-12.412,-6.494,-3.154,2.958,-3.6,4.64,-1.392,2.878
-15.598,-11.13,-6.567,-1.619,-6.492,0.084,-5.52,-1.762
-16.773,-12.2,-9.186,-4.411,-8.693,-2.399,-8.531,-5.811
-15.124,-9.74,-9.489,-4.51,-9.115,-2.48,-9.883,-7.998
-11.31,-5.437,-7.79,-2.105,-7.933,-0.695,-10.009,-7.618
-4.607,1.737,-2.014,5.621,-2.352,6.681,-3.327,-0.017
3.43,10.009,7.581,17.015,7.658,18.911,10.688,13.527
7.429,13.301,14.674,23.492,15.354,26.563,22.407,22.838
3.932,9.108,12.839,19.628,14.002,22.918,21.991,20.744
-3.569,1.908,4.431,9.961,5.981,12.783,12.663,11.532
-6.757,-1.147,0.274,4.707,1.97,7.27,9.205,6.646
-1.566,3.062,6.361,8.63,7.694,11.241,16.693,11.579
4.433,8.141,13.543,13.451,14.27,16.374,19.942,17.473
1.667,5.867,10.725,9.619,11.249,13.379,8.79,14.517
-5.619,-0.272,2.818,2.1,3.54,6.888,-2.154,8.165
-6.127,-1.09,1.559,1.4,2.456,6.477,2.912,9.098
0.393,3.601,7.287,7.448,8.532,11.763,18.65,17.698
5.442,8.02,12.612,13.379,14.619,16.61,32.133,26.704
5.942,10.452,14.404,15.792,16.938,18.298,36.425,28.124
5.588,12.181,13.97,15.845,16.084,17.946,29.046,19.975
7.567,13.631,13.538,16.623,14.619,18.638,16.112,12.046
11.203,14.982,14.763,19.428,15.21,21.818,10.39,13.926
12.745,15.387,16.327,21.009,17.093,23.744,15.641,20.222
9.864,12.841,16.022,18.256,17.714,20.695,25.641,21.463
4.589,7.394,14.014,12.645,16.563,14.421,34.557,18.387
-0.632,1.453,9.974,6.193,12.845,7.593,33.761,13.069
-5.094,-2.576,2.822,-0.277,5.292,1.123,13.276,2.936
-7.083,-3.05,-4.066,-3.453,-2.541,-2.039,-17.555,-7.472
-3.135,1.633,-3.43,1.312,-2.86,2.635,-30.608,-6.177
7.267,11.627,6.252,13.339,6.197,14.974,-17.047,8.797
18.066,23.007,16.869,25.042,16.501,27.696,1.723,25.1
24.929,31.873,23.271,31.744,22.794,34.972,13.238,33.83
30.487,37.718,28.779,36.009,28.194,38.11,23.826,37.507
34.54,39.264,32.763,37.952,32.12,38.279,29.3,37.823
33.213,36.032,30.745,34.56,30.448,34.404,22.614,33.224
28.203,31.853,25.758,28.132,25.961,28.55,16.381,26.874
24.233,29.496,23.782,23.535,23.901,23.973,22.493,23.17
22.046,27.462,24.229,21.45,23.855,21.11,31.609,21.5
20.65,25.632,24.546,21.141,24.053,20.258,31.808,20.7
21.055,27.198,26.682,24.566,26.282,23.523,27.785,23.387
22.577,30.502,30.977,30.884,30.303,29.135,29.548,29.155
21.629,28.425,31.1,32.416,30.137,29.431,34.169,30.024
19.411,21.532,24.224,25.505,23.604,21.979,31.894,22.079
21.908,19.166,18.065,18.758,18.133,15.72,24.075,14.495
28.72,23.257,18.737,19.886,19.205,17.399,20.763,15.86
32.628,25.365,21.731,23.762,22.427,21.42,25.42,21.035
30.717,21.36,21.119,22.72,22.068,20.518,30.706,21.116
26.09,14.824,17.017,17.293,17.879,15.32,26.586,15.405
21.955,8.174,12.468,11.609,12.926,9.68,13.264,8.804
19.914,1.282,9.076,6.736,9.499,4.801,1.172,4.266
19.707,-4.677,6.337,1.912,7.486,0.405,-2.862,1.09
20.321,-7.144,5.269,-0.846,7.324,-1.551,0.869,-0.043
21.754,-5.936,7.458,0.526,9.57,0.268,8.124,2.35
23.797,-4.368,10.521,3.102,11.939,2.544,12.598,5.581
25.652,-4.084,11.832,3.865,12.944,2.659,12.484,6.943
26.548,-3.588,12.398,3.982,13.884,2.292,11.248,7.959
26.415,-2.114,14.022,5.238,16.023,3.398,12.605,11.052
26.623,0.488,17.543,8.631,20.014,6.788,18.723,16.936
27.205,3.711,21.612,13.638,24.42,11.576,26.424,23.028
24.652,3.495,21.584,15.629,24.398,13.064,27.26,23.586
16.75,-3.472,14.977,10.466,17.491,7.402,18.552,16.183
7.886,-12.277,7.373,2.571,9.385,-0.905,8.64,6.642
4.728,-14.632,6.335,0.755,7.812,-3.109,6.358,3.07
8.389,-8.837,12.186,7.222,13.454,3.337,12.367,7.991
14.17,0.036,19.971,16.624,21.667,13.284,22.487,18.267
16.064,5.17,25.108,22.33,27.726,19.383,30.775,26.718
11.842,3.51,25.34,21.672,28.773,18.383,31.17,26.279
5.977,-1.061,22.152,17.858,25.837,14.243,23.83,19.019
4.661,-2.578,19.923,16.137,23.318,13.177,16.963,14.91
10.039,1.918,23.047,19.796,25.73,18.082,20.318,20.348
20.885,12.35,32.716,29.382,34.44,28.432,35.561,33.672
31.909,23.785,42.837,40.055,43.718,39.22,50.776,47.113
34.166,26.989,43.877,42.658,44.386,41.886,54.859,51.543
23.753,17.422,33.918,33.168,34.715,32.533,52.029,44.367
6.881,1.246,19.072,16.969,20.496,16.293,43.539,29.901
-6.964,-11.38,5.719,2.513,7.459,1.814,20.736,13.667
-13.329,-16.424,-1.533,-4.707,0.386,-5.129,-6.276,2.207
-14.394,-17.25,-1.813,-5.078,0.833,-5.128,-14.82,-0.423
-14.854,-18.066,-0.352,-4.536,3.225,-4.501,-7.801,-0.766
-16.01,-18.688,-1.071,-6.459,2.923,-6.805,-3.496,-6.606
-14.402,-15.318,0.539,-5.554,4.587,-6.402,0.048,-10.8
-5.133,-3.403,11.364,5.803,15.194,5.058,16.833,0.058
12.613,17.668,30.058,26.754,33.124,26.758,43.433,24.411
29.553,37.755,44.998,44.977,47.128,45.506,59.211,44.222
32.775,42.446,45.954,48.335,47.519,48.64,52.969,45.947
23.186,32.565,37.698,40.342,39.032,39.927,38.39,36.453
14.444,24.181,33.526,35.401,34.869,34.214,34.372,31.424
12.598,24.873,36.378,38.567,37.765,37.133,38.876,34.483
11.815,26.055,37.242,41.052,38.329,40.242,37.667,36.832
9.678,21.914,30.915,36.241,31.686,36.279,29.471,32.889
10.548,18.414,22.944,29.306,24.179,29.583,24.865,27.546
13.828,18.971,19.174,26.88,21.576,27.018,25.649,26.298
12.805,17.182,16.926,25.886,20.294,26.085,22.339,25.412
5.596,8.913,11.442,20.285,14.921,20.427,11.814,19
-1.91,-0.402,5.065,12.601,7.842,11.892,3.024,10.079
-4.533,-4.383,2.816,8.946,4.701,6.857,1.764,5.143
-5.619,-5.304,1.144,6.23,2.71,3.277,0.053,1.785
-11.414,-9.221,-6.82,-2.246,-4.851,-4.83,-9.168,-5.053
-17.592,-12.724,-14.978,-9.949,-12.644,-11.117,-15.988,-8.669
-15.316,-8.126,-12.717,-6.397,-10.793,-6.2,-11.563,-3.209
-9.216,-0.731,-6.049,0.599,-4.93,0.904,-7.363,-1.042
-9.141,-0.645,-6.377,-1.486,-5.588,-2.279,-12.596,-10.837
-12.142,-4.467,-9.154,-6,-8.239,-7.747,-15.544,-17.787
-10.692,-3.516,-4.884,-1.37,-4.024,-2.912,-6.092,-8.976
-6.015,2.05,3.921,9.328,4.358,8.789,8.934,7.815
-2.663,7.344,9.694,17.383,9.656,17.743,20.32,20.73
-1.565,9.512,10.012,19.38,9.787,20.235,24.527,24.986
-2.222,8.207,6.384,15.797,6.3,16.914,19.65,20.137
-3.204,6.443,3.2,11.057,3.325,12.195,10.373,12.417
-1.905,8.226,5.642,11.774,6.057,12.652,9.054,11.977
1.077,12.213,11.965,17.869,12.988,18.705,18.519,20.173
2.376,13.25,14.863,21.955,16.341,23.445,26.069,27.788
1.015,10.06,12.303,20.068,13.474,22.35,23.228,27.815
-2.033,5.885,8.391,15.246,9.058,17.544,16.187,22.256
-6.105,3.535,5.389,11.102,6.157,12.75,12.603,16.737
-9.915,3.211,2.46,8.496,3.443,9.74,12.146,14.614
-12.106,3.64,-0.267,6.865,0.294,8.38,11.725,15.08
-13.3,3.475,-2.114,4.922,-2.058,6.811,10.047,14.124
-14.846,2.096,-3.949,1.623,-3.584,3.499,6.567,9.418
-15.326,0.572,-5.53,-1.81,-4.467,0.28,2.441,4.093
-11.967,0.825,-4.371,-2.911,-3.281,0.084,1.073,2.145
-6.26,2.761,-0.711,-1.953,-0.319,1.723,3.173,2.167
-2.991,4.236,1.476,-1.898,1.25,1.359,5.045,0.295
-4.217,3.702,0.313,-4.269,-0.071,-1.821,4.604,-3.758
-7.999,1.761,-1.601,-7.34,-2.009,-4.717,4.547,-6.5
-10.707,0.771,-0.974,-8.007,-1.476,-3.865,8.069,-4.024
-10.535,1.801,1.734,-5.819,1.409,0.15,13.945,2.992
-9.976,2.143,2.704,-4.615,3.131,2.101,17.435,6.875
-11.806,-0.844,0.484,-7.162,1.807,-1.048,16.364,1.36
-13.66,-4.125,-1.5,-9.668,0.074,-4.353,13.495,-6.83
-10.401,-1.833,0.592,-6.385,1.564,-1.005,11.049,-5.552
-1.423,6.001,6.299,1.27,6.32,7.337,7.971,3.342
6.717,11.811,10.396,5.544,9.892,12.06,4.28,7.352
8.041,10.781,8.629,3.174,8.43,9.513,0.924,3.478
5.233,8.099,4.299,-0.011,4.767,5.871,-2.094,0.182
3.664,9.088,3.421,1.527,4.25,7.134,-1.78,2.827
2.937,10.241,5.552,5.39,6.267,10.791,3.945,7.781
0.412,7.332,6.014,6.596,6.188,11.666,8.767,9.401
-2.758,3.201,4.116,4.977,3.652,9.844,7.476,7.271
-3.808,2.185,3.146,3.733,2.599,8.643,4.901,5.005
-4.192,2.633,2.882,2.636,2.908,7.622,4.833,3.585
-7.606,0.156,-0.731,-1.705,-0.114,3.424,3.236,0.553
-12.386,-3.957,-7.13,-8.368,-6.415,-2.884,-2.111,-4.644
-13.105,-4.313,-10.766,-12.361,-10.558,-6.7,-7.97,-9.417
-9.323,-0.416,-9.565,-11.729,-10.14,-6.581,-10.777,-11.01
-4.717,4.303,-5.613,-7.327,-6.512,-3.143,-7.892,-7.911
0.6,10.704,-0.08,0.854,-0.889,4.348,-0.683,-0.319
8.401,21.037,6.038,11.074,4.884,14.316,4.304,8.905
15.484,30.422,9.776,17.909,8.199,20.85,4.95,15.241
16.872,32.053,8.716,17.5,7.821,20.048,5.51,15.716
13.924,27.931,4.234,12.494,4.571,15.084,5.87,11.153
11.679,25.059,0.14,8.843,0.663,11.915,1.301,5.99
11.652,25.692,-0.649,9.612,-0.968,13.025,-4.903,6.191
12.991,27.977,2.814,13.648,1.795,16.889,-1.91,13.462
14.408,30.127,7.913,17.034,6.63,19.742,9.037,20.006
12.457,29.753,8.527,15.059,7.081,17.211,11.587,15.765
5.404,25.376,2.319,7.367,0.831,9.078,0.349,2.861
-0.459,21.835,-3.462,1.738,-4.796,3.307,-8.865,-4.676
2.927,26.134,-0.598,5.603,-1.997,7.526,-5.353,0.91
11.384,34.749,6.453,13.395,4.264,16.052,-0.541,10.258
12.369,35.995,5.874,12.662,2.677,16.278,-7.049,9.586
4.308,27.332,-2.96,2.412,-6.122,6.916,-18.187,-1.277
-1.904,19.048,-8.911,-5.706,-11.038,-0.886,-19.946,-9.405
0.538,20.424,-5.656,-3.345,-7.225,1.248,-10.403,-5.212
8.501,30.011,2.123,5.995,0.051,10.153,1.06,6.657
14.756,38.199,6.532,12.783,3.688,16.195,5.555,13.725
13.46,37.227,4.076,11.532,0.917,13.971,1.835,10.139
5.504,29.382,-2.613,5.127,-5.636,7.12,-4.774,1.66
-2.427,21.919,-9.312,-1.127,-12.234,1.291,-9.73,-4.378
-6.209,16.876,-14.447,-5.633,-17.471,-2.703,-13.243,-7.502
-6.416,13.454,-16.572,-7.535,-19.49,-4.821,-15.092,-8.815
-5.016,12.864,-14.578,-5.809,-17.002,-3.777,-13.229,-7.193
-4.974,13.691,-12.387,-3.648,-14.106,-2.207,-10.301,-4.907
-7.301,13.205,-13.412,-3.754,-14.469,-2.998,-10.327,-5.4
-8.382,13.864,-12.963,-1.601,-13.893,-1.846,-10.229,-4.807
-6.872,16.905,-7.554,5.463,-9.031,4.441,-7.303,1.205
-6.016,17.772,-3.199,10.193,-5.278,9.286,-6.29,7.025
-5.881,14.915,-5.386,5.879,-7.593,5.889,-10.144,4.731
-5.549,10.1,-12.117,-4.944,-13.925,-3.989,-16.938,-5.522
-7.853,3.028,-18.696,-15.174,-19.75,-13.772,-24.292,-16.703
-11.9,-3.945,-21.383,-19.853,-21.897,-18.408,-27.685,-21.53
-11.577,-4.778,-18.827,-18.29,-19.665,-17.119,-23.412,-17.95
-5.127,2.079,-12.446,-11.813,-14.159,-11.257,-14.495,-8.879
1.149,9.51,-6.819,-4.776,-8.825,-4.836,-8.519,-1.349
0.388,8.752,-7.754,-4.982,-9.061,-5.188,-10.275,-3.576
-5.152,1.329,-13.951,-12.855,-14.374,-12.897,-15.249,-13.674
-7.491,-3.434,-17.088,-18.567,-17.242,-18.872,-15.476,-20.225
-5.525,-3.252,-14.852,-17.609,-15.284,-18.689,-12.795,-19.519
-5.442,-4.128,-13.974,-16.708,-14.924,-18.094,-15.279,-19.049
-10.579,-9.505,-19.369,-21.676,-20.906,-22.546,-23.108,-23.81
-17.37,-16.34,-27.875,-29.437,-29.592,-29.974,-29.618,-30.092
-19.539,-18.387,-31.733,-32.028,-32.993,-32.859,-31.358,-31.284
-15.44,-12.96,-26.632,-25.35,-27.504,-26.119,-28.338,-24.329
-10.327,-5.331,-16.821,-13.806,-18.039,-13.833,-20.94,-12.245
-8.797,-1.842,-10.211,-5.291,-12.201,-4.978,-13.561,-2.009
-9.515,-2.141,-9.621,-3.082,-12.183,-3.325,-13.537,1.471
-9.841,-2.352,-10.772,-3.643,-13.601,-4.717,-19.242,-0.187
-10.434,-1.72,-8.91,-2.523,-11.983,-4.263,-20.101,-2.165
-13.009,-3.068,-5.965,-1.203,-9.278,-3.246,-14.8,-3.331
-16.543,-7.538,-6.84,-3.589,-9.905,-5.155,-13.546,-5.335
-18.445,-12.317,-10.498,-8.327,-12.494,-8.662,-18.04,-7.532
-17.724,-14.104,-10.968,-10.219,-11.796,-9.573,-17.573,-7.705
-15.105,-12.517,-5.896,-6.934,-6.518,-6.704,-7.718,-4.863
-12.467,-10.266,0.279,-1.708,-0.803,-3.134,3.116,-0.546
-12.095,-9.973,1.587,0.331,0.455,-2.515,6.062,0.969
-14.465,-11.259,-3.525,-2.138,-4.313,-5.172,-1.391,-3.109
-17.882,-12.064,-11.485,-5.816,-12.267,-8.199,-15.91,-9.403
-20.078,-11.081,-16.778,-6.726,-17.905,-8.194,-27.309,-11.391
-19.66,-8.162,-16.698,-4.153,-17.994,-4.538,-27.498,-7.768
-16.774,-3.529,-13.44,-0.551,-14.526,-0.042,-21.137,-3.643
-11.802,2.838,-9.312,3.342,-10.017,4.183,-15.226,-1.018
-6.687,8.238,-4.639,8.062,-5.054,9.126,-8.915,3.072
-6.553,6.768,-2.243,9.634,-2.362,11.369,-1.258,6.614
-11.886,-0.487,-4.322,5.216,-3.907,7.614,4.285,4.072
-15.861,-4.298,-7.837,-0.165,-7.186,2.077,0.999,-3.428
-15.699,-2.44,-9.784,-1.75,-9.971,-0.277,-12.831,-9.047
-15.382,-1.378,-10.257,-1.032,-11.867,-0.136,-24.283,-9.69
-16.852,-3.206,-10.849,-1.28,-13.295,-0.603,-25.669,-10.63
-16.968,-2.925,-11.987,-1.952,-14.625,-1.38,-27.447,-14.818
-13.266,2.303,-10.808,0.463,-13.781,0.881,-31.371,-15.844
-9.418,7.722,-6.596,4.807,-9.983,4.784,-26.368,-11.7
-9.674,8.649,-3.322,6.413,-6.313,5.759,-14.4,-8.401
-11.608,7.727,-2.93,5.929,-4.602,5.038,-8.066,-7.12
-11.088,8.649,-2.992,7.114,-3.508,6.485,-9.48,-4.255
-8.172,10.328,-0.475,10.13,-0.913,9.611,-8.682,0.569
-5.168,10.871,4.109,12.247,2.914,11.356,-1.014,3.753
-3.796,10.629,6.361,11.336,4.372,10.037,4.389,2.221
-4.057,9.929,4.29,8.117,1.979,6.756,0.274,-1.648
-3.586,9.222,2.435,6.4,0.153,5.2,-5.607,-1.803
0.813,11.815,6.507,10.043,4.04,8.822,-1.522,4.099
7.954,18.945,14.246,16.928,11.266,15.18,10.167,10.815
11.928,24.868,16.979,19.744,13.665,17.333,14.903,11.333
10.356,24.751,12.745,16.301,9.542,13.832,7.8,6.291
5.855,20.212,7.437,10.792,4.607,8.969,-1.459,1.188
-0.087,14.086,3.339,5.55,1.012,4.721,-6.545,-2.331
-5.852,8.546,-0.676,1.282,-2.408,1.479,-8.023,-4.568
-7.448,6.228,-2.808,-0.047,-4.051,0.665,-5.739,-4.656
-4.277,6.868,-1.92,0.727,-3.009,1.109,-1.963,-4.125
-0.647,7.433,-0.482,0.32,-1.827,-0.058,-1.58,-5.449
0.745,7.255,0.146,-0.822,-1.807,-1.914,-4.441,-7.121
0.56,7.238,0.96,-0.29,-1.591,-1.98,-6.199,-6.88
-0.591,6.647,1.979,0.567,-0.673,-1.617,-5.58,-6.489
-1.899,5.593,2.497,-0.29,0.26,-2.845,-5.25,-8.155
-2.022,5.485,2.739,-1.162,1.065,-3.806,-6.545,-9.91
-1.59,5.705,3.554,-0.006,2.507,-2.328,-5.857,-8.189
-1.627,5.286,6.128,2.33,5.77,0.217,0.499,-3.283
-1.254,5.294,9.607,3.578,9.471,1.057,7.255,-0.076
-0.187,6.08,10.574,2.538,9.874,-0.584,6.335,-1.811
1.746,7.282,9.455,1.651,7.99,-1.851,2.142,-4.219
5.376,9.23,9.738,3.788,8.002,0.068,2.712,-2.287
7.605,9.356,8.962,5.117,7.48,1.604,2.608,-0.331
4.839,5.29,3.735,1.166,2.64,-1.377,-3.924,-3.484
0.837,1.514,-0.858,-3.563,-1.868,-4.868,-9.45,-7.034
0.682,1.885,-0.197,-4.297,-1.771,-5.186,-8.986,-6.945
3.169,3.233,2.225,-3.708,-0.248,-5.143,-7.316,-6.712
5.439,3.606,3.762,-3.119,1.227,-4.941,-5.471,-6.278
7.136,4.937,6.352,-0.173,5.014,-1.736,-0.328,-1.318
7.718,5.808,8.806,2.791,8.701,1.355,4.716,4.791
4.569,1.775,6.151,-0.1,6.397,-1.852,3.85,3.391
-4.026,-7.694,-2.752,-9.512,-2.426,-11.325,-2.421,-6.129
-14.199,-17.625,-12.516,-19.486,-11.806,-20.904,-9.437,-15.364
-18.768,-22.241,-16.282,-23.407,-15.245,-24.617,-11.985,-17.382
-17.323,-21.548,-13.854,-21.246,-12.798,-22.59,-8.583,-13.882
-16.82,-20.907,-11.739,-19.272,-10.582,-20.697,-4.276,-11.423
-18.439,-21.046,-11.641,-19.015,-9.983,-20.408,-1.871,-10.63
-15.768,-17.034,-8.361,-15.382,-6.304,-16.766,1.258,-6.869
-8.019,-8.96,-1.423,-8.308,0.248,-9.804,4.293,-1.625
-1.141,-1.703,3.447,-3.021,4.308,-4.847,3.971,0.328
2.859,3.174,3.548,-1.315,4.113,-3.554,1.24,0.078
5.92,5.788,0.983,-2.222,1.888,-4.716,-1.416,-0.214
8.588,5.649,-1.043,-3.972,0.157,-6.541,-2.576,-0.883
11.384,5.641,-0.243,-3.03,0.705,-5.496,-1.112,-0.492
14.441,9.327,2.27,1.345,2.53,-0.786,1.169,1.776
15.889,14.73,3.814,5.586,3.447,3.842,1.464,3.734
15.433,17.789,5.092,8.074,4.435,6.512,1.448,4.751
14.963,17.793,7.584,9.914,6.756,8.302,3.38,5.902
13.768,14.878,8.794,9.936,7.843,8.119,4.685,5.862
9.248,8.283,5.809,5.926,5.192,3.819,2.432,2.412
4.286,1.736,1.909,0.918,2.029,-1.602,-0.434,-1.891
5.221,2.031,3.088,0.794,3.412,-2.349,0.768,-1.841
10.597,8.014,7.737,4.679,7.349,0.891,4.211,1.53
12.847,11.25,8.226,5.82,7.087,1.591,3.823,1.749
9.824,8.339,2.383,1.39,1.061,-3.139,-2.504,-3.699
5.033,3.64,-4.457,-5.146,-5.683,-9.655,-10.617,-10.834
0.617,1.233,-7.874,-9.755,-8.857,-13.768,-15.103,-15.298
-2.659,0.71,-8.265,-11.517,-8.953,-15.194,-15.121,-16.766
-3.577,-0.081,-7.401,-11.543,-8.206,-15.511,-13.409,-16.575
-2.864,-2.18,-6.267,-10.997,-7.568,-15.412,-11.551,-15.064
-2.855,-4.843,-5.083,-10.205,-6.723,-14.79,-8.887,-12.397
-3.685,-6.316,-3.603,-9.093,-5.208,-13.488,-4.992,-9.217
-3.36,-5.808,-2.331,-7.967,-3.446,-11.773,-1.402,-6.441
-2.255,-4.955,-2.664,-7.78,-2.945,-10.797,-0.338,-5.418
-3.05,-5.905,-4.79,-9.068,-4.498,-11.339,-1.84,-6.308
-5.374,-8.177,-6.838,-10.248,-6.434,-11.834,-2.944,-6.639
-7.059,-10.515,-8.01,-10.072,-7.446,-11.188,-2.501,-5.511
-8.175,-13.307,-9.313,-10.161,-8.52,-11.368,-3.654,-5.633
-8.435,-15.558,-9.701,-10.778,-9.103,-12.623,-6.196,-6.81
-6.658,-14.77,-7.246,-9.283,-7.148,-11.824,-4.938,-5.269
-3.726,-11.359,-3.866,-5.685,-4.113,-8.588,-0.22,-1.69
-0.468,-7.211,-2.243,-2.658,-2.806,-5.517,2.725,0.4
4.302,-1.838,-0.385,0.077,-1.35,-2.34,5.368,3.083
9.323,3.773,2.99,2.981,2.079,1.253,11.252,8.594
9.808,4.634,3.132,2.114,2.794,0.877,14.603,10.698
5.445,-0.035,-1.377,-3.196,-1.411,-4.415,10.48,5.333
1.133,-4.576,-4.568,-7.119,-4.667,-8.568,5.123,-0.733
-2.49,-6.489,-5.017,-7.825,-4.847,-9.464,3.543,-2.305
-6.786,-7.35,-6.948,-8.734,-6.264,-10.384,2.62,-2.427
-7.61,-6.538,-9.416,-10.033,-8.705,-11.522,0.831,-3.478
-2.878,-3.337,-8.892,-10.018,-8.601,-11.41,0.145,-4.484
0.916,-1.096,-8.292,-10.652,-8.27,-12.053,-0.622,-6.07
-1.319,-2.857,-11.857,-13.876,-11.877,-15.074,-3.602,-9.038
-5.235,-5.715,-15.927,-16.181,-15.966,-16.971,-4.334,-9.912
-4.981,-5.653,-14.45,-13.877,-14.3,-14.455,4.081,-5.8
-2.493,-4.508,-10.38,-10.585,-9.776,-11.228,15.2,-2.187
-3.602,-6.298,-13.022,-13.013,-12.265,-13.653,9.638,-7.378
-8.476,-10.577,-22.887,-20.498,-22.641,-20.839,-14.296,-18.605
-11.177,-13.155,-28.632,-24.422,-28.895,-24.522,-30.171,-23.52
-8.688,-11.57,-24.155,-19.791,-24.262,-20.294,-23.828,-17.527
-2.765,-6.315,-15.337,-10.042,-15.139,-11.339,-11.19,-6.871
5.816,1.797,-6.928,0.457,-6.855,-1.202,-3.472,3.246
14.634,9.74,0.794,8.867,0.667,7.356,4.323,10.129
17.785,12.516,5.008,12.257,4.973,11.046,10.982,11.432
14.834,10.245,4.081,11.436,4.361,10.644,10.444,9.81
12.749,8.463,3.318,11.538,3.98,11.137,8.375,11.544
15.549,10.188,7.756,15.42,8.539,15.214,14.534,18.885
19.825,13.12,13.902,19.774,14.052,19.794,25.207,26.733
21.905,14.579,15.801,20.064,14.595,20.407,28.476,27.764
22.149,14.557,14.007,17.079,11.725,17.389,22.756,22.298
21.015,13.33,11.976,14.297,9.688,13.913,17.153,17.431
18.721,11.441,10.407,12.559,8.539,11.169,16.481,15.83
17.756,11.35,9.296,11.948,7.394,9.883,17.533,15.162
19.13,13.479,9.077,12.864,6.924,10.716,17.511,14.895
19.652,13.618,8.587,13.121,6.526,11.406,16.694,15.008
16.54,8.727,5.958,10.016,4.318,9.121,14.071,13.484
11.464,1.845,1.782,4.944,0.559,4.837,8.137,9.806
8.392,-1.913,-0.343,2.109,-1.355,2.261,2.675,7.376
9.404,-1.132,2.687,3.838,1.667,3.663,3.747,9.661
13.115,2.249,9.062,8.308,7.859,7.649,9.619,14.884
15.497,5.747,12.415,10.728,11.018,10.213,12.607,17.267
13.633,6.913,9.442,8.099,8.039,8.493,10.857,14.073
9.181,4.825,4.463,2.918,3.252,3.95,8.725,8.436
5.737,2.612,2.339,-0.196,1.434,0.869,7.379,4.948
3.931,3.438,1.977,-0.287,1.357,1.289,4.693,5.079
1.326,4.544,0.335,-0.14,-0.084,2.713,1.951,6.501
-3.145,2.211,-2.329,-1.539,-2.499,2.352,2.225,6.29
-7.78,-1.887,-4.688,-3.681,-4.599,0.639,3.531,4.059
-11.293,-4.313,-7.523,-5.907,-7.402,-1.248,0.634,0.901
-12.959,-3.405,-10.514,-7.407,-10.708,-2.386,-5.685,-1.551
-12.123,0.034,-10.853,-6.286,-11.522,-1.126,-7.935,-0.971
-10.678,2.282,-8.124,-2.747,-8.967,2.483,-2.633,3.01
-11.598,0.896,-6.222,-0.145,-6.747,5.363,3.872,6.84
-15.006,-2.572,-8.82,-1.403,-8.856,4.38,3.288,6.087
-18.381,-6.12,-14.2,-5.536,-13.89,-0.108,-3.71,0.959
-18.578,-8.468,-16.697,-8.304,-16.319,-4.097,-8.778,-3.304
-14.404,-7.854,-14.237,-7.423,-14.134,-4.468,-7.858,-3.55
-9.468,-4.852,-11.111,-5.531,-11.455,-2.886,-6.058,-2.74
-8.147,-2.674,-11.233,-5.782,-11.88,-2.719,-8.403,-4.162
-8.703,-1.634,-12.487,-6.961,-13.205,-3.589,-11.799,-6.021
-7.166,0.611,-11.252,-5.975,-11.793,-2.784,-10.841,-5.168
-4.786,3.01,-8.562,-3.012,-8.586,-0.496,-6.382,-2.445
-4.547,2.437,-7.292,-0.759,-6.82,0.987,-2.966,-0.632
-5.423,-0.486,-7.158,-0.094,-6.883,1.583,-1.975,0.208
-5.645,-2.882,-6.679,0.148,-7.215,2.492,-2.068,1.706
-6.005,-3.86,-6.263,0.772,-7.353,3.636,-2.67,3.839
-6.694,-3.894,-6.236,1.832,-7.25,4.687,-3.391,5.654
-5.886,-3.51,-5.436,2.88,-6.369,5.381,-3.359,6.825
-3.447,-3.459,-3.855,3.067,-5.078,5.004,-2.772,6.951
-2.72,-4.74,-3.934,1.517,-5.305,3.2,-2.953,5.232
-5.546,-7.778,-6.866,-2.214,-8.037,-0.023,-4.813,1.332
-8.467,-11.059,-10.067,-7.031,-11.035,-4.379,-8.126,-4.209
-9.007,-13.421,-12.201,-11.667,-12.823,-9.77,-12.89,-11.097
-9.49,-15.289,-15.065,-15.796,-15.033,-15.62,-18.943,-18.454
-9.375,-14.307,-16.466,-16.529,-16.15,-17.859,-22.359,-21.941
-5.053,-8.275,-11.852,-11.045,-12.083,-13.229,-18.805,-18.337
0.412,-2.412,-4.219,-3.721,-5.048,-6.464,-11.141,-11.861
0.199,-3.013,-1.004,-1.229,-1.629,-4.224,-6.056,-8.587
-5.186,-8.031,-3.737,-3.758,-3.807,-6.231,-5.687,-8.988
-9.831,-12.203,-8.455,-7.831,-8.581,-9.263,-7.897,-10.82
-12.367,-16.064,-13.015,-12.949,-13.781,-14.009,-11.9,-14.476
-15.3,-21.744,-17.728,-19.411,-18.848,-21.15,-17.843,-20.258
-16.528,-24.124,-19.909,-22.657,-20.6,-25.061,-21.356,-23.178
-12.169,-17.945,-16.006,-18.278,-15.855,-20.789,-17.457,-18.799
-5.548,-8.847,-8.739,-10.215,-7.96,-12.912,-9.4,-11.25
-2.586,-4.734,-3.716,-4.968,-2.778,-7.97,-3.81,-6.39
-3.205,-4.855,-2.009,-2.964,-1.345,-5.633,-1.122,-3.505
-4.588,-5.912,-2.283,-2.787,-2.186,-4.525,0.556,-1.573
-6.615,-8.982,-5.465,-6.842,-5.893,-7.981,-2.39,-5.567
-10.71,-15.876,-12.912,-16.614,-13.521,-17.818,-14.476,-18.308
-16.745,-24.071,-22.262,-27.075,-22.888,-28.376,-30.258,-32.057
-22.344,-28.956,-28.577,-32.196,-29.484,-33.191,-38.484,-37.684
-25.078,-29.933,-30.063,-32.568,-31.412,-32.948,-37.555,-36.514
-24.795,-30.234,-29.462,-32.386,-30.859,-32.084,-34.574,-34.857
-23.647,-31.681,-29.462,-33.652,-30.635,-32.969,-32.679,-35.011
-23.516,-32.767,-30.071,-35.533,-31.455,-34.851,-30.937,-36.154
-23.468,-31.432,-29.983,-35.761,-31.914,-35.113,-29.784,-36.774
-21.094,-27.702,-27.653,-32.594,-29.835,-31.931,-28.56,-34.859
-16.17,-22.971,-22.793,-26.829,-24.97,-26.267,-24.617,-29.836
-10.73,-17.935,-17.296,-20.983,-19.363,-20.441,-17.832,-23.766
-5.146,-11.851,-11.997,-15.974,-13.611,-15.162,-10.777,-18.608
0.667,-5.879,-7.455,-12.759,-8.512,-11.857,-7.134,-16.293
3.259,-4.618,-7.022,-14.299,-8.028,-14.027,-9.91,-19.455
1.12,-8.66,-10.433,-18.976,-11.792,-19.631,-15.389,-25.31
-0.332,-11.419,-11.153,-19.826,-12.485,-20.885,-15.093,-25.985
4.118,-7.726,-5.436,-13.965,-6.19,-14.794,-6.615,-18.739
11.597,-0.44,2.945,-5.492,2.371,-5.804,3.826,-8.706
14.583,3.35,7.41,-0.255,5.978,-0.186,8.524,-2.809
11.463,1.406,5.817,-0.13,3.163,-0.284,6.034,-3.542
7.386,-2.364,2.019,-2.131,-1.284,-2.851,1.541,-7.463
4.217,-5.815,-0.675,-3.957,-4.09,-4.516,-1.044,-10.493
0.187,-9.492,-2.107,-5.498,-5.777,-5.008,-2.509,-11.675
-2.127,-11.19,-0.991,-4.811,-5.202,-3.722,-2.768,-10.57
0.111,-9.271,2.794,-1.787,-1.715,-1.164,-0.375,-7.767
2.676,-7.289,3.673,-2.188,-0.601,-1.767,1.572,-7.602
0.788,-8.23,-2,-8.508,-5.816,-6.975,-1.4,-12.495
-2.99,-9.815,-8.251,-13.98,-11.906,-11.012,-6.457,-17.444
-3.413,-9.087,-7.712,-12.212,-11.701,-8.704,-6.32,-16.053
-0.574,-6.563,-1.77,-5.226,-6.21,-1.652,0.526,-8.528
2.267,-3.839,4.197,1.654,-0.43,5.482,8.958,-0.219
4.242,-1.797,7.723,5.548,3.158,9.293,13.699,4.235
5.138,-1.795,7.451,5.051,3.128,8.178,12.663,3.344
4.502,-3.687,4.15,1.307,0.13,4.207,8.399,-0.557
3.306,-5.158,2.481,-0.978,-1.349,2.242,6.493,-2.708
1.833,-5.925,4.545,0.459,0.789,3.472,8.479,-1.512
-0.222,-7.674,6.803,2.226,2.886,4.268,9.775,-0.488
-1.078,-9.696,6.301,1.302,2.027,2.734,7.559,-2.069
0.719,-9.486,4.635,-0.787,0.451,0.929,5.545,-3.722
3.269,-6.932,5.202,-1.306,1.735,0.746,8.131,-2.333
3.664,-5.1,8.608,-0.019,5.808,1.9,14.191,1.703
0.662,-7.289,10.599,0.435,8.18,2.304,17.959,4.793
-4.712,-13.228,6.964,-2.708,4.865,-0.49,15.025,3.253
-9.885,-19.328,-0.374,-9.103,-2.335,-6.479,7.644,-2.537
-14.052,-24.408,-7.204,-16.563,-9.189,-13.638,1.232,-9.267
-18.245,-30.53,-12.717,-23.447,-14.649,-20.364,-2.986,-15.397
-20.656,-35.962,-16.472,-27.754,-18.513,-25.044,-6.507,-20.413
-17.212,-34.498,-15.742,-26.974,-18.245,-25.126,-7.563,-21.48
-7.492,-24.418,-9.215,-20.332,-12.109,-18.876,-2.755,-15.52
3.945,-11.991,0.491,-10.08,-2.539,-8.276,6.395,-4.455
11.908,-4.199,8.68,-0.658,5.329,1.152,13.566,5.058
14.362,-2.405,11.68,3.902,7.772,4.945,14.662,8.331
12.641,-4.079,9.485,3.175,5.495,3.54,11.347,6.468
9.541,-6.743,5.946,0.718,2.514,0.887,7.87,3.531
7.404,-8.962,4.774,-0.134,1.662,-0.104,6.9,2.575
7.084,-10.09,5.701,0.323,2.24,0.24,8.01,3.846
8.9,-9.685,6.811,0.912,3.015,0.958,8.957,5.305
12.503,-7.943,8.071,1.939,4.577,1.945,8.378,4.683
14.201,-7.702,8.865,2.077,6.172,1.566,6.288,1.049
10.408,-11.222,7.085,-0.941,5.16,-1.806,2.501,-4.553
3.89,-15.545,3.168,-5.887,1.529,-6.401,-2.923,-10.018
-0.712,-17.742,-0.212,-9.967,-2.011,-9.733,-7.84,-13.777
-2.041,-18.475,-0.079,-10.69,-2.072,-9.717,-7.587,-13.16
1.418,-16.641,6.062,-5.188,3.916,-3.665,0.555,-5.412
9.156,-11.314,14.625,4.207,12.164,6.08,10.687,5
15.186,-6.546,18.039,10.179,15.171,12.44,14.76,9.831
16.062,-5.134,16.556,11.188,13.322,13.966,14.789,9.626
14.475,-5.066,15.431,10.804,11.798,14.09,15.637,9.627
14.073,-3.541,15.394,10.456,11.447,14.118,15.664,9.763
18.331,2.375,17.446,12.844,13.468,16.605,15.935,10.61
27.261,12.138,24.106,20.486,20.185,24.034,21.119,15.363
33.505,18.045,31.073,27.657,27.054,30.883,27.414,20.492
30.197,14.063,30.6,26.248,26.659,29.323,26.524,18.512
19.822,3.368,22.458,16.563,19.208,19.972,18.547,9.13
10.86,-6.783,14.239,5.857,11.716,10.302,10.742,-0.552
8.722,-11.553,12.09,0.718,9.424,6.512,8.161,-4.395
11.577,-10.206,14.762,2.443,11.493,9.038,10.301,-2.325
13.368,-6.407,16.775,6.558,13.461,13.175,13.625,1.109
9.587,-6.47,14.036,6.312,11.094,12.777,13.711,0.62
1.75,-12.421,6.93,-0.356,4.114,6.405,8.697,-5.065
-2.941,-17.345,0.926,-7.047,-1.796,0.643,3.499,-10.251
0.952,-13.785,1.879,-6.113,-0.545,2.658,5.024,-8.322
10.548,-4.226,9.07,1.47,6.621,10.682,12.399,-0.859
18.016,3.117,15.015,7.718,12.076,16.836,17.3,4.205
18.572,4.322,13.324,7.098,10.094,16.446,13.637,2.093
14.053,1.49,6.328,1.873,3.369,11.683,4.863,-4.23
10.159,-1.212,2.318,-1.19,-0.18,8.608,0.504,-7.787
10.119,-1.386,4.668,1.282,2.479,11.085,4.341,-4.956
11.279,-0.686,7.744,5.237,5.714,15.714,8.913,-0.059
9.364,-2.834,4.961,4.034,2.979,15.087,5.048,-1.252
5.99,-6.602,-1.184,-1.808,-3.163,9.157,-4.34,-8.601
8.376,-4.716,-0.492,-3.081,-2.513,7.674,-5.788,-10.916
18.78,4.891,10.56,5.433,8.492,16.132,6.026,-1.202
28.896,13.709,21.899,16.185,20.118,26.845,19.476,11.902
29.932,14.249,23.738,19.17,22.455,29.696,22.129,16.087
23.562,8.708,18.724,14.404,17.575,24.356,15.901,11.055
17.223,2.678,13.85,8.095,12.79,17.092,9.292,4.734
13.596,-1.864,10.196,3.169,9.74,11.555,4.373,0.471
12.289,-3.85,8.071,0.811,8.227,9.119,1.01,-2.122
15.932,-0.046,12.304,4.969,12.81,13.337,4.833,1.123
24.116,8.362,22.371,14.781,23.586,23.451,16.838,11.646
28.677,12.883,27.824,20.114,29.98,29.666,24.949,19.181
24.969,9.328,23.328,15.577,25.824,26.196,20.778,15.838
19.048,4.023,16.955,9.384,19.136,20.353,13.002,9.351
16.782,2.603,15.897,9.089,17.741,19.56,11.383,8.734
13.969,0.196,14.248,8.059,16.414,17.867,9.381,7.523
4.411,-10.192,4.18,-2.941,7.521,6.096,-3.534,-4.52
-7.611,-23.838,-8.466,-18.221,-3.968,-10.45,-21.239,-21.608
-11.842,-28.621,-11.267,-24.262,-6.601,-17.749,-27.699,-28.871
-3.275,-18.431,0.222,-15.083,4.321,-9.063,-15.621,-19.283
16.267,4.08,22.065,7.535,25.661,13.669,10.372,5.295
37.062,27.771,43.832,33.455,47.257,39.623,36.175,33.499
46.595,39.246,53.704,47.25,57.229,52.998,46.846,48.372
44.483,37.35,51.228,45.438,55.044,50.446,42.521,46.357
39.134,30.551,44.661,37.667,48.73,41.809,33.705,37.978
32.683,22.887,37.657,30.283,41.635,33.46,24.579,29.593
24.06,14.505,30.147,23.459,33.741,25.813,14.881,21.582
16.826,7.802,24.599,18.208,27.989,20.185,7.722,16.052
13.523,4.521,22.983,16.001,26.702,17.947,5.666,14.678
10.736,2.002,22.129,14.87,26.553,16.91,5.2,14.359
6.18,-1.997,18.355,11.966,23.322,14.118,1.431,11.101
3.867,-4.569,14.381,9.004,19.311,10.901,-3.417,6.687
6.588,-3.088,14.507,9.637,19.188,10.782,-3.218,6.369
9.699,-1.006,16.485,12.415,21.524,13.032,1.521,10.203
7.736,-3.342,14.699,11.619,20.947,12.39,3.419,11.785
2.114,-9.561,8.318,5.265,15.978,6.367,-1.696,7.003
-1.187,-13.66,3.207,-0.959,11.534,0.2,-8.153,1.02
1.565,-10.54,5.091,-0.294,13.233,0.796,-7.007,2.256
8.306,-2.152,12.148,6.337,20.083,7.268,1.644,10.676
13.943,4.629,19.08,13.479,27.08,13.653,10.085,19.21
16.355,6.653,25.144,20.281,32.869,18.861,15.354,25.32
16.873,6.342,31.087,28.04,37.971,25.106,20.017,31.534
15.504,5.349,32.385,31.809,38.59,28.546,21.944,35.187
9.448,1.196,22.969,24.202,29.425,21.523,14.435,28.689
-2.029,-8.218,5.966,7.695,13.37,5.359,-0.926,13.366
-13.652,-18.465,-6.643,-5.217,1.584,-7.909,-12.017,2.181
-19.343,-22.585,-8.784,-7.266,-0.062,-10.55,-12.122,2.49
-19.093,-20.898,-5.73,-3.504,3.337,-7.152,-7.58,7.548
-16.941,-19.501,-3.88,-1.275,5.067,-5.057,-6.337,9.388
-15.365,-20.403,-4.472,-1.694,3.646,-5.581,-8.988,8.274
-14.001,-20.449,-5.781,-2.466,1.586,-6.59,-11.943,6.949
-12.663,-19.318,-7.087,-4.006,0.892,-8.628,-13.873,4.08
-12.981,-20.031,-9.731,-7.746,0.212,-13.171,-17.027,-2.187
-14.669,-21.114,-12.72,-9.818,-1.138,-16.313,-21.268,-7.385
-14.009,-17.92,-11.666,-5.29,0.212,-12.898,-21.421,-4.776
-10.126,-12.053,-6.621,1.947,5.138,-6.279,-16.198,3.05
-8.124,-10.33,-4.844,3.006,7.269,-5.202,-13.384,5.581
-11.079,-13.876,-9.689,-2.693,2.803,-10.876,-18.013,0.221
-14.148,-16.827,-14.033,-6.75,-1.581,-15.285,-23.747,-4.128
-12.91,-16.475,-12.148,-5.273,0.233,-14.242,-24.568,-2.63
-10.995,-16.195,-9.156,-3.951,3.567,-13.185,-24.072,-1.121
-12.769,-18.032,-11.197,-7.141,2.11,-16.564,-26.122,-4.206
-16.024,-19.746,-15.408,-10.881,-1.795,-20.6,-27.795,-8.091
-16.697,-18.939,-15.712,-10.19,-2.157,-20.301,-25.888,-8.004
-15.235,-16.44,-12.456,-6.997,1.131,-17.367,-22.728,-5.757
-15.508,-15.87,-11.755,-7.381,2.288,-17.83,-23.313,-6.699
-17.947,-18.269,-15.511,-12.169,-0.915,-22.554,-27.941,-10.81
-17.718,-19.266,-17.286,-14.47,-2.679,-24.67,-30.335,-11.693
-13.369,-16.158,-12.606,-9.462,1.438,-19.84,-26.133,-6.08
-10.113,-12.19,-6.695,-1.643,6.836,-12.801,-19.387,1.011
-10.863,-10.298,-5.886,1.788,7.613,-9.943,-16.284,3.167
-12.326,-9.599,-7.952,0.811,5.635,-10.675,-16.518,1.436
-11.155,-8.637,-6.877,1.239,6.209,-9.654,-15.662,2.32
-8.009,-6.815,-2.282,5.28,9.794,-5.404,-12.659,7.066
-5.593,-4.227,0.815,8.994,12.208,-1.98,-10.408,9.806
-4.963,-1.643,-0.33,9.791,10.994,-1.362,-10.394,8.585
-5.429,-0.37,-3.059,9.665,8.422,-1.117,-10.922,8.091
-7.673,-2.733,-4.644,9.113,7.093,-1.137,-11.449,9.113
-12.216,-8.715,-5.56,6.15,6.545,-3.768,-13.19,7.567
-16.181,-13.58,-6.387,1.765,5.896,-7.776,-15.35,3.395
-16.14,-13.64,-5.958,-0.395,6.047,-9.639,-16.022,0.714
-11.6,-9.47,-2.701,2.037,8.774,-7.611,-14.543,2.02
-5.369,-3.651,2.24,7.292,13.459,-3.327,-12.099,5.103
-1.701,-0.119,4.606,9.846,16.105,-1.574,-11.323,5.208
-2.236,-1.887,2.423,6.89,14.386,-4.825,-13.233,1.543
-5.131,-7.292,-1.832,1.827,10.25,-9.706,-16.449,-2.252
-7.179,-10.405,-4.436,-0.335,7.248,-11.474,-18.776,-3.496
-5.821,-7.123,-3.431,1.507,7.465,-9.43,-18.076,-2.266
-2.087,-1.059,-0.879,3.498,9.175,-7.453,-15.216,-0.665
0.089,0.944,-0.504,2.061,9.111,-8.723,-13.854,-0.862
-1.219,-2.121,-2.597,-1.246,7.042,-11.634,-15.339,-2.776
-4.415,-6.27,-4.828,-3.222,4.815,-13.581,-17.893,-5.254
-6.717,-8.289,-5.724,-3.021,3.581,-13.897,-18.904,-6.784
-5.869,-6.453,-4.411,0.356,4.37,-10.906,-15.892,-3.552
-2.314,-1.572,-1.084,7.465,7.087,-3.744,-9.368,7.295
0.231,2.16,1.631,14.393,9.068,3.356,-3.864,20.443
-0.411,2.353,1.501,15.8,8.438,4.74,-3.734,22.764
-3.509,-0.609,-2.184,9.465,4.875,-2.298,-10.741,5.587
-8.623,-6.774,-9.203,-2.202,-1.968,-15.301,-22.558,-20.788
-13.88,-13.248,-15.709,-11.958,-9.055,-25.936,-31.8,-35.773
-15.786,-14.816,-17.182,-14.749,-11.602,-28.7,-33.195,-35.035
-12.573,-10.19,-13.196,-11.493,-8.625,-25.187,-27.336,-27.792
-3.62,-0.402,-4.201,-2.45,-0.614,-15.811,-14.729,-14.871
7.79,11.826,6.763,10.227,9.518,-2.321,0.868,2.766
12.836,19.051,10.933,16.663,13.464,5.042,8.514,11.228
8.608,16.435,5.411,11.19,8.153,-0.429,4.293,3.931
2.376,8.262,-1.652,1.23,1.14,-11.268,-2.319,-5.753
-1.07,0.794,-4.717,-4.831,-2.084,-17.637,-4.387,-6.118
-3.236,-3.919,-5.739,-7.137,-3.231,-19.31,-4.698,-2.415
-4.278,-5.64,-5.828,-8.402,-3.438,-20.422,-5.556,-3.423
-2.775,-4.057,-4.614,-8.859,-2.538,-21.425,-4.954,-7.428
-0.284,-0.392,-4.132,-8.304,-2.605,-20.506,-2.262,-7.276
-0.685,1.749,-6.149,-7.413,-5.051,-18.167,0.14,-1.721
-5.466,-0.846,-9.731,-7.387,-8.564,-17.266,-0.213,2.859
-11.316,-6.94,-13.204,-8.881,-11.59,-18.872,-3.431,1.361
-14.602,-12.445,-15.355,-10.887,-13.302,-20.82,-6.9,-3.26
-16.79,-16.547,-16.827,-13.153,-14.479,-22.386,-9.415,-6.358
-20.754,-20.846,-20.244,-17.018,-17.726,-25.494,-13.315,-8.985
-24.639,-24.113,-25.452,-21.572,-23.062,-29.76,-18.478,-13.27
-25.858,-24.808,-28.88,-24.318,-27.037,-32.789,-20.88,-17.831
-26.498,-24.524,-29.051,-24.542,-27.888,-33.49,-19.236,-19.829
-28.679,-24.621,-27.292,-22.434,-26.558,-31.404,-16.169,-17.322
-31.244,-25.769,-25.9,-20.125,-25.307,-28.866,-14.854,-13.084
-33.814,-29.839,-27.749,-22.184,-27.177,-31.25,-16.934,-13.496
-36.851,-35.907,-32.522,-28.747,-31.907,-38.187,-20.135,-18.791
-39.408,-39.793,-36.196,-34.089,-35.365,-42.802,-20.602,-22.606
-40.615,-40.228,-36.557,-34.565,-35.253,-42.057,-17.735,-21.635
-39.53,-38.275,-33.658,-30.751,-31.845,-37.846,-12.493,-16.614
-34.911,-33.263,-27.492,-24.142,-25.413,-31.532,-5.712,-8.954
-27.136,-24.97,-19.33,-16.671,-17.347,-24.326,0.231,-1.472
-18.281,-15.785,-11.778,-10.431,-10.407,-18.36,3.579,3.11
-11.21,-8.759,-6.59,-6.498,-6.159,-14.957,5.55,4.722
-8.213,-5.508,-4.417,-5.063,-4.521,-13.775,7.217,4.974
-8.744,-5.481,-5.479,-6.154,-5.36,-14.132,6.893,4.453
-9.562,-6.308,-8.105,-8.535,-7.472,-15.548,4.073,2.747
-8.814,-6.345,-9.327,-9.775,-8.519,-16.929,1.752,0.674
-8.438,-6.481,-9.087,-9.563,-8.494,-17.559,1.271,-0.658
-9.716,-6.749,-9.2,-8.946,-8.578,-17.027,1.688,-0.576
-9.941,-4.85,-8.683,-6.615,-7.407,-13.808,4.219,2.425
-6.693,-0.173,-5.17,-0.7,-3.294,-6.99,9.98,8.956
-1.554,4.719,0.315,6.634,2.057,0.686,15.923,16.051
1.596,6.614,3.28,9.892,4.415,3.787,17.382,18.546
0.662,5.139,1.944,7.842,2.365,1.368,14.306,15.981
-2.539,2.893,0.391,5.787,0.078,-0.703,12.138,14.585
-5.544,0.839,0.95,6.167,0.254,0.235,13.164,16.753
-8.553,-2.138,-0.248,5.428,-0.715,0.077,12.666,17.411
-12.618,-5.79,-5.543,2.102,-5.591,-2.935,8.087,14.858
-16.761,-8.624,-11.046,-0.811,-10.981,-5.403,4.699,14.916
-16.99,-7.618,-10.867,0.139,-10.861,-3.804,9.307,21.978
-11.09,-0.603,-4.646,3.801,-4.415,-0.02,18.689,27.364
-5.521,6.419,-1.634,2.209,-0.908,-2.354,17.694,14.862
-8.072,4.692,-9.63,-8.631,-8.711,-13.834,-0.112,-12.155
-16.323,-4.225,-23.375,-21.229,-22.846,-26.135,-20.749,-31.249
-24.357,-12.789,-34.391,-29.111,-34.341,-33.359,-32.493,-36.015
-30.564,-17.659,-40.624,-32.49,-40.603,-36.306,-37.742,-36.227
-32.212,-17.569,-40.362,-29.355,-40.067,-32.542,-36.664,-30.977
-26.643,-12.004,-32.421,-19.005,-31.959,-21.339,-26.293,-17.491
-18.748,-4.959,-22.831,-9.349,-22.414,-11.387,-13.356,-7.222
-15.775,-1.498,-18.829,-6.644,-18.6,-8.939,-7.544,-7.737
-17.544,-1.588,-19.335,-6.807,-19.429,-9.182,-7.941,-9.873
-19.192,-2.6,-18.743,-4.498,-19.215,-6.878,-7.041,-5.085
-19.912,-4.76,-16.523,-2.064,-17.179,-5.001,-3.295,1.21
-21.808,-8.476,-16.785,-3.955,-17.507,-8.042,-2.602,-0.449
-22.561,-9.851,-19.127,-7.762,-20.261,-13.119,-6.669,-8.172
-18.411,-6.03,-18.28,-7.695,-20.03,-13.768,-8.339,-10.938
-12.316,-0.544,-13.614,-3.876,-15.509,-9.807,-3.603,-5.182
-9.177,2.644,-9.281,-0.763,-10.815,-6.276,2.706,1.704
-7.784,3.996,-6.914,-0.239,-8.052,-5.711,5.854,3.302
-6.207,3.533,-6.811,-2.517,-7.767,-8.349,4.192,-1.147
-6.826,-0.237,-10.052,-7.661,-11.142,-13.988,-2.338,-8.716
-9.202,-3.45,-13.423,-11.734,-14.833,-18.14,-7.695,-12.097
-7.744,0.294,-11.027,-9.56,-12.479,-15.278,-4.421,-6.374
-2.573,7.397,-4.887,-4.408,-6.019,-9.273,2.837,0.835
-1.541,7.389,-3.515,-5.042,-4.487,-9.507,3.091,-1.069
-6.257,0.233,-7.609,-11.127,-8.939,-15.291,-1.956,-7.739
-9.305,-3.898,-9.487,-13.545,-11.299,-16.879,-1.357,-6.931
-7.358,-1.554,-6.705,-9.77,-8.367,-11.849,5.812,0.757
-4.99,0.962,-4.507,-6.775,-5.465,-8.081,9.991,3.651
-5.752,-0.429,-6.03,-8.749,-6.653,-10.415,7.029,-1.86
-7.061,-2.563,-7.782,-11.268,-8.857,-13.889,3.484,-6.724
-5.542,-1.814,-6.38,-9.737,-8.377,-12.839,4.896,-4.351
-3.598,-0.456,-5.212,-7.576,-8.168,-10.364,6.585,-0.706
-4.312,-0.979,-6.928,-8.495,-10.372,-10.539,4.144,-2.02
-4.079,0.877,-5.768,-6.907,-8.873,-7.851,4.473,-1.697
-0.401,6.941,0.968,1.143,-1.263,1.607,12.411,6.463
2.065,10.73,5.933,8.39,4.545,9.833,19.818,14.753
1.643,10.169,5.72,10.037,4.802,11.598,20.972,16.218
2.219,10.63,5.47,10.77,4.333,12.431,20.301,15.318
3.904,12.608,6.644,12.062,4.505,14.498,19.602,15.079
4.173,12.331,6.113,10.154,2.84,13.268,16.891,12.747
4.599,11.522,5.397,6.911,1.798,9.644,15.425,10.144
6.776,13.654,8.062,7.433,5.095,9.192,18.656,11.745
7.18,15.407,11.185,9.534,8.935,10.715,22.245,14.453
3.771,12.468,9.673,8.018,7.378,8.937,21.162,12.391
0.423,7.695,4.669,4.327,1.788,4.993,17.275,7.66
-0.633,5.396,0.081,2.459,-3.086,3.472,14.424,6.166
-0.578,5.936,-1.873,3.043,-4.694,5.115,14.954,8.625
1.936,9.155,0.138,5.298,-2.08,8.046,19.031,10.553
7.403,14.103,3.488,7.191,1.651,9.741,19.609,6.861
10.837,16.734,2.841,5.974,1.137,8.342,10.133,-1.273
8.516,14.141,-1.57,1.995,-3.152,4.848,-2.62,-6.872
3.349,8.4,-5.201,-2.506,-6.782,0.836,-9.529,-9.235
-0.338,3.654,-6.827,-6.438,-8.581,-3.472,-11.742,-13.229
-2.226,1.959,-8.13,-9.096,-9.855,-6.937,-11.691,-16.832
-4.172,2.418,-9.893,-10.326,-11.424,-8.312,-8.813,-16.125
-6.096,2.83,-11.484,-11.174,-13.163,-8.756,-5.982,-14.938
-5.727,2.254,-11.426,-11.8,-13.519,-9.435,-6.096,-16.11
-1.853,2.528,-8.425,-10.141,-10.607,-8.273,-5.657,-14.14
5.091,7.428,-1.808,-3.405,-3.612,-1.574,1.474,-3.604
14.567,17.898,7.666,7.847,6.406,10.216,15.752,11.895
23.049,27.574,15.099,16.776,14.262,19.67,28.417,21.968
24.52,29.078,15.278,17.326,14.4,20.565,30.525,22.077
19.024,24.149,11.067,13.445,9.735,17.013,25.623,20.209
12.909,19.442,9.28,12.019,8.012,15.867,23.426,22.398
9.832,16.838,10.476,12.024,10.156,15.77,24.471,22
9.488,15.779,11.607,10.589,11.751,13.613,23.398,14.884
11.226,17.321,12.568,10.153,11.564,12.358,20.415,9.07
13.237,20.356,13.731,12.291,10.992,14.389,19.421,10.632
12.65,20.619,13.181,13.694,9.858,16.32,20.505,15.126
9.287,16.471,10.16,11.74,7.584,14.526,20.329,16.047
6.622,12.354,7.306,8.415,5.624,10.274,17.882,12.607
7.123,13.009,6.743,6.787,5.272,7.324,15.455,8.278
8.451,15.693,6.593,6.04,4.81,6.335,13.926,5.411
6.763,14.059,4.276,3.147,2.248,4.661,11.835,3.775
2.298,8.534,0.777,-1.169,-0.988,1.879,8.903,3.004
-1.098,5.268,-1.119,-2.784,-2.295,0.843,6.539,2.811
-1.092,6.053,-0.92,-0.759,-1.789,2.366,6.025,2.664
1.634,8.281,-0.104,2.235,-1.058,4.853,7.905,4.103
5.883,12.106,1.332,5.314,0.318,8.31,11.655,8.682
10.058,17.802,4.248,8.566,3.27,12.203,15.053,12.52
12.004,21.125,6.654,9.562,5.517,13.098,14.975,10.189
12.124,19.225,5.414,6.323,3.975,9.381,10.472,2.699
12.94,15.5,1.418,1.13,-0.315,4.053,4.427,-4.478
14.755,14.463,-1.095,-1.678,-3.327,1.301,1.015,-7.059
16.368,16.679,0.239,-0.169,-2.717,3.035,2.711,-3.906
17.936,19.773,3.665,3.765,0.09,7.7,8.102,1.537
19.626,21.681,6.156,7.105,2.258,11.966,12.249,4.542
21.046,23.059,7.624,9.525,3.678,14.909,13.074,5.607
21.955,24.779,9.585,12.139,5.634,17.481,13.479,7.464
20.906,24.008,10.244,12.985,6.161,18.001,13.891,8.343
16.729,18.825,6.965,9.508,2.881,14.518,11.689,5.938
12.284,14.355,2.789,5.156,-0.878,10.597,9.246,3.962
12.124,16.711,3.429,6.308,0.298,11.814,11.66,7.478
15.904,23.345,8.11,12.27,5.119,17.074,17.053,14.265
17.949,26.53,9.835,15.203,6.648,19.298,18.226,16.411
14.56,23.931,5.655,11.228,2.443,15.119,12.818,10.065
8.355,18.999,0.352,4.856,-2.594,8.594,5.888,0.146
3.629,14.093,-2.096,0.902,-4.888,4.346,2.703,-6
1.818,9.917,-3.127,-0.636,-6.021,2.859,3.514,-6.176
2.721,7.985,-3.917,-0.826,-6.763,3.362,6.151,-2.051
5.034,8.498,-3.366,0.201,-5.962,5.478,8.913,4.118
6.58,9.606,-1.369,2.051,-4.082,8.402,11.026,10.534
7.329,10.848,1.604,4.219,-1.531,11.237,13.289,16.222
8.269,12.823,4.097,4.542,1.102,11.14,15.207,15.002
7.761,13.728,2.763,0.096,0.566,5.07,13.158,0.105
5.15,11.893,-1.81,-5.743,-3.427,-2.023,7.06,-16.42
3.606,9.283,-4.279,-6.028,-5.884,-1.737,2.83,-16.239
3.75,7.38,-4.155,-2.545,-5.881,3.409,1.373,-6.489
1.54,4.023,-6.296,-3.205,-8.159,3.896,-5.589,-5.812
-3.468,-1.427,-10.12,-7.92,-12.421,-0.628,-19.387,-11.916
-5.292,-3.957,-9.317,-8.764,-12.2,-1.577,-26.761,-11.294
-0.401,0.866,-2.823,-3.227,-5.833,4.023,-19.586,-4.797
7.624,10.353,4.29,3.875,1.749,10.958,-6.347,-0.993
14.545,18.928,9.549,9.92,7.342,16.265,3.721,1.876
18.775,23.162,13.055,14.141,10.301,19.578,10.191,7.852
20.01,23.196,14.326,14.799,10.721,19.445,14.863,12.719
21.487,24.443,15.823,15.189,12.521,19.077,19.389,14.387
26.254,30.267,19.547,19.331,17.694,22.872,23.545,15.228
29.783,34.009,20.655,22.104,19.526,26.166,22.881,13.409
27.307,30.39,16.37,18.498,14.31,23.464,16.844,8.456
22.77,25.697,12.504,13.413,9.256,18.826,11.637,5.36
20.554,24.988,12.003,10.759,8.612,15.972,8.494,3.972
18.83,23.903,10.766,6.815,7.703,11.364,3.238,-1.294
17.365,21.059,8.746,1.488,5.699,5.138,-1.149,-8.294
20.123,22.806,10.893,1.566,7.776,4.657,2.322,-7.866
26.485,30.341,16.179,8.11,12.937,11.326,10.503,0.115
29.709,34.771,17.434,12.801,13.564,16.117,13.038,4.652
26.445,30.137,12.683,10.303,7.96,13.176,7.799,1.166
20.851,22.269,7.965,5.379,3.094,8.136,3.275,-2.016
17.837,19.449,7.777,4.549,3.771,8.206,5.652,1.02
16.808,20.505,9.181,6.123,6.232,10.839,10.616,4.101
13.825,18.302,7.292,3.645,4.469,8.407,10.093,-0.151
7.833,11.748,1.805,-2.984,-1.734,0.893,2.823,-8.894
2.61,6.927,-3.424,-7.003,-7.256,-3.622,-4.852,-13.495
2.641,7.844,-4.243,-4.688,-7.438,-0.611,-6.649,-10.374
7.493,12.224,-0.249,0.884,-2.585,5.962,-1.442,-3.452
11.366,15.261,4.468,4.95,2.811,10.299,8.693,2.122
10.492,15.043,6.722,5.726,5.746,10.898,19.974,4.544
7.681,13.479,6.948,4.44,6.268,9.719,24.004,4.303
6.07,11.451,5.136,2.02,3.581,7.62,12.766,0.89
3.994,7.624,0.748,-2.064,-2.361,3.35,-7.333,-7.235
-0.763,2.629,-4.143,-6.842,-7.863,-2.233,-20.069,-16.715
-5.462,-0.278,-6.327,-9.159,-9.421,-5.102,-20.393,-19.674
-4.77,1.016,-4.206,-7.197,-6.754,-3.101,-14.783,-14.782
0.598,4.349,0.162,-3.492,-2.346,0.466,-7.897,-9.894
3.576,5.69,2.232,-2.265,0.101,1.163,-2.28,-10.393
1.367,4.182,0.6,-4.183,-0.899,-0.748,-1.956,-13.179
-1.838,1.547,-2.11,-7.24,-3.775,-2.991,-7.42,-14.769
-3.433,-1.289,-3.91,-9.975,-6.422,-5.182,-11.476,-15.631
-5.638,-4.52,-5.278,-11.672,-8.117,-7.226,-7.518,-15.202
-9.717,-8.369,-7.725,-13.427,-9.979,-9.353,-0.168,-12.984
-13.281,-12.274,-11.775,-17.306,-13.197,-12.738,0.742,-12.545
-14.525,-14.623,-15.2,-21.376,-16.183,-15.965,-4.184,-15.092
-14.287,-13.81,-14.199,-20.109,-15.271,-14.511,-3.802,-14.26
-13.056,-10.017,-8.285,-12.281,-9.768,-7.051,6.149,-5.716
-9.912,-5.133,-2.392,-4.046,-4.273,1.101,15.252,3.824
-4.869,-0.564,-0.833,-1.198,-2.926,4.178,13.336,5.371
0.595,4.028,-1.308,-1.511,-3.451,3.749,4.844,1.193
4.831,8.846,0.237,0.575,-1.913,5.491,0.485,-0.03
6.674,11.955,2.561,4.574,0.194,9.539,2.032,2.11
6.945,12.326,3.448,6.934,0.625,12.162,5.296,3.251
7.494,12.337,4.374,8.436,1.079,13.616,9.006,5.194
7.224,13.075,5.353,10.262,1.682,15.21,11.44,9.016
4.996,12.662,4.558,10.727,0.82,15.497,9.835,10.23
4.381,11.584,4.133,10.126,0.674,14.666,7.467,8.683
7.315,12.123,6.907,10.39,3.689,14.772,9.494,8.947
9.274,13.324,10.712,11.146,7.719,15.604,13.759,11.355
6.82,12.363,11.672,10.735,9.087,15.173,14.727,11.946
2.179,8.528,8.804,8.31,6.462,12.416,11.527,8.627
-1.173,4.151,4.91,5.234,2.506,8.975,8.157,4.703
-2.013,2.477,3.981,4.267,1.674,7.961,8.786,5.329
-1.224,3.565,6.191,5.647,4.388,9.598,14.033,10.167
-0.185,4.26,8.34,6.885,7.08,10.886,20.593,13.392
0.876,3.3,8.611,6.348,7.289,9.757,21.657,11.076
2.871,3.037,7.432,4.696,5.219,7.344,11.938,5.56
5.339,5,5.803,4.003,2.575,6.761,-3.415,2.386
6.612,7.571,5.364,6.352,1.784,10.198,-11.98,4.784
7.83,9.438,7.986,11.647,4.52,16.385,-8.462,11.025
10.635,11.009,12.475,16.196,9.082,20.756,0.723,15.304
12.448,12.026,14.85,16.631,11.54,20.405,7.59,14.009
10.795,11.276,13.656,14.302,10.426,17.487,9.894,10.187
7.848,8.339,10.661,11.755,7.278,14.573,7.952,7.111
6.768,4.966,7.774,9.259,4.229,11.557,3.44,4.11
7.419,3.681,6.452,7.288,3.156,9.089,1.376,1.948
7.216,4.044,7.073,6.911,4.263,8.692,4.684,2.977
4.397,2.861,7.742,7.09,5.073,9.162,8.62,5.404
-0.495,-1.362,6.224,5.295,3.315,7.489,7.466,4.778
-6.258,-6.663,2.919,1.002,-0.001,3.256,3.081,0.647
-12.234,-10.588,0.002,-3.365,-2.571,-0.809,0.883,-3.342
-16.716,-12.66,-1.535,-5.227,-3.884,-2.502,1.64,-5.12
-17.764,-13.468,-2.316,-4.417,-4.721,-2.03,1.94,-5.654
-16.186,-13.128,-2.726,-2.397,-5.262,-0.341,0.118,-5.705
-14.658,-12.128,-2.48,-0.609,-5.133,1.689,-1.748,-5.27
-15.688,-13.701,-2.916,-1.466,-5.524,1.419,-2.312,-6.235
-20.402,-20.706,-6.083,-6.993,-8.146,-3.572,-3.154,-10.704
-25.747,-28.089,-9.618,-13.201,-10.83,-9.29,-4.675,-15.431
-25.972,-27.012,-8.65,-12.703,-9.811,-8.195,-5.537,-14.13
-20.563,-18.333,-4.232,-5.859,-6.682,-0.695,-5.58,-6.792
-15.896,-11.581,-2.448,-0.809,-6.285,4.729,-5.209,-0.751
-16.395,-11.374,-5.208,-1.622,-9.153,3.63,-5.353,-1.381
-19.907,-14.919,-9.1,-5.418,-12.301,-1.055,-7.589,-6.697
-22.501,-19.205,-11.42,-9.51,-14.122,-6.088,-9.837,-12.634
-22.858,-22.727,-12.141,-13.416,-14.706,-10.458,-8.77,-18.379
-22.5,-24.111,-12.943,-16.425,-15.586,-13.373,-10.774,-23.979
-22.198,-22.037,-14.514,-16.913,-17.758,-13.675,-23.402,-27.14
-18.728,-15.556,-13.056,-12.591,-17.235,-9.672,-34.667,-24.635
-9.978,-6.25,-5.329,-3.32,-9.943,-0.973,-27.712,-16.01
-0.512,1.76,4.102,6.397,-0.21,9.069,-9.466,-5.111
4.077,6.017,8.49,11.654,4.737,15.815,2.265,3.173
4.274,6.777,7.387,11.561,4.021,16.876,4.58,6.013
3.615,4.857,4.206,7.804,0.851,12.734,4.061,2.984
3.301,2.174,1.36,3.269,-2.232,7.07,3.034,-2.748
2.964,1.645,0.274,1.232,-3.599,4.593,1.431,-5.916
2.922,3.829,1.183,1.995,-2.922,5.834,1.091,-5.116
3.516,6.364,2.003,2.379,-2.072,6.793,2.355,-4.175
4.068,7.159,0.51,0.058,-3.58,4.606,1.972,-6.544
3.61,5.852,-2.974,-4.362,-7.665,0.17,-2.338,-11.648
2.781,3.704,-6.135,-8.703,-11.403,-4.054,-7.951,-16.245
4.187,3.376,-6.285,-10.128,-11.13,-5.241,-9.193,-16.69
8.643,5.98,-3.018,-7.735,-6.77,-2.282,-4.24,-12.515
12.746,8.943,-0.385,-5.339,-3.4,1.066,0.519,-8.963
13.75,9.384,-2.362,-7.373,-5.246,-0.349,-1.851,-11.122
14.293,8.22,-6.328,-12.297,-9.206,-5.638,-8.496,-16.06
18.364,9.362,-6.591,-14.588,-9.452,-8.818,-12.298,-17.699
25.284,15.132,-3.025,-12.459,-6.351,-7.192,-13.566,-16.943
32.182,24.273,1.155,-7.694,-3.272,-2.459,-14.388,-16.92
39.254,34.478,6.638,-0.384,1.302,4.68,-10.727,-13.888
48.374,44.5,15.068,9.286,9.788,13.714,-1.69,-4.295
59.465,53.997,24.355,18.567,19.579,22.298,8.018,7.847
69.216,61.594,31.32,24.999,26.469,28.473,16.935,17.049
73.106,64.299,34.215,27.389,28.604,30.7,23.405,21.055
70.953,61.826,33.129,25.954,26.902,28.535,22.11,19.978
66.99,58.059,29.671,22.889,23.693,24.49,13.039,15.528
62.849,54.586,24.596,19.101,19.435,20.383,3.046,9.19
57.396,49.25,18.982,14.088,14.489,15.808,-2.023,3.026
51.942,42.5,16.311,9.926,12.24,12.131,-0.858,1.04
47.907,37.087,16.808,8.219,12.856,10.639,2.694,3.575
44.219,33.747,16.006,6.777,11.614,9.28,2.854,5.048
41.588,32.39,14.086,5.142,9.137,7.522,0.099,2.663
42.475,32.991,16.497,6.361,11.696,8.458,0.869,1.04
45.356,33.921,22.566,10.284,18.762,12.309,6.394,4.033
45.162,32.79,24.547,12.531,21.763,14.93,10.25,8.687
39.968,29.131,19.97,11.304,17.235,14.336,9.432,10.688
33.731,25.304,15.222,9.334,11.802,12.408,8.101,9.656
31.586,24.452,15.303,9.059,11.681,11.127,8.278,7.678
33.391,26.954,17.727,9.867,14.588,11.023,6.523,6.284
34.252,29.19,18.495,10.16,15.75,11.373,2.523,5.263
31.854,27.401,18.249,9.923,15.713,11.304,1.717,4.674
28.844,22.827,19.273,10.404,16.948,11.455,5.824,6.156
27.2,19.918,20.661,11.685,18.328,12.517,9.661,9.241
25.843,19.665,20.38,12.179,18.119,13.29,10.441,10.437
24.38,19.764,19.55,11.847,18.12,13.262,11.882,9.23
23.484,19.139,20.187,12.332,19.995,13.61,15.568,8.592
21.456,16.967,20.27,12.376,20.689,13.435,16.119,8.763
15.995,11.674,16.749,9.282,16.812,10.719,9.695,8.067
9.29,4.595,11.707,4.68,10.682,6.99,0.404,6.753
6.387,0.453,9.828,2.993,7.248,5.951,-4.726,5.255
7.833,1.325,11.455,5.517,7.514,8.642,-3.134,3.929
7.96,2.506,12.378,8.75,8.085,11.859,1.132,3.977
3.376,-0.796,10.545,9.702,6.858,12.597,3.665,5.732
-1.532,-5.875,9.019,10.366,6.133,12.578,5.688,8.528
-3.204,-8.996,9.392,11.732,7.022,13.237,7.731,10.443
-5.175,-11.635,8.623,10.734,6.343,12.327,5.761,9.804
-9.466,-14.298,6.192,8.26,3.605,10.52,0.36,9.008
-12.578,-15.312,5.024,8.194,2.285,10.54,-2.751,9.556
-14.822,-17.195,3.662,7.762,1.574,9.237,-4.148,6.602
-20.393,-22.845,-0.644,2.585,-1.546,3.091,-7.995,-1.521
-26.048,-27.165,-3.096,-1.999,-3.302,-1.993,-9.74,-6.526
-25.402,-24.696,0.457,0.533,0.005,0.384,-3.832,-2.865
-22.135,-20.967,3.389,4.756,2.378,4.968,1.943,2.771
-23.607,-23.082,0.07,3.252,-1.07,4.339,-1.607,3.208
-28.222,-27.671,-3.744,-0.713,-4.52,1.039,-8.525,1.179
-29.814,-28.533,-1.462,-0.913,-1.827,0.926,-7.448,1.747
-27.185,-25.761,5.697,2.985,5.518,4.664,4.97,5.439
-24.043,-22.355,12.728,7.873,12.929,9.464,23.787,10.512
-23.651,-20.399,14.268,9.704,15.273,11.509,32.785,12.641
-25.899,-21.129,7.815,6.063,9.03,8.371,14.115,7.313
-27.904,-23.244,-0.653,1.023,-0.635,3.6,-19.769,-0.896
-27.035,-23.464,-2.07,1.139,-3.525,3.395,-33.662,-1.91
-24.831,-21.885,2.296,5.01,0.492,6.858,-21.875,3.904
-25.079,-21.88,4.168,5.97,2.866,7.939,-8.911,7.385
-28.012,-24.512,2.219,3.272,1.552,5.613,-3.408,6.109
-31.893,-28.507,-0.11,0.313,0.218,2.64,1.917,3.711
-36.255,-32.386,-3.053,-2.552,-1.373,-0.567,2.829,0.726
-39.402,-33.923,-6.932,-5.169,-4.565,-3.227,-6.471,-2.352
-37.975,-31.11,-7.276,-3.55,-5.275,-1.188,-12.356,0
-31.278,-24.4,-0.782,4.381,0.727,7.086,-0.07,10.5
-25.406,-18.75,5.664,11.222,7.166,13.803,16.029,19.042
-28.412,-20.865,1.679,7.536,3.373,9.651,10.823,13.766
-37.54,-29.531,-9.23,-2.813,-7.436,-1.134,-9.444,0.864
-41.76,-35.337,-13.648,-7.656,-11.774,-5.858,-16.979,-4.057
-39.295,-34.638,-9.514,-5.394,-7.349,-2.744,-6.073,0.609
-38.015,-33.376,-6.548,-4.239,-3.786,-0.534,4.352,4.661
-41.079,-36.119,-9.269,-7.657,-5.764,-3.329,2.173,2.563
-45.199,-41.533,-13.751,-13.083,-9.529,-8.634,-6.812,-3.968
-48.139,-46.537,-16.571,-18.44,-11.674,-14.021,-12.344,-10.883
-50.642,-49.942,-19.041,-23.466,-13.422,-19.102,-12.584,-15.491
-53.33,-52.895,-23.582,-28.679,-17.217,-24.443,-13.347,-18.903
-54,-54.761,-27.868,-32.901,-21.172,-28.624,-16.845,-21.886
-50.916,-52.806,-27.62,-33.274,-21.481,-28.865,-18.807,-21.971
-47.871,-48.519,-24.84,-30.542,-19.725,-26.29,-17.265,-18.774
-47.602,-45.27,-23.289,-27.715,-18.865,-23.554,-13.637,-14.317
-44.684,-41.37,-20.47,-24.191,-16.581,-19.862,-9.595,-9.776
-36.615,-35.321,-15.096,-19.458,-11.999,-15.594,-9.881,-7.828
-29.821,-29.728,-10.788,-15.242,-8.188,-12.779,-14.911,-8.746
-26.417,-25.299,-7.12,-10.77,-4.274,-9.629,-14.65,-6.994
-23.318,-22.369,-3.273,-6.848,0.056,-6.315,-7.232,-2.671
-22.583,-23.742,-4.711,-8.279,-1.291,-7.825,-5.035,-2.892
-25.807,-27.578,-11.744,-13.804,-8.701,-12.893,-10.597,-6.825
-28.225,-28.073,-15.614,-15.722,-12.97,-14.056,-12.569,-6.889
-27.34,-25.665,-13.24,-12.438,-10.796,-10.756,-7.697,-3.036
-26.463,-25.83,-10.973,-9.944,-8.762,-9.293,-3.796,-1.358
-27.847,-28.928,-12.72,-11.402,-10.561,-11.622,-4.114,-2.945
-29.504,-30.201,-15.205,-13.824,-12.55,-13.999,-4.597,-4.096
-28.885,-28.313,-14.889,-14.196,-11.663,-14.234,-3.652,-3.379
-27.011,-26.631,-13.297,-13.359,-9.959,-13.892,-4.224,-2.44
-26.44,-26.546,-12.83,-12.818,-9.661,-14.03,-6.161,-2.091
-26.707,-25.747,-12.193,-11.746,-9.19,-13.111,-4.896,-1.347
-26.24,-23.869,-10.53,-10.323,-7.476,-11.291,-0.603,-0.949
-24.551,-22.632,-9.565,-10.484,-6.219,-11.2,0.172,-3.055
-20.497,-20.327,-8.856,-10.59,-5.573,-11.692,-4.159,-5.647
-13.999,-14.624,-6.357,-7.057,-3.782,-8.809,-7.443,-4.176
-8.758,-9.238,-3.764,-2.073,-1.724,-4.166,-7.993,0.034
-9.857,-10.588,-5.411,-2.346,-3.136,-4.215,-10.823,0.639
-18.031,-18.921,-11.702,-9.524,-9.005,-10.689,-15.544,-4.013
-27.124,-27.112,-17.503,-17.117,-14.65,-17.776,-16.382,-9.079
-30.668,-29.424,-18.583,-19.009,-15.296,-19.944,-12.529,-10.555
-29.731,-28.48,-16.735,-17.443,-12.445,-18.843,-7.279,-9.206
-28.942,-29.093,-15.685,-17.534,-10.544,-18.604,-1.152,-7.06
-28.394,-29.313,-15.428,-18.015,-10.11,-17.965,5.914,-3.877
-25.789,-25.483,-14.308,-15.543,-9.425,-14.415,8.282,-0.13
-21.294,-19.55,-11.843,-11.389,-8.184,-10.093,1.341,1.69
-16.151,-14.432,-7.735,-7.131,-5.873,-6.907,-7.305,1.705
-11.097,-9.545,-2.596,-2.237,-1.876,-3.644,-6.99,2.127
-5.53,-3.134,2.671,3.043,3.605,0.479,0.998,3.513
1.847,4.639,8.465,7.961,10.211,5.047,8.752,5.748
8.494,10.409,13.577,11.68,15.798,9.002,12.571,8.361
10.257,11.556,15.444,13.47,17.669,11.4,11.843,10.417
8.913,10.359,14.841,14.226,16.724,12.895,7.002,12.199
8.795,10.048,14.474,14.761,15.755,13.921,2.794,13.618
8.962,10.143,14.391,13.965,15.189,13.139,5.434,13.016
6.328,8.278,12.699,11.15,13.614,10.189,12.67,10.784
1.75,4.161,8.572,7.431,10.096,6.655,12.746,8.936
-1.58,0.152,3.464,3.864,5.316,3.133,0.228,5.728
-1.314,-0.833,1.224,1.86,2.788,0.323,-12.732,-0.003
3.481,3.808,5.187,4.72,6.408,2.252,-13.004,-1.295
10.795,13.669,13.368,13.053,14.486,10.465,-4.178,6.77
16.518,23.119,20.161,21.66,21.071,19.008,4.76,16.709
19.972,28.409,23.993,27.172,24.631,23.666,12.674,21.639
22.841,31.386,26.704,30.788,27.454,26.393,18.814,24.083
22.365,31.404,26.518,30.845,27.754,26.393,17.98,24.393
16.758,26.583,22.701,26.388,24.571,22.382,12.411,20.866
12.557,22.13,21.348,24.065,23.887,20.423,13.705,19.735
14.074,22.703,24.821,27.368,27.686,23.989,23.758,25.091
15.571,24.091,26.352,29.637,28.891,26.508,30.486,29.018
12.244,21.851,22.185,26.35,24.024,23.472,27.071,25.776
7.186,17.609,16.715,21.19,17.903,18.664,18.7,20.722
4.504,14.432,14,17.651,14.785,15.482,11.661,17.515
3.827,13.143,13.201,15.25,13.932,13.154,8.448,12.604
1.407,11.077,10.553,12.12,11.318,9.961,6.456,5.063
-5.269,4.252,2.597,6.076,2.952,4.104,-3.522,-2.779
-12.02,-4.534,-7.228,-1.274,-7.624,-3.112,-21.049,-9.613
-10.983,-5.492,-8.46,-2.003,-9.314,-4.333,-26.046,-10.16
-2.794,3.021,0.809,6.627,-0.09,3.381,-10.251,-0.506
2.98,10.251,8.635,15.235,7.668,11.18,4.773,10.742
2.252,9.98,7.471,15.904,6.174,11.241,2.896,12.518
-1.527,5.729,1.733,9.816,0.27,4.773,-5.9,4.659
-7.031,-0.245,-4.25,0.301,-5.161,-4.68,-9.795,-5.873
-13.738,-7.732,-10.217,-9.352,-10.249,-13.992,-11.401,-13.572
-18.14,-14.237,-15.117,-15.953,-14.914,-20.513,-16.856,-18.396
-19.334,-17.889,-17.686,-19.326,-17.865,-23.966,-24.739,-22.625
-20.631,-19.482,-18.888,-21.233,-19.137,-25.471,-29.387,-26.019
-22.562,-19.6,-19.366,-22.023,-19.365,-25.456,-29.399,-27.024
-20.488,-16.097,-16.266,-19.143,-16.468,-21.931,-26.104,-23.131
-11.514,-6.846,-6.944,-9.642,-7.54,-11.951,-17.356,-11.26
-0.544,4.496,4.455,3.329,4.048,1.627,-3.229,4.376
4.324,10.021,9.533,10.664,9.636,9.6,7.411,11.91
1.298,6.496,5.545,7.749,5.909,7.075,6.636,6.791
-5.233,-2.242,-2.936,-1.03,-2.39,-1.541,-2.723,-2.864
-10.854,-10.264,-10.249,-8.39,-9.446,-8.697,-11.578,-8.15
-12.596,-12.892,-12.47,-9.66,-11.714,-9.648,-12.547,-7.029
-10.57,-10.115,-9.863,-6.362,-9.58,-6.218,-5.891,-3.409
-8.629,-6.607,-7.233,-4.308,-7.461,-4.408,0.427,-2.651
-9.286,-5.455,-7.532,-5.428,-8.051,-5.757,-0.643,-5.648
-11.198,-6.084,-9.609,-7.028,-10.28,-7.13,-9.25,-9.278
-11.376,-6.739,-11.378,-7.369,-12.202,-7.044,-18.661,-10.935
-8.737,-6.338,-11.622,-7.107,-12.643,-6.647,-20.909,-10.941
-6.682,-6.156,-11.677,-7.59,-12.904,-7.021,-16.808,-11.413
-9.102,-8.855,-14.437,-9.848,-15.776,-8.593,-15.216,-12.997
-14.858,-15.091,-20.048,-14.39,-21.094,-12.364,-19.882,-15.084
-19.693,-21.648,-24.813,-19.582,-24.92,-17.884,-23.99,-17.551
-21.576,-24.679,-26.285,-22.725,-25.315,-22.403,-23.082,-21.117
-21.494,-24.44,-26.528,-23.991,-25.18,-24.693,-23.886,-25.714
-19.746,-22.782,-26.274,-24.111,-25.15,-24.562,-28.516,-28.242
-15.686,-19.569,-22.815,-21.957,-21.743,-21.532,-27.351,-27.134
-11.825,-15.985,-18.035,-19.278,-16.671,-18.626,-19.957,-25.681
-11.148,-14.318,-17.286,-19.666,-15.623,-19.833,-18.47,-25.442
-10.2,-11.936,-18.536,-20.379,-16.68,-21.619,-24.043,-22.897
-3.566,-4.483,-14.702,-15.107,-12.79,-16.757,-23.968,-15.14
6.242,5.058,-6.056,-5.436,-4.141,-6.912,-12.982,-4.96
12.343,10.348,0.736,1.521,3.009,0.251,1.166,2.826
14.388,12.134,4.506,5.588,7.307,4.493,11.517,8.785
16.101,14.071,8.388,10.252,11.034,9.458,16.621,15.029
15.689,13.567,9.673,11.727,11.802,11.282,16.201,18.064
10.09,8.157,5.111,6.204,7.656,5.927,14.129,15.45
3.955,3.235,0.693,0.229,4.439,-0.037,18.34,12.485
4.466,4.515,3.49,1.545,7.969,1.461,29.969,14.566
10.601,9.805,9.74,6.775,14.381,6.87,38.193,17.181
13.135,11.836,8.881,5.782,13.728,5.353,28.794,9.543
6.054,6.182,-3.027,-5.087,1.766,-6.657,-1.834,-10.556
-4.831,-3.821,-18.137,-18.984,-14.214,-21.45,-40.246,-32.44
-9.593,-10.871,-26.5,-27.531,-23.875,-30.345,-67.032,-45.04
-7.518,-11.731,-26.453,-28.765,-24.618,-31.633,-72.685,-45.878
-3.927,-7.844,-21.033,-24.408,-18.994,-27.05,-59.204,-37.452
2.726,1.303,-9.662,-14.029,-6.967,-15.958,-33.137,-21.431
17.227,17.687,8.227,3.019,10.983,2.181,-2.952,0.488
33.528,35.35,24.907,20.616,27.012,20.644,20.213,21.041
40.775,43.245,31.555,29.594,33.287,29.669,29.014,31.067
40.072,40.617,30.754,29.702,32.815,29.042,28.793,31.325
38.833,35.923,29.197,27.053,31.601,25.352,28.583,28.836
35.851,31.672,25.084,22.024,27.543,19.475,26.186,23.404
27.398,24.79,15.651,12.541,18.356,9.707,16.312,12.615
19.331,18.011,7.928,4.748,11.071,1.915,6.281,3.889
19.261,17.288,9.391,6.447,12.509,3.039,6.998,5.638
23.976,20.726,15.548,13.521,18.103,8.973,15.137,12.868
25.687,21.149,17.647,16.064,19.96,11.077,20.352,15.986
24.598,18.09,16.238,13.844,19.27,9.834,23.036,16.557
25.718,16.962,16.959,13.011,21.268,10.453,29.311,20.101
28.184,17.984,18.471,13.043,23.666,11.12,35.086,22.305
26.849,16.326,14.525,8.784,19.603,6.611,29.112,16.393
20.823,10.638,4.394,0.208,8.659,-2.381,9.863,5.256
14.182,4.324,-5.346,-7.293,-1.643,-10.249,-8.348,-3.241
11.049,1.628,-8.164,-9.335,-4.393,-12.904,-10.838,-6.673
12.001,3.821,-4.677,-7.29,-0.91,-11.533,-3.1,-9.025
13.847,7.007,-1.794,-6.869,1.16,-11.164,-5.812,-14.594
13.594,6.517,-4.128,-11.057,-2.333,-14.677,-25.074,-23.65
12.993,4.32,-7.839,-15.238,-6.535,-18.122,-41.387,-30.638
16.499,6.993,-6.132,-12.087,-4.787,-14.568,-38.16,-26.894
24.304,15.706,1.4,-1.11,2.613,-3.243,-21.574,-10.732
31.587,24.324,10.147,10.827,11.47,9.121,-2.119,8.597
34.464,27.54,16.924,17.484,19.085,15.93,16.482,20.297
32.664,25.426,19.977,17.698,22.806,15.841,26.309,21.256
28.133,21.133,18.387,14.095,20.887,11.71,20.978,16.336
24.238,17.76,14.825,10.624,16.697,7.793,10.71,12.626
24.072,17.127,14.047,10.37,16.136,7.307,11.687,13.627
27.198,19.442,17.074,13.448,20.113,10.339,23.779,17.739
29.985,22.758,20.155,17.056,23.67,14.254,32.373,21.43
29.513,23.536,19.402,17.891,22.453,15.873,28.998,22.563
25.652,19.759,14.551,14.419,17.092,13.217,19.887,20.574
21.119,14.203,9.635,9.116,12.266,8.214,15.864,17.127
18.961,11.21,8.715,6.45,11.665,5.299,19.206,15.274
18.78,10.059,10.615,6.716,13.8,5.073,22.712,15.336
18.515,7.955,12.053,7.074,15.521,5.162,21.77,15.738
17.623,5.911,12.088,6.515,15.711,4.947,19.629,15.904
15.434,4.769,10.212,4.642,13.479,3.729,18.782,14.586
11.766,3.016,6.881,1.352,9.585,0.69,18.081,11.233
8.668,1.09,4.864,-0.985,7.396,-1.885,17.323,8.512
6.673,-0.245,4.217,-1.232,6.874,-2.297,15.592,7.604
3.827,-2.53,1.76,-1.787,4.542,-2.688,10.926,6.106
0.8,-5.217,-1.686,-3.016,1.346,-3.914,5.914,3.396
0.617,-5.415,-2.297,-2.384,0.931,-3.75,4.888,1.336
2.823,-3.599,-1.432,-0.672,1.296,-2.333,5.413,-0.138
4.072,-2.334,-3.332,-0.618,-1.751,-1.507,2.154,-3.183
3.151,-1.837,-7.173,-1.537,-6.522,-0.736,-3.628,-8.458
0.986,-1.98,-9.532,-2.695,-9.085,-1.124,-6.587,-12.219
-1.31,-3.307,-10.254,-5.196,-9.432,-5.04,-5.028,-9.802
-2.68,-4.785,-10.874,-7.686,-9.604,-9.32,-1.841,-4.202
-2.915,-5.33,-11.765,-8.562,-10.618,-10.464,-0.988,-3.457
-2.827,-5.859,-12.731,-9.859,-12.322,-11.622,-3.659,-7.823
-2.956,-7.625,-13.655,-12.902,-13.859,-15.331,-6.673,-9.545
-2.888,-9.509,-14.133,-14.664,-14.352,-17.509,-6.428,-5.619
-2.049,-8.947,-13.76,-12.838,-13.761,-15.279,-4.949,-2.047
-1.068,-6.231,-13.059,-9.978,-13.165,-12.625,-7.237,-4.134
-0.066,-2.945,-11.613,-7.401,-12.193,-11.296,-10.646,-7.397
3.943,3.164,-6.373,-1.275,-7.535,-5.736,-5.902,-2.849
12.09,13.098,2.511,8.838,0.82,5.359,7.034,8.489
18.997,20.483,8.576,15.663,6.621,13.275,16.16,15.842
20.135,20.245,7.788,14.229,6.15,11.635,15.229,15.485
17.991,16.147,3.542,8.255,2.646,4.703,10.975,13.375
16.427,13.371,0.344,3.498,-0.089,-0.398,9.3,11.44
16.211,12.684,-0.61,1.983,-1.223,-1.226,8.207,7.228
16.986,13.341,0.134,3.072,-0.773,0.82,6.664,3.457
17.426,13.962,1.46,4.556,0.816,2.523,7.407,4.14
16.319,13.158,3.008,5.229,2.883,2.611,10.599,8.048
16.004,12.78,6.36,7.957,6.193,4.851,14.345,12.442
18.297,14.625,10.908,13.497,10.265,10.535,17.241,13.962
19.783,15.649,12.345,15.999,11.511,13.547,16.943,10.555
17.948,13.553,9.805,13.092,9.12,11.164,13.022,7.945
15.838,11.363,7.583,10.382,6.966,8.603,8.719,10.273
17.362,12.43,9.003,12.098,8.061,9.82,7.012,12.287
22.655,16.711,13.841,17.089,12.127,14.246,8.714,13.33
27.062,20.718,18.442,20.805,15.944,17.984,12.292,17.044
25.443,19.79,18.509,18.324,15.85,15.686,15.187,17.399
19.56,13.997,14.362,10.751,11.957,8.045,15.069,9.125
15.512,8.159,9.465,3.969,6.822,1.374,8.695,-0.639
14.108,4.746,5.332,0.227,2.197,-2.074,-2.598,-4.733
10.438,1.376,1.299,-2.992,-1.213,-5.337,-9.729,-5.309
2.545,-4.395,-2.936,-7.937,-3.724,-10.312,-9.019,-6.714
-4.64,-10.22,-5.862,-12.928,-5.489,-14.665,-8.028,-8.776
-7.103,-12.562,-6.464,-14.542,-6.126,-15.535,-10.028,-9.429
-7.465,-12.761,-6.387,-12.987,-6.213,-14.163,-8.553,-8.18
-8.288,-13.749,-7.298,-11.743,-7.024,-13.903,-4.354,-6.611
-8.203,-15.213,-8.639,-12.449,-8.784,-15.276,-6.317,-7.51
-7.076,-15.848,-8.397,-12.809,-9.44,-15.251,-9.735,-9.31
-8.282,-16.927,-6.647,-11.346,-8.025,-12.694,-2.319,-7.081
-13.823,-20.343,-7.11,-10.942,-7.963,-11.361,8.678,-3.72
-18.713,-22.92,-10.15,-12.156,-10.746,-12.559,5.945,-6.794
-15.929,-18.897,-10.384,-9.979,-11.997,-11.581,-8.473,-13.001
-7.381,-9.638,-5.923,-2.781,-8.968,-6.091,-16.742,-11.697
-0.499,-2.097,-0.579,4.675,-3.989,0.677,-11.39,-2.369
3.28,1.299,3.393,8.963,0.381,5.755,-1.516,6.341
6.824,2.918,6.306,10.558,3.121,8.339,3.573,10.846
10.227,4.876,7.919,11.061,4.062,9.091,4.112,13.846
11.03,6.937,7.05,11.04,3.166,8.946,3.582,14.799
7.803,6.313,2.75,8.645,-0.566,6.369,0.725,9.313
3.83,3.639,-1.617,4.773,-4.825,2.187,-4.823,0.944
3.92,3.924,-0.368,4.766,-3.782,2.04,-5.375,0.394
6.291,6.267,4.301,8.137,1.349,5.706,2.309,7.174
6.223,5.158,4.855,8.223,2.714,6.204,8.21,9.757
4.566,1.321,0.526,3.558,-1.522,1.744,3.821,4.467
4.158,-0.528,-3.46,-1.538,-6.039,-3.226,-4.474,-1.282
4.825,1.141,-3.227,-2.955,-6.008,-4.326,-1.498,0.077
5.543,4.611,0.535,0.274,-1.797,-0.497,14.454,7.423
5.103,6.334,1.73,3.44,-0.162,3.344,20.763,10.328
3.277,5.079,-3.472,1.946,-5.546,2.307,1.647,3.412
3.107,5.061,-8.556,-0.008,-11.154,0.48,-22.578,-3.289
6.233,8.343,-6.287,3.078,-9.237,3.245,-25.678,-0.334
9.811,10.624,0.28,8.627,-2.806,8.036,-12.165,6.871
11.526,9.694,4.953,12.245,2.046,11.247,0.383,10.308
10.621,7.636,5.82,12.623,3.606,12.347,5.848,10.173
6.002,4.252,2.603,9.265,1.051,10.167,4.776,9.878
0.407,-0.547,-2.31,5.044,-4.04,6.307,1.465,12.178
-0.602,-2.596,-4.008,4.122,-6.443,4.764,2.059,14.432
1.618,-1.307,-3.08,3.415,-5.798,3.241,3.513,8.24
1.171,-1.403,-3.583,-0.855,-6.057,-1.367,1.438,-3.3
-0.854,-2.69,-3.948,-3.514,-6.188,-4.05,2.723,-5.741
-0.447,-2.027,-2.566,-1.898,-4.761,-2.944,8.133,-1.96
0.258,-1.447,-3.986,-2.819,-6.342,-4.829,2.254,-8.694
-1.359,-2.865,-9.485,-8.252,-12.313,-10.495,-19.355,-22.709
-3.674,-4.931,-13.809,-12.642,-17.064,-14.212,-38.173,-28.195
-5.425,-7.613,-14.597,-14.679,-17.667,-15.817,-39.494,-25.151
-4.001,-7.618,-10.467,-12.553,-12.943,-13.301,-20.976,-13.863
5.862,2.194,4.306,1.238,2.414,1.9,23.403,18.065
19.115,16.091,24.358,20.297,23.209,22.298,79.972,56.651
18.74,15.082,26.165,19.577,25.41,20.949,87.887,52.855
0.767,-4.246,-0.551,-8.577,-2.685,-9.152,8.468,-7.94
-16.984,-22.039,-32.035,-37.284,-36.932,-39.078,-94.182,-70.941
-21.663,-25.404,-42.271,-42.41,-48.811,-43.961,-126.919,-81.278
-19.404,-21.988,-34.432,-31.787,-40.394,-32.205,-89.169,-50.681
-17.756,-19.67,-23.901,-22.628,-28.355,-21.924,-38.603,-22.102
-15.356,-16.448,-13.017,-14.158,-16.137,-12.438,6.723,0.28
-11.542,-11.849,-0.582,-1.036,-2.68,2.341,47.858,33.127
-10.956,-11.178,3.738,5.469,1.795,10.114,53.507,50.655
-14.456,-15.424,-4.662,-4.642,-7.616,-1.662,10.911,17.283
-15.808,-17.733,-13.095,-17.858,-17.181,-18.482,-35.057,-38.773
-12.95,-15.017,-12.403,-18.163,-17.094,-19.496,-45.745,-62.464
-10.731,-11.923,-6.869,-8.013,-11.781,-5.31,-21.731,-41.918
-9.46,-9.496,2.795,6.761,-1.306,14.077,29.879,12.07
-6.517,-5.761,13.252,18.036,10.824,25.406,72.378,66.666
-5.9,-5.217,6.219,6.308,3.988,9.017,37.262,48.651
-7.304,-7.468,-14.172,-19.126,-18.27,-19.924,-43.816,-26.965
-0.097,-0.705,-9.018,-11.595,-14.028,-9.378,-31.314,-24.742
11.166,11.201,19.855,23.058,15.973,30.929,66.497,55.33
5.532,6.509,15.322,17.234,11.123,25.137,59.529,47.032
-13.008,-11.4,-27.239,-30.362,-34.311,-26.94,-72.174,-53.159
-16.121,-13.83,-41.78,-44.052,-50.021,-41.874,-119.785,-70.329
0.494,3.252,-10.014,-8.721,-16.134,-4.041,-24.164,13.812
12.839,15.012,12.559,11.474,7.693,16.971,42.073,39.51
11.022,12.097,-0.321,-6.568,-7.121,-1.954,-0.738,-31.84
10.087,10.578,-9.867,-13.666,-18.821,-6.918,-30.079,-59.121
17.233,16.87,8.316,12.05,-0.072,22.777,35.042,14.632
18.465,15.983,20.23,24.536,13.473,34.89,87.576,60.182
7.723,2.958,-0.658,-0.37,-8.086,6.546,25.807,2.707
1.217,-4.681,-21.164,-17.391,-30.683,-9.384,-50.968,-44.513
7.635,1.453,-9.187,4.109,-18.765,17.693,-16.875,7.147
11.314,5.034,8.783,25.777,0.938,41.688,57.02,70.465
2.159,-4.468,3.81,15.433,-2.867,28.298,64.276,61.17
-4.999,-13.182,-1.897,2.231,-7.237,12.789,63.111,39.815
0.912,-10.447,11.233,10.537,8.525,22.592,113.477,57.63
5.63,-8.018,13.591,12.223,11.627,25.626,113.41,51.351
-4.448,-16.626,-17.861,-15.173,-23.583,-3.535,-12.606,-19.779
-18.835,-27.854,-53.461,-47.996,-63.581,-39.842,-148.744,-97.63
-23.147,-31.193,-58.969,-56.591,-69.433,-50.58,-163.23,-115.278
-20.026,-28.212,-39.038,-38.238,-46.827,-30.499,-76.178,-60.535
-16.772,-23.285,-13.998,-8.247,-19.161,3.787,22.402,28.294
-14.927,-19.239,1.397,9.669,-1.817,23.118,73.959,77.847
-18.441,-23.089,-6.672,-5.924,-8.767,2.935,46.756,29.424
-29.985,-36.449,-36.267,-44.511,-39.031,-41.835,-44.583,-76.475
-39.257,-44.834,-54.366,-61.106,-58.689,-59.504,-99.003,-114.113
-35.206,-37.1,-33.772,-32.922,-37.72,-27.89,-25.01,-32.651
-25.438,-25.093,6.014,8.495,5.414,15.945,125.603,79.479
-28.557,-28.097,18.605,17.258,21.489,24.575,191.045,111.133
-51.592,-49.734,-20.621,-23.28,-18.322,-17.597,65.175,21.273
-77.494,-72.395,-78.757,-79.143,-80.73,-76.242,-140.361,-115.061
-80.449,-73.509,-92.453,-91.035,-96.602,-90.162,-193.026,-153.879
-62.994,-56.946,-58.748,-58.116,-60.475,-57.338,-80.538,-85.342
-54.426,-49.197,-38.891,-39.404,-38.163,-38.772,-13.479,-44.561
-63.943,-57.264,-53.619,-51.406,-53.707,-51.881,-54.78,-66.503
-70.819,-62.209,-61.026,-52.338,-62.194,-53.33,-61.711,-55.626
-62.387,-53.734,-40.892,-27.483,-40.607,-28.271,15.505,5.68
-51.613,-43.961,-26.454,-13.73,-24.818,-15.634,51.063,20.096
-54.115,-46.539,-42.956,-33.327,-42.652,-38.038,-21.059,-45.116
-63.416,-55.93,-62.525,-53.576,-63.449,-60.052,-84.736,-87.875
-63.08,-57.41,-49.718,-39.87,-48.452,-45.532,-27.839,-34.537
-55.948,-51.591,-20.871,-12.913,-15.681,-17.413,82.627,40.458
-58.948,-52.748,-20.373,-15.918,-13.657,-21.049,93.433,29.821
-74.22,-65.42,-55.552,-50.186,-50.869,-56.74,-25.778,-53.573
-83.404,-74.237,-83.683,-73.126,-81.321,-80.087,-129.425,-102.258
-72.046,-63.181,-70.104,-57.073,-67.134,-63.813,-96.717,-66.96
-51.259,-41.396,-37.588,-26.639,-32.524,-33.874,-4.563,-13.383
-42.067,-31.499,-25.576,-16.706,-19.688,-24.712,28.869,-1.796
-45.13,-35.583,-29.639,-22.627,-23.253,-30.686,32.687,-7.707
-49.107,-40.16,-29.456,-26.135,-21.531,-34.257,55.085,-5.152
-55.125,-44.666,-35.586,-33.275,-27.247,-42.377,35.072,-20.039
-64.136,-52.335,-55.849,-49.19,-49.621,-59.761,-47.828,-60.912
-62.247,-51.03,-63.777,-53.228,-59.606,-64.988,-93.515,-83.45
-45.299,-34.443,-43.128,-31.088,-38.684,-43.266,-43.56,-51.412
-31.152,-18.83,-16.189,-1.103,-9.949,-13.094,43.382,12.509
-32.887,-19.733,-9.48,7.827,-1.812,-4.473,84.337,44.425
-44.901,-34.182,-26.569,-12.918,-19.006,-26.761,44.615,4.515
-53.819,-46.85,-49.03,-40.664,-42.876,-56.306,-34.127,-64.397
-48.13,-42.101,-50.748,-41.435,-46.049,-57.348,-64.965,-77.679
-29.411,-21.455,-27.397,-12.659,-23.105,-27.16,-19.57,-23.266
-15.78,-6.771,-5.648,10.715,-0.637,-2.786,37.637,25
-20.78,-13.025,-8.285,4.067,-2.367,-10.361,44.857,17.635
-35.377,-29.149,-24.941,-16.71,-18.569,-32.659,20.388,-12.524
-41.859,-36.636,-32.776,-25.259,-26.122,-41.291,8.92,-19.537
-36.731,-33.292,-29.557,-21.044,-23.016,-36.104,3.924,-12.693
-29.894,-28.36,-27.057,-18.121,-21.354,-32.989,-16.158,-19.584
-28.689,-27.001,-28.863,-20.097,-23.609,-35.798,-36.26,-34.252
-30.868,-27.698,-30.794,-22.534,-24.794,-38.796,-39.003,-39.259
-29.363,-25.973,-28.017,-21.238,-20.965,-37.369,-25.155,-31.11
-20.717,-18.293,-17.843,-12.812,-10.206,-28.843,3.888,-11.411
-9.98,-7.852,-6.633,-1.828,1.218,-18.032,31.771,8.235
-4.767,-2.586,-5.358,0.106,2.422,-16.216,28.722,7.121
-5.279,-4.656,-12.215,-7.478,-4.69,-23.923,-0.714,-12.387
-6.133,-8.742,-14.61,-11.867,-6.999,-28.535,-14.765,-21.029
-5.326,-10.074,-9.342,-7.782,-1.007,-24.656,2.648,-8.143
-4.847,-8.221,-5.495,-3.738,3.44,-20.966,18.483,1.177
-3.717,-3.805,-6.76,-4.533,1.744,-22.155,7.315,-8.643
2.636,4.228,-4.583,-2.149,2.795,-19.615,-9.073,-16.753
13.126,14.394,5.644,8.248,12.254,-8.46,-2.071,-4.435
18.757,19.524,14.541,16.82,21.119,0.731,19.041,13.59
14.188,14.226,12.55,13.145,19.459,-3.198,25.232,13.583
4.886,2.857,2.222,0.596,9.435,-16.69,7.192,-5.022
-0.586,-4.458,-6.9,-8.838,0.303,-26.701,-15.281,-21.479
0.674,-2.213,-6.816,-6.697,-0.017,-24.208,-15.025,-17.912
7.175,6.766,3.64,5.21,10.16,-11.468,10.139,1.991
14.782,15.228,14.741,15.041,21.532,-0.806,29.325,15.889
16.951,17.252,13.832,11.959,20.924,-3.005,17.156,8.146
13.34,14.952,4.489,2.117,11.355,-11.973,-6.808,-7.212
12.166,16.111,3.26,1.773,9.771,-11.902,-6.153,-5.728
16.141,20.674,12.432,11.357,19.001,-2.426,16,9.757
18.26,20.65,17.708,16.429,24.334,2.487,26.284,17.54
13.839,14.309,11.531,10.801,17.295,-3.409,8.587,7.501
6.06,7.771,0.173,1.043,4.142,-14.11,-24.311,-14.187
1.543,5.81,-6.045,-3.409,-3.555,-19.69,-45.377,-29.66
4.741,9.553,-2.192,1.133,0.044,-15.411,-39.626,-27.175
14.178,18.028,7.777,9.935,10.249,-6.25,-23.408,-17.427
23.177,26.648,17.027,17.602,19.171,1.831,-16.875,-9.65
26.434,29.612,23.304,23.57,24.844,8.631,-12.954,2.741
25.359,26.983,28.157,28.041,29.666,14.399,1.525,18.634
24.353,23.852,32.065,29.556,34.073,16.796,18.376,24.988
24.834,23.352,33.712,28.555,35.914,15.764,21.057,19.024
25.689,25.08,33.207,28.91,34.969,15.855,10.651,13.232
26.686,27.092,32.842,32.161,34.146,19.29,2.929,15.361
28.703,28.349,33.689,34.52,34.809,21.984,1.392,16.624
30.761,29.822,33.348,32.985,34.06,20.741,-7.203,7.697
29.639,30.495,29.042,28.508,28.977,16.944,-25.616,-5.953
24.96,27.432,23.039,23.611,22.377,13.296,-35.464,-11.473
22.233,23.954,22.066,22.806,21.428,14.325,-23.186,-1.354
25.499,26.56,27.939,28.885,27.651,22.655,-1.891,18.886
29.819,31.893,32.586,34.706,32.203,30.014,3.439,29.144
30.046,32.218,29.475,30.959,28.248,26.057,-13.508,14.866
30.46,30.108,24.743,22.763,22.508,16.822,-31.215,-7.389
34.61,31.809,27.186,22.972,24.6,17.177,-25.171,-6.819
36.471,33.947,33.859,31.159,31.81,26.989,1.961,17.571
30.403,28.791,34.505,32.42,33.515,29.246,22.793,30.47
19.752,16.818,25.004,17.937,24.85,14.027,12.222,7.456
11.681,7.278,12.24,-0.308,11.905,-4.421,-25.679,-25.053
7.733,5.068,4.593,-6.66,3.22,-8.735,-57.963,-30.181
3.677,3.646,0.619,-5.956,-1.328,-5.626,-63.765,-19.82
0.318,-0.857,-2.768,-8.31,-4.096,-6.905,-53.543,-19.52
4.034,-1.073,0.293,-7.012,0.182,-4.942,-36.818,-16.776
13.448,6.007,12.366,3.762,13.597,6.998,-11.803,2.492
19.939,12.327,23.809,13.269,26.409,17.552,11.025,18.77
21.337,13.932,26.713,13.439,29.916,17.949,14.045,15.584
22.221,16.025,24.102,11.417,26.49,15.898,-0.084,6.936
25.431,22.078,22.836,15.662,23.885,20.832,-8.876,10.713
31.635,30.366,26.949,25.508,27.468,31.839,1.101,24.32
40.709,39.114,35.604,35.664,36.375,42.65,18.31,34.975
50.222,47.472,43.746,41.896,44.479,48.902,24.509,37.153
56.099,52.992,47.013,42.876,46.892,49.852,18.103,34.952
56.327,53.436,46.611,41.081,45.519,48.158,12.457,35.159
53.504,50.777,47.785,40.841,46.486,47.787,17.892,39.574
51.083,48.707,52.521,43.24,51.458,49.667,28.796,42.67
49.664,48.44,56.481,45.112,54.965,50.98,29.933,39.507
50.072,50.391,55.063,43.618,52.353,49.348,16.801,32.679
54.398,55.458,50.386,40.087,46.921,46.156,3.066,27.84
60.991,61.707,48.089,37.71,44.643,43.951,1.51,25.51
64.072,64.256,47.559,35.913,44.026,41.402,5.569,20.114
62.365,62.34,44.789,33.131,40.757,37.23,2.015,10.468
62.037,61.209,42.87,32.7,38.679,35.965,-6.208,5.823
66.781,64.285,47.512,38.24,44.014,41.806,-4.217,13.633
72.313,69.534,56.017,47.016,53.407,51.482,11.129,28.136
73.077,72.477,59.111,50.928,56.483,56.19,22.572,35.555
69.071,70.243,53.169,45.059,49.6,50.746,15.831,29.528
64.732,65.585,46.088,36.261,41.878,42.237,2.815,20.672
63.113,63.897,46.486,35.35,42.64,41.79,3.434,22.811
63.641,65.169,51.496,40.924,48.298,47.738,14.755,31.845
64.46,64.364,52.162,42.13,49.277,49.036,19.111,32.955
64.699,60.253,47.913,36.737,45.509,44.051,14.973,26.198
64.866,57.875,46.874,34.139,45.223,42.522,15.928,25.793
64.322,59.117,50.481,37.846,48.91,47.365,20.776,33.628
61.322,58.863,50.528,39.321,48.152,49.399,14.676,36.233
57.538,54.895,45.376,34.919,42.11,44.978,0.583,30.919
55.556,50.982,43.346,32.773,39.44,42.57,-1.89,31.001
52.787,47.867,46.772,36.125,42.508,45.482,9.829,38.561
47.403,43.617,49.043,37.752,44.732,46.034,16.629,37.451
43.939,40.448,47.966,35.573,43.509,42.015,10.036,23.929
43.615,39.838,46.217,34.606,41.516,39.667,1.153,13.974
41.429,38.93,43.327,35.175,38.741,40.556,-4.434,14.044
38.544,38.162,40.423,36.052,35.792,42.756,-9.817,16.983
40.756,40.559,42.34,40.019,36.786,47.761,-9.276,21.853
45.757,43.796,48.601,46.65,42.063,55.316,4.933,32.486
48.458,45.131,54.262,52.154,47.958,62.016,25.8,45.779
49.31,45.954,56.351,55.064,51.242,65.679,36.425,52.818
46.974,44.046,52.697,53.42,48.435,64.075,29.098,49.087
39.426,37.178,45.388,47.613,41.284,58.643,17.786,42.835
33.378,32.677,42.824,45.203,39.142,57.466,21.637,44.75
35.176,35.964,46.677,48.799,44.032,62.353,33.924,49.839
39.482,39.92,48.009,49.703,45.938,63.997,31.599,45.494
38.35,37.138,42.025,42.809,39.444,57.459,12.682,31.96
32.111,30.173,33.438,33.693,30.262,48.516,-4.092,20.051
27.121,25.665,28.36,28.503,25.44,43.268,-7.694,15.813
28.022,26.853,29.34,27.996,26.996,42.391,-2.465,16.797
32.931,31.647,34.744,30.124,32.318,44.124,3.568,18.462
36.088,35.055,39.65,31.954,36.43,46.056,6.597,18.649
35.024,34.52,40.102,31.384,36.089,45.802,6.833,17.83
32.53,31.929,37.807,29.894,33.504,43.98,7.035,18.136
31.472,29.942,37.669,30.507,33.438,43.819,9.876,21.034
30.849,28.683,39.3,32.12,35.098,45.109,11.746,23.897
29.25,27.613,37.996,31.75,33.612,44.837,6.036,22.721
29.18,28.845,35.418,31.859,30.616,44.74,-3.328,19.621
31.685,32.673,36.404,35.158,30.88,47.121,-7.058,18.414
32.179,34.19,38.202,37.296,31.794,48.148,-7.024,17.007
28.835,32.186,36.824,35.544,29.847,46.162,-8.252,14.37
25.805,30.8,34.534,33.365,27.752,44.464,-6.754,13.173
25.761,30.619,33.949,32.703,27.898,43.923,-0.325,14.162
27.803,30.488,35.207,33.426,29.52,44.729,5.423,18.75
29.671,31.086,37.247,35.347,31.331,47.53,7.372,27.015
28.721,30.309,37.135,35.469,31.367,48.635,7.605,31.379
24.798,25.822,32.893,31.1,28.057,44.587,6.476,26.447
20.554,21.036,26.139,24.983,22.077,38.794,1.802,19.35
17.831,20.486,20.199,21.837,16.307,36.428,-4.767,18.494
18.004,24.398,18.465,22.937,14.908,37.765,-5.896,20.848
23.08,30.94,22.846,26.856,19.923,40.746,2.795,21.05
31.113,37.372,30.594,31.209,27.689,44.225,13.659,22.321
35.438,39.396,35.376,32.154,31.806,45.42,15.082,26.502
33.362,35.892,34.717,27.763,30.981,41.358,10.004,26.816
29.456,31.536,32.325,21.641,29.436,34.641,10.056,21.2
27.65,30.085,30.408,17.634,28.339,30.099,11.734,16.521
28.269,31.175,27.475,15.174,25.307,27.986,5.019,15.23
31.78,34.504,24.904,13.753,22.321,26.861,-1.438,14.26
36.628,38.551,25.003,13.903,22.493,26.52,4.024,13.491
38.483,39.29,24.711,13.701,22.456,25.82,10.669,14.31
37.449,36.972,21.874,12.655,19.584,24.937,5.757,16.266
38.617,36.908,21.367,14.325,19.124,26.564,-0.819,17.842
43.604,40.786,25.739,18.885,24.075,30.275,2.649,17.312
48.329,44.242,28.528,20.453,27.568,31.51,7.245,15.027
49.495,44.37,25.257,16.699,24.504,28.906,4.046,14.841
48.53,44.251,21.597,13.178,20.723,26.602,3.42,18.645
48.315,47.366,22.544,13.744,21.714,26.853,12.765,21.311
49.122,51.645,23.798,14.961,22.93,26.887,19.419,18.059
49.259,52.706,20.934,13.355,19.421,24.856,12.972,13.183
48.256,50.445,17.252,11.258,14.869,23.244,2.966,14.699
47.117,47.979,16.676,11.531,14.055,23.612,2.243,20.933
45.812,46.028,17.309,11.472,15.171,22.376,7.776,19.631
43.544,43.708,16.76,8.317,15.139,17.566,8.687,7.888
39.898,41.084,15.489,4.689,13.858,13.162,3.614,-1.332
34.733,37.925,13.268,2.895,11.233,11.403,-0.654,-1.522
29.881,34.419,10.336,1.726,8.169,10.107,-0.559,0.854
27.972,31.772,9.267,0.793,7.68,8.826,2.864,3.372
27.727,29.856,10.231,0.831,9.363,8.903,5.955,7.457
25.157,26.807,9.213,0.156,8.112,8.493,1.835,7.648
19.704,21.642,4.676,-2.731,2.418,5.196,-10.363,0.801
14.597,15.91,1.057,-4.753,-1.947,1.871,-18.823,-4.892
11.013,11.394,1.768,-2.841,-0.994,2.524,-14.907,-2.595
7.13,8.083,4.363,1.152,1.771,6.034,-5.22,3.92
3.183,5.647,5.501,4.255,2.256,8.929,0.524,7.441
1.479,3.728,4.252,5.339,0.375,9.506,0.101,4.977
1.781,1.51,1.601,4.664,-2.03,8.583,-2.184,0.919
1.055,-1.478,0.395,3.96,-2.636,8.37,0.496,2.507
-2.902,-5.923,0.923,3.233,-2.025,8.201,6.784,7.319
-8.992,-12.264,-0.919,-0.755,-4.089,4.259,5.261,4.685
-13.574,-18,-5.635,-7.616,-8.612,-2.715,-6.35,-5.38
-14.653,-19.207,-8.14,-10.786,-10.599,-5.747,-14.606,-9.937
-15.097,-16.871,-7.417,-7.844,-9.448,-2.459,-12.536,-4.73
-18.035,-16.463,-7.811,-5.021,-9.33,0.801,-8.511,0.06
-21.791,-19.978,-10.172,-6.648,-10.898,-0.366,-7.42,-1.293
-24.289,-24.588,-11.403,-9.757,-11.427,-3.21,-4.761,-3.455
-26.1,-27.758,-10.369,-11.075,-10.302,-4.646,0.645,-1.8
-27.424,-29.892,-8.953,-12.034,-9.409,-5.859,4.127,1.034
-29.227,-33.551,-10.325,-16.482,-11.269,-10.304,0.214,-2.859
-34.107,-39.34,-15.647,-24.652,-16.538,-18.387,-12.109,-16.684
-40.948,-43.538,-20.942,-30.236,-21.585,-24.23,-22.283,-29.08
-45.481,-44.098,-22.802,-29.281,-23.664,-23.688,-21.244,-29.527
-47.035,-44.357,-24.562,-27.382,-26.147,-21.914,-21.172,-26.107
-46.863,-45.361,-27.778,-27.959,-30.031,-22.496,-32.489,-26.561
-44.281,-43.658,-26.433,-24.889,-28.815,-19.631,-37.479,-22.112
-40.499,-39.856,-18.941,-16.763,-20.935,-11.65,-22.926,-9.684
-39.295,-38.798,-14.24,-13.302,-15.783,-8.213,-9.751,-5.29
-41.27,-41.243,-18.669,-19.662,-19.996,-14.972,-17.526,-18.2
-42.351,-42.72,-25.892,-26.867,-27.02,-22.917,-31.815,-32.617
-38.973,-40.026,-25.734,-24.838,-26.641,-21.45,-31.281,-31.032
-32.889,-34.953,-17.567,-15.896,-18.575,-12.866,-18.441,-18.1
-28.789,-30.831,-8.805,-8.338,-10.086,-5.63,-5.986,-7.479
-27.366,-28.119,-3.89,-4.095,-5.278,-1.756,3.362,-1.38
-25.51,-25.58,-1.81,-0.036,-3.516,1.613,9.815,4.796
-23.776,-24.276,-2.214,3.118,-4.59,3.929,8.615,8.86
-25.916,-26.441,-6.108,1.247,-8.765,1.755,-0.248,5.222
-31.204,-30.657,-11.167,-4.753,-13.468,-3.833,-7.662,-2.436
-36.339,-34.404,-14.059,-9.97,-15.895,-8.339,-7.466,-5.201
-42.003,-39.437,-15.937,-14.088,-17.407,-12.001,-4.184,-3.727
-49.086,-46.968,-19.348,-19.875,-20.41,-17.97,-4.826,-5.979
-53.711,-52.469,-22.917,-25.787,-23.5,-24.446,-9.269,-13.073
-53.118,-52.516,-24.067,-27.862,-24.383,-26.741,-12.591,-18.257
-51.696,-51.476,-24.581,-27.073,-25.159,-25.44,-12.729,-18.386
-55.623,-55.614,-29.091,-29.562,-30.01,-26.872,-13.253,-19.091
-63.769,-63.24,-37.642,-37.633,-38.283,-33.648,-19.333,-25.849
-67.641,-65.671,-43.029,-43.491,-43.039,-38.245,-27.969,-33.064
-62.082,-59.356,-39.551,-39.191,-39.098,-33.223,-27.949,-31.074
-53.061,-51.261,-32.072,-29.808,-30.974,-24.119,-17.484,-22.538
