EEG 1,EEG 2,EEG 3,EEG 4,EEG 5,EEG 6,EEG 7,EEG 8
-14.189,-9.675,-17.644,1.149,-16.631,2.958,-110.074,-6.244
-6.389,-12.727,-10.536,8.559,-9.801,9.687,-104.032,1.488
1.07,28.872,0.148,43.344,-0.635,52.35,-109.724,16.537
4.879,48.252,10.259,67.758,8.866,83.745,-110.474,30.4
-6.546,-9.799,2.163,25.802,2.612,31.245,-99.899,19.266
-22.358,-67.573,-16.599,-34.178,-14.306,-43.659,-93.015,-4.255
-22.767,-57.2,-23.399,-40.397,-21.337,-49.069,-97.073,-11.16
-14.885,-28.885,-22.12,-24.866,-20.882,-28.518,-102.982,-10.18
-12.241,-14.364,-25.711,-31.92,-24.798,-40.567,-107.515,-18.059
-11.422,15.077,-28.486,-31.192,-28.22,-42.7,-115.275,-22.157
-9.986,38.734,-24.519,-1.93,-25.093,-4.661,-124.52,-11.856
-12.041,12.411,-20.904,15.455,-21.32,19.954,-128.163,-1.92
-13.95,-27.026,-22.314,-2.835,-21.713,-2.72,-124.82,-4.847
-12.875,-32.177,-25.348,-25.601,-23.99,-31.246,-120.925,-12.16
-14.803,-29.728,-26.234,-26.44,-24.791,-28.675,-121.738,-12.17
-18.227,-34.214,-22.966,-13.311,-21.898,-8.938,-125.732,-5.804
-16.643,-24.365,-18.631,-4.268,-17.771,0.266,-128.265,-2.115
-12.763,-11.892,-18.283,-6.954,-16.946,-6.221,-124.899,-3.672
-10.016,-13.32,-18.752,-12.084,-17.024,-11.563,-115.203,-2.898
-7.059,-13.365,-15.912,-8.052,-14.882,-4.691,-106.94,1.729
-2.728,0.421,-13.517,0.538,-13.802,4.225,-106.401,2.073
2.894,20.153,-13.576,2.956,-14.681,3.786,-108.367,-2.358
4.751,32.141,-12.824,1.782,-14.004,1.317,-107.168,-3.533
-1.931,30.243,-11.169,5.618,-12.142,7.707,-104.933,-0.408
-7.673,22.423,-9.318,14.451,-10.276,19.31,-100.416,3.23
-0.233,18.045,-4.356,24.451,-5.541,30.307,-88.774,9.799
11.095,7.999,1.186,27.051,0.181,34.388,-75.901,18.363
9.086,-15.077,-0.29,8.503,-0.26,14.497,-70.795,16.876
-0.886,-27.16,-6.831,-21.489,-5.811,-23.573,-71.035,2.823
-1.722,-6.934,-9.021,-28.021,-8.21,-35.342,-73.041,-6.732
7.755,27.286,-3.705,-0.666,-4.114,-1.353,-76.597,0.381
16.296,41.771,4.928,28.434,3.465,36.484,-74.565,15.189
16.349,22.397,9.939,26.222,8.63,32.632,-61.724,21.648
11.087,-5.613,7.584,0.919,7.431,0.408,-48.914,16.479
9.726,-3.103,2.997,-11.651,3.637,-13.161,-49.138,10.099
12.182,19.701,2.521,-1.366,2.975,0.792,-57.415,10.127
10.967,20.959,5.477,9.74,5.391,12.914,-59.551,13.707
9.044,4.971,9.921,12.328,9.375,13.758,-52.175,16.866
13.608,6.591,14.801,17.507,13.758,18.777,-43.819,19.273
19.303,21.42,14.966,22.653,13.534,25.884,-42.296,18.479
19.216,22.557,8.446,13.975,7.002,17.256,-45.658,12.601
19.445,15.496,4.939,2.318,3.56,2.101,-45.971,9.485
25.568,17.981,11.74,9.419,10.069,6.49,-40.145,16.999
30.399,21.926,19.753,24.778,17.627,22.034,-33.868,26.552
27.14,15.755,18.199,24.276,15.881,21.021,-34.557,24.925
20.221,7.565,12.01,13.966,9.777,8.592,-41.264,16.176
16.43,7.512,10.846,13.32,8.761,7.354,-46.363,13.225
16.622,13.977,13.172,19.371,11.174,14.816,-45.736,17.109
19.283,21.605,14.426,19.962,12.443,16.399,-40.404,20.927
24.035,28.488,17.571,18.901,15.665,15.077,-33.387,23.442
29.064,32.318,24.134,24.43,22.431,20.658,-28.494,26.751
30.647,29.615,27.573,31.142,25.882,28.861,-27.533,28.419
28.806,24.369,23.661,29.405,21.45,28.582,-29.487,23.91
27.732,24.421,17.349,21.286,14.371,20.145,-33.456,15.655
27.718,27.36,14.417,15.705,11.069,13.562,-39.614,11.717
24.917,25.098,13.433,13.774,10.339,11.875,-48.835,12.673
19.974,18.597,10.424,10.321,7.932,9.905,-61.001,11.505
18.129,16.341,7.367,6.62,5.438,7.817,-70.455,8.435
21.424,21.834,10.212,9.517,8.513,11.507,-69.26,11.65
28.513,31.119,20.694,20.607,18.785,22.056,-54.862,23.454
37.252,39.485,32.965,33.256,30.575,33.352,-32.106,35.689
41.553,43.204,37.534,38.57,34.668,37.911,-13.929,38.252
37.023,40.733,31.778,34.886,28.694,34.666,-11.816,30.322
29.588,35.196,23.258,28.616,20.433,28.949,-21.973,20.687
27.009,30.648,18.728,24.012,16.469,23.603,-32.03,15.666
29.395,28.915,17.429,20.116,15.372,17.978,-35.521,13.54
32.864,30.1,15.894,16.189,13.517,13.268,-34.746,10.728
34.091,32.617,13.84,13.254,11.375,11.055,-37.309,7.466
31.187,33.308,13.843,11.866,11.883,10.149,-47.224,6.381
24.603,28.712,15.084,9.908,13.566,7.487,-58.679,6.714
18.036,19.53,13.157,4.6,11.449,1.388,-65.76,4.595
15.002,12.082,7.995,-2.304,5.811,-5.328,-70.607,-0.352
13.564,10.354,3.877,-5.908,1.563,-8.014,-75.358,-4.594
10.644,11.091,1.692,-5.511,-0.485,-7.053,-77.529,-6.712
9.179,10.969,-0.829,-5.361,-3.227,-7.385,-75.337,-8.733
14.039,12.94,-2.773,-6.985,-5.751,-9.985,-69.938,-11.043
24.583,20.625,-0.482,-5.971,-3.736,-9.363,-63.984,-10.687
36.364,32.614,8.013,2.615,4.83,-0.318,-57.4,-4.831
46.858,44.399,20.609,17.121,17.291,14.739,-47.262,6.125
52.145,48.996,28.877,26.714,25.301,24.256,-37.657,15.076
47.178,44.001,26.575,23.829,23.106,20.948,-36.352,14.632
38.767,40.491,22.253,18.085,19.142,15.046,-39.034,10.749
39.505,46.028,25.553,20.845,22.642,17.917,-36.832,12.963
46.393,48.931,29.381,25.646,26.387,22.904,-33.414,15.861
47.186,40.279,25.267,22.182,22.017,19.55,-35.575,10.666
40.827,30.666,18.944,13.744,15.58,10.751,-39.353,2.081
35.353,30.733,17.6,9.631,14.32,5.781,-38.787,-1.11
34.856,36.03,19.843,13.751,16.325,9.445,-34.782,2.414
36.645,36.966,22.123,21.757,17.867,17.942,-30.668,8.357
35.699,30.752,21.486,22.973,16.811,19.783,-29.449,9.406
30.262,22.469,15.363,11.917,11.386,8.692,-32.985,1.219
24.922,19.301,7.53,-1.226,4.727,-4.7,-37.932,-9.174
25.638,23.039,6.033,-3.177,3.747,-6.332,-37.708,-11.307
30.926,27.067,10.612,2.814,8.529,0.547,-32.497,-6.986
33.996,24.92,13.923,4.93,12.497,3.334,-28.768,-5.119
33.885,21.021,14.697,2.897,13.611,0.984,-26.543,-5.921
35.122,23.037,16.269,3.57,14.239,0.763,-20.861,-4.204
37.119,26.669,16.053,4.889,12.686,1.941,-14.675,-2.55
35.168,22.599,9.78,0.03,6.076,-2.06,-15.087,-7.497
29.029,13.123,1.22,-8.976,-2.044,-10.483,-20.499,-16.765
21.706,6.787,-3.133,-14.763,-6.133,-16.725,-23.671,-22.433
16.568,5.614,-2.268,-14.899,-5.176,-17.561,-21.979,-21.451
16.71,6.75,0.836,-12.129,-1.696,-14.624,-17.484,-16.722
20.362,7.444,2.193,-10.634,0.012,-12.086,-13.038,-13.752
24.583,9.061,2.22,-9.858,-0.297,-10.39,-7.777,-12.754
31.431,16.345,7.077,-3.955,3.814,-4.494,3.269,-6.565
39.322,26.082,16.672,6.095,13.189,4.919,17.698,4.628
41.196,28.45,22.574,11.92,19.61,10.549,25.935,11.436
38.663,24.18,22.868,12.363,20.594,11.636,28.623,12.649
40.019,22.848,23.385,12.914,21.513,12.887,34.168,14.558
44.074,25.481,24.833,13.772,23.039,13.871,40.557,16.545
42.963,25.05,22.952,11.329,21.186,11.269,38.89,13.439
36.252,19.781,18.044,5.873,16.465,5.73,30.395,5.812
30.642,15.113,14.783,1.559,13.136,1.425,24.69,-0.155
31.002,15.898,16.069,2.812,13.604,2.766,25.59,1.025
36.702,22.166,21.751,10.775,18.305,10.82,30.258,9.612
42.932,30.037,28.739,20.656,24.939,20.657,35.444,19.655
44.766,34.243,31.38,25.273,27.384,25.042,37.737,23.566
42.653,33.657,28.916,24.402,24.387,23.651,37.049,21.503
41.53,32.84,28.087,24.712,23.373,23.397,38.363,21.204
42.785,33.955,31.137,27.71,26.823,26.597,42.608,24.624
43.07,34.286,32.34,28.864,28.135,28.829,45.574,26.004
41.875,33.63,29.905,27.854,25.255,28.748,47.529,24.269
41.615,34.021,27.515,26.679,22.383,27.752,49.853,22.487
39.545,32.469,25.143,22.81,19.789,23.764,48.189,18.49
30.938,24.622,20.428,14.979,15.272,16.076,42.166,10.191
21.535,15.52,16.599,9.156,11.867,10.758,40.596,3.881
23.263,16.152,20.375,12.162,15.718,14.425,50.188,6.78
35.164,26.833,31.226,22.335,26.331,25.245,67.034,16.071
43.931,35.066,39.341,29.914,34.373,33.222,79.968,21.988
44.974,34.598,39.103,29.211,34.226,32.31,83.414,20.857
44.442,32.173,35.666,24.707,30.749,27.292,83.432,17.386
43.821,32.227,34.209,21.518,29.073,24.145,85.62,14.764
42.133,33.125,35.401,21.176,30.129,24.356,88.455,14.046
42.627,35.313,39.039,24.517,33.869,27.814,90.766,17.122
43.751,37.061,40.957,27.368,35.802,29.972,92.062,19.502
39.53,32.895,35.734,23.345,30.31,24.947,89.711,13.516
31.923,24.162,26.385,15.055,20.909,16.007,85.209,2.4
28.527,19.088,21.53,11.03,16.502,12.071,85.185,-3.094
32.423,22.408,25.376,14.532,20.819,16.138,93.001,1.55
39.65,30.291,33.501,21.202,29.12,23.096,104.036,11.021
42.481,33.719,35.927,23.592,31.561,25.254,109.478,15.281
38.315,29.71,28.916,19.109,24.508,20.551,106.763,10.153
33.986,26.292,21.316,13.881,16.859,15.392,103.249,3.009
36.819,30.519,22.996,15.312,18.518,16.758,106.412,3.388
46.68,39.957,33.535,24.132,29.13,25.26,116.618,12.586
57.346,48.769,45.119,34.957,40.902,35.862,128.413,24.303
62.031,52.701,51.129,41.202,46.923,41.727,134.498,31.037
59.198,50.09,50.937,40.497,46.475,40.226,131.424,30.433
52.358,44.155,47.553,35.938,43.087,35.1,122.585,25.804
45.779,40.424,43.919,31.78,39.894,30.78,114.58,21.159
43.933,41.38,43.171,30.736,39.654,29.268,111.673,19.605
49.495,46.169,47.366,34.264,44.165,31.979,113.86,23.385
58.351,51.755,54.2,41.072,51.103,38.401,117.682,30.379
62.388,53.73,58.782,46.527,55.685,44.252,119.054,34.82
58.579,50.178,58.438,46.576,55.302,44.881,116.295,34.165
51.29,43.91,54.053,41.699,50.628,39.903,109.265,30.538
46.089,38.761,48.387,35.675,44.421,33.087,99.224,25.843
44.681,35.846,44.337,31.54,40.096,28.297,90.887,21.575
43.805,33.197,42.339,29.254,38.431,25.878,88.003,19.528
38.012,28.385,39.849,26.639,36.572,23.29,87.886,17.988
29.306,24.307,37.643,24.851,34.745,21.531,88.237,16.247
26.776,26.198,39.796,28.017,36.864,25.022,91.665,18.806
29.425,29.695,42.609,32.533,39.604,30.092,94.805,23.397
27,26.358,38.038,29.531,35.149,27.365,89.585,20.296
19.982,19.741,29.341,21.115,26.522,18.939,79.719,11.584
17.432,18.234,26.695,18.047,23.839,16.012,75.866,10.162
19.104,19.77,30.362,22.074,27.593,20.435,79.047,17.644
17.892,19.052,32.154,25.051,29.503,23.78,83.505,22.3
14.309,18.379,29.371,23.175,26.589,21.831,86.505,18.653
14.398,20.427,26.694,20.635,23.694,18.874,88.233,13.865
17.468,21.734,26.932,20.61,23.955,18.891,88.575,13.512
16.989,18.763,27.041,20.027,24.291,18.905,87.569,13.451
11.263,12.73,23.401,14.799,20.948,13.947,86.752,8.983
4.721,7.977,17.748,7.626,15.673,6.699,87.652,2.953
1.223,7.322,14.091,4.484,12.571,4.085,89.46,-0.205
0.969,8.501,11.508,4.478,10.804,5.154,89.85,-1.935
1.33,8.491,7.755,3.562,7.677,4.625,89.307,-3.741
1.324,9.049,6.932,4.808,6.476,5.271,92.056,-0.744
3.845,12.004,12.154,11.464,10.544,11.619,98.687,8.277
8.262,13.507,15.828,15.744,13.549,16.557,101.899,12.493
8.313,10.27,11.26,9.92,9.279,11.285,96.758,4.213
3.08,6.476,5.55,1.225,4.184,1.983,90.049,-6.517
0.491,7.629,7.273,1.23,6.253,0.898,90.303,-5.965
5.49,12.791,13.09,8.949,11.952,8.464,95.785,4.133
12.604,17.253,16.395,15.584,14.81,15.849,100.34,12.536
14.005,18.936,17.398,17.927,15.639,18.769,102.404,15.21
9.392,19.051,18.804,18.523,17.538,19.562,103.43,16.213
3.901,17.347,19.775,18.357,19.263,19.609,103.89,17.312
-0.045,11.183,17.919,15.968,17.82,17.428,102.698,15.895
-3.643,1.385,13.282,11.008,13.153,12.672,99.276,11.384
-7.368,-6.796,8.295,5.635,7.987,7.825,96.137,7.214
-10.518,-10.455,4.707,2.137,4.369,5.314,95.85,5.447
-13.272,-11.362,1.417,-0.178,1.321,3.954,95.611,3.465
-18.046,-13.054,-3.837,-3.897,-3.52,0.375,91.476,-1.783
-25.904,-17.253,-9.821,-8.901,-9.293,-5.337,86.357,-8.48
-30.33,-19.959,-10.815,-10.51,-10.684,-7.694,86.55,-10.753
-25.016,-16.241,-4.589,-5.582,-5.262,-3.225,92.541,-6.091
-15.493,-8.736,3.075,2.21,1.923,4.032,99.358,1.145
-9.797,-2.129,7.911,8.782,6.792,10.082,104.665,7.24
-6.837,3.267,11.773,13.883,10.648,15.162,109.257,12.111
-4.081,5.831,14.636,16.332,13.132,17.931,111.682,14.186
-4.527,2.894,14.397,15.116,12.543,16.827,110.618,12.96
-9.529,-2.452,12.719,12.358,11.115,14.029,107.503,11.736
-13.85,-4.332,12.707,10.466,11.797,12.127,104.374,12.332
-11.719,-1.12,15.687,11.426,15.258,12.515,104.352,14.405
-3.966,4.422,21.579,16.268,21.215,15.81,108.896,18.528
2.286,8.311,27.386,21.911,26.873,19.878,113.782,23.205
1.255,7.277,28.168,23.063,27.455,20.625,114.234,23.121
-4.992,1.615,23.519,18.704,22.735,16.831,111.251,16.88
-10.056,-3.568,18.36,13.131,17.682,11.765,109.107,10.817
-12.025,-5.073,14.928,9.401,14.404,8.209,108.616,8.869
-14.36,-6.964,10.838,6.073,10.639,5.17,106.882,6.948
-17.836,-12.319,6.118,2.262,6.606,1.628,103.594,2.484
-18.165,-15.923,4.176,0.146,5.354,-1.045,102.285,-0.389
-13.724,-13.009,5.419,0.582,6.777,-1.857,104.031,1.257
-9.676,-7.852,6.243,1.141,7.277,-1.918,104.317,4.013
-11.629,-7.963,3.821,-0.782,4.533,-3.231,98.977,3.307
-17.825,-14.291,-0.901,-5.148,0.023,-6.574,90.47,-0.266
-22.202,-21.225,-4.359,-9.646,-2.777,-10.453,83.991,-2.648
-24.768,-26.536,-5.603,-13.127,-3.512,-13.552,79.35,-3.177
-30.402,-33.865,-8.136,-16.929,-5.803,-16.686,73.054,-4.863
-38.121,-42.341,-13.299,-21.451,-10.589,-20.545,65.913,-8.352
-42.65,-45.801,-17.58,-25.035,-14.406,-24.334,60.729,-11.32
-42.943,-42.926,-18.046,-25.375,-14.834,-25.631,58.23,-11.7
-39.602,-36.735,-14.13,-19.723,-11.343,-20.689,60.846,-8.023
-32.634,-29.645,-8.124,-10.213,-5.726,-11.319,69.515,-2.225
-25.373,-24.397,-5.751,-5.643,-3.565,-6.656,77.69,-0.107
-20.217,-20.708,-7.339,-7.7,-5.544,-8.694,81.098,-1.578
-15.794,-15.291,-6.4,-8.125,-5.079,-9.431,82.762,-0.882
-13.33,-10.953,-3.503,-6.048,-2.116,-7.901,81.404,0.52
-14.185,-12.353,-4.399,-7.221,-2.507,-9.347,73.979,-1.766
-13.853,-14.841,-6.74,-9.017,-4.742,-10.974,67.696,-4.153
-9.799,-13.134,-6.105,-6.674,-4.719,-8.316,69.579,-2.997
-8.495,-12.274,-5.618,-3.956,-5.057,-5.248,73.131,-1.115
-15.052,-17.427,-8.632,-5.295,-8.359,-6.25,69.623,-0.806
-22.696,-23.272,-12.03,-8.313,-11.347,-9.167,61.53,-1.034
-22.764,-23.179,-12.482,-9.418,-11.506,-10.327,56.167,-1.23
-17.425,-19.785,-11.732,-9.322,-11.123,-10.12,54.647,-2.035
-14.421,-19.121,-12.546,-10.478,-12.236,-10.982,53.772,-3.587
-16.5,-21.559,-14.497,-13.092,-13.792,-13.234,53.14,-5.516
-18.931,-23.183,-15.298,-15.043,-14.001,-14.837,54.201,-6.885
-17.55,-21.884,-14.106,-14.631,-12.614,-14.459,56.169,-6.816
-15.507,-18.31,-11.638,-11.706,-10.225,-11.834,57.721,-5.28
-15.982,-13.569,-8.872,-7.27,-7.461,-7.129,59.672,-1.681
-17.853,-10.34,-7.768,-4.213,-6.302,-3.474,62.452,3.295
-20.505,-10.914,-8.63,-4.048,-7.21,-3.367,64.083,6.638
-23.64,-12.948,-8.523,-4.126,-7.131,-3.89,62.411,7.582
-25.402,-13.608,-6.436,-2.53,-5.021,-2.579,57.535,8.079
-23.802,-12.972,-3.806,0.166,-2.557,-0.36,53.038,9.562
-18.74,-10.421,-0.317,4.262,0.623,3.034,52.634,12.655
-12.479,-4.773,5.112,10.017,6.021,8.447,54.776,17.148
-7.508,2.301,10.988,15.54,12.234,14.048,55.339,21.488
-4.307,7.718,14.291,19.37,15.742,17.887,53.922,24.55
-1.524,10.713,14.623,22.271,15.789,20.626,53.582,26.583
0.813,12.637,13.992,24.281,14.657,22.415,55.583,27.047
0.95,14.35,13.234,24.292,13.449,21.816,56.725,25.071
-0.493,14.723,12.234,22.575,11.961,19.003,53.298,21.976
-1.171,12.58,11.954,20.578,11.265,16.149,46.449,20.113
-1.175,9.699,12.645,19.084,11.83,14.596,40.324,19.203
-2.475,8.477,11.494,17.139,10.691,13.145,36.187,15.963
-5.39,8.754,6.747,14.087,5.888,10.712,33.348,10.27
-8.316,8.733,1.874,11.284,0.966,8.304,32.36,7.081
-9.881,6.5,0.409,9.172,-0.531,6.073,31.7,7.102
-9.586,2.163,0.745,6.502,-0.371,3.029,28.034,4.669
-7.067,-0.262,1.259,4.7,-0.239,1.407,23.367,0.18
-1.785,3.911,4.675,8.081,2.784,5.888,22.849,1.869
3.523,12.158,10.375,15.015,8.486,14.286,24.707,9.343
2.878,15.134,11.288,16.305,9.905,16.471,22.221,11.416
-1.551,11.565,7.296,11.288,6.484,11.277,16.076,6.672
0.416,11.564,7.803,11.306,7.1,10.635,14.142,6.487
7.732,17.104,13.37,17.913,12.164,17.34,17.261,12.411
7.705,17.476,13.494,18.916,11.633,19.623,17.635,12.647
-1.648,9.259,5.723,10.472,3.684,12.781,12.474,3.79
-8.392,2.018,-1.054,2.407,-2.801,5.772,7.539,-3.535
-6.372,2.387,-1.048,1.816,-2.472,5.729,7.035,-2.062
-2.879,5.417,2.354,4.562,1.11,8.704,7.848,2.532
-4.852,4.372,3.984,4.151,2.862,8.102,6.566,2.899
-8.603,1.187,4.231,1.975,3.312,5.677,6.202,1.265
-8.424,1.237,6.07,2.921,5.537,6.97,9.741,2.822
-6.029,3.361,8.792,5.94,8.705,10.662,13.195,6.213
-5.597,1.836,8.96,6.238,9.239,10.917,11.858,6.705
-6.769,-4.06,5.698,3.411,6.303,7.22,7.902,3.821
-7.54,-8.869,1.983,1.297,2.787,4.625,5.107,1.317
-9.392,-10.298,-0.14,0.735,0.667,4.507,2.572,0.526
-14.121,-11.776,-2.718,-1.854,-1.927,2.289,-0.368,-1.691
-18.497,-14.011,-7.377,-7.575,-6.645,-3.876,-1.462,-7.004
-18.383,-13.25,-11.269,-12.032,-10.789,-8.964,-0.25,-11.716
-15.019,-8.438,-11.107,-11.548,-10.777,-8.531,2.073,-11.506
-11.033,-2.415,-7.06,-7.624,-6.522,-4.367,6.51,-6.858
-6.529,1.599,-1.586,-3.683,-0.855,-0.621,12.851,-1.682
-2.882,1.925,2.525,-1.225,3.167,1.256,16.316,1.065
-1.026,1.641,5.058,0.976,5.666,3.091,15.699,2.364
0.873,4.434,6.857,3.464,7.646,5.439,15.201,3.943
0.009,4.96,4.581,2.345,5.521,4.204,14.044,2.645
-8.909,-3.795,-4.185,-5.549,-3.112,-3.426,8.677,-5.063
-20.816,-16.255,-13.695,-15.727,-12.302,-13.072,2.507,-15.013
-25.958,-22.099,-17.986,-21.416,-16.233,-18.806,0.659,-20.135
-25.928,-21.955,-20.035,-23.318,-18.212,-21.362,0.221,-21.433
-27.384,-21.864,-23.942,-25.397,-22.361,-23.879,-3.424,-24.151
-27.634,-20.449,-25.377,-24.744,-24.125,-23.016,-5.436,-25.076
-21.551,-14.163,-19.172,-17.205,-18.16,-14.828,0.457,-17.57
-12.767,-6.978,-9.188,-7.235,-8.289,-4.397,9.41,-5.564
-8.059,-4.748,-3.279,-1.853,-2.451,0.824,12.872,0.759
-10.133,-7.807,-4.953,-2.901,-4.2,-0.389,9.453,-2.175
-18.247,-14.091,-12.564,-9.499,-11.739,-6.392,2.128,-10.4
-28.23,-21.633,-21.439,-18.672,-20.347,-14.725,-6.312,-18.386
-33.802,-26.183,-26.611,-24.252,-25.441,-20.031,-11.909,-22.166
-32.018,-23.652,-26.055,-22.75,-25.324,-18.641,-10.585,-20.43
-25.729,-16.327,-21.857,-17.814,-21.638,-13.939,-4.003,-15.355
-20.462,-11.208,-18.158,-15.081,-17.823,-12.051,0.468,-11.586
-19.527,-11.623,-17.543,-16.094,-16.6,-14.591,-1.241,-12.394
-20.45,-13.814,-18.25,-17.88,-16.95,-17.589,-4.355,-15.296
-18.142,-12.052,-15.832,-16.37,-14.744,-16.252,-2.524,-14.238
-12.754,-6.554,-10.058,-12.019,-9.414,-11.475,2.187,-8.956
-9.339,-3.38,-6.551,-9.849,-6.09,-9.087,3.062,-5.81
-10.83,-5.151,-8.6,-11.849,-7.894,-11.297,-1.148,-7.277
-15.666,-8.677,-12.508,-14.648,-11.355,-14.333,-6.13,-9.053
-20.019,-11.616,-13.311,-15.185,-11.675,-14.706,-8.079,-7.907
-20.813,-13.461,-11.444,-14.503,-9.144,-13.438,-7.044,-6.298
-18.353,-12.983,-11.562,-15.707,-8.585,-14.162,-6.161,-8.184
-15.172,-9.772,-15.138,-18.459,-12.199,-17.078,-6.781,-11.858
-11.898,-5.33,-17.969,-18.302,-15.9,-17.365,-6.241,-11.921
-9.076,-2.494,-18.352,-15.327,-16.997,-14.466,-4.853,-9.897
-11.489,-4.553,-21.721,-16.817,-20.27,-15.588,-9.143,-13.07
-20.881,-12.094,-31.36,-25.486,-29.45,-23.401,-21.027,-21.607
-30.206,-21.277,-41.498,-34.251,-39.36,-31.048,-32.497,-28.696
-35.07,-28.068,-45.523,-37.179,-43.384,-33.644,-37.609,-31.655
-37.526,-31.469,-43.632,-35.654,-41.387,-32.999,-38.485,-31.778
-35.673,-30.293,-38.113,-31.343,-35.649,-29.636,-36.746,-27.62
-27.832,-23.596,-30.368,-24.066,-27.957,-22.337,-32.3,-18.948
-21.11,-16.389,-25.203,-18.327,-23.162,-15.795,-28.681,-12.686
-19.712,-14.565,-26.703,-19.926,-24.788,-16.219,-28.014,-14.504
-18.399,-15.968,-30.489,-25.735,-28.221,-20.78,-27.411,-19.605
-17.333,-17.065,-30.912,-28.229,-28.417,-22.682,-26.676,-20.917
-21.736,-18.563,-28.467,-25.979,-26.226,-20.957,-28.242,-18.017
-26.152,-18.756,-23.97,-21.537,-21.881,-17.479,-29.311,-13.093
-23.215,-15.248,-17.817,-16.546,-15.451,-12.732,-26.334,-7.72
-18.701,-11.989,-14.396,-12.822,-11.949,-8.384,-23.088,-3.87
-19.92,-13.608,-16.337,-12.172,-14.398,-7.292,-24.64,-2.89
-22.902,-17.158,-19.711,-13.524,-18.423,-9.136,-28.848,-4.28
-21.798,-16.885,-20.575,-13.551,-19.633,-10.153,-31.305,-5.888
-19.148,-13.407,-19.866,-11.587,-18.864,-8.916,-32.869,-5.731
-19.874,-12.133,-20.743,-11.296,-19.352,-9.022,-37.329,-4.941
-22.717,-14.409,-24.427,-14.564,-22.625,-12.559,-44.594,-6.369
-22.508,-15.739,-27.329,-16.951,-25.357,-14.98,-49.088,-8.52
-18.708,-14.14,-25.405,-14.93,-23.382,-12.743,-48.409,-7.25
-16.285,-12.785,-21.076,-11.934,-18.886,-9.517,-47.981,-3.679
-16.258,-11.076,-17.918,-10.054,-15.637,-7.656,-49.488,-1.569
-14.264,-5.475,-14.41,-6.187,-12.272,-4.161,-47.294,-0.811
-9.779,0.143,-9.868,-1.255,-7.781,0.36,-42.657,-0.325
-6.338,-0.317,-7.008,-0.094,-4.805,1.337,-43.797,-0.801
-5.781,-4.474,-6.817,-2.569,-4.612,-1.243,-49.985,-2.023
-8.235,-7.402,-8.219,-5.091,-6.109,-3.731,-53.185,-2.602
-10.593,-8.442,-8.97,-5.219,-6.867,-3.567,-50.873,-0.781
-7.252,-6.092,-5.343,-0.689,-3.165,1.269,-45.186,5.476
-0.555,0.49,1.32,6.731,3.537,8.925,-39.599,13.335
-0.351,5.007,2.818,9.017,4.993,11.478,-39.512,14.348
-8.092,1.96,-4.173,1.773,-2.041,4.271,-46.689,5.647
-15.248,-5.403,-13.846,-10.037,-11.656,-7.874,-56.01,-6.258
-16.82,-11.012,-19.635,-17.981,-17.352,-16.001,-61.053,-14.498
-15.179,-12.43,-19.537,-18.09,-17.32,-15.848,-60.278,-17.216
-15.041,-12.697,-17.156,-15.243,-15.07,-12.895,-58.792,-17.081
-19.081,-16.552,-18.781,-17.44,-16.58,-15.459,-63.394,-19.006
-25.158,-23.013,-25.447,-24.925,-23.094,-23.355,-73.845,-25.001
-29.383,-27.42,-31.211,-30.671,-29.141,-29.475,-82.299,-31.08
-30.412,-28.155,-31.187,-30.289,-29.466,-29.546,-82.937,-32.077
-27.261,-25.237,-26.207,-25.598,-24.168,-25.038,-77.102,-27.76
-19.439,-18.872,-19.643,-19.933,-16.873,-19.205,-68.962,-21.291
-11.612,-12.445,-14.777,-15.124,-11.809,-14.296,-62.079,-15.155
-9.806,-10.038,-14.097,-12.537,-11.637,-11.668,-59.768,-11.028
-14.074,-12.26,-17.969,-13.678,-15.796,-12.561,-63.662,-10.464
-21.061,-18.258,-24.498,-18.579,-21.968,-17.376,-71.511,-14.184
-27.822,-26.223,-30.485,-24.301,-27.83,-23.483,-79.535,-20.589
-31.462,-32.118,-33.019,-27.344,-30.893,-26.818,-85.827,-25.304
-31.804,-33.387,-31.648,-27.411,-29.848,-26.718,-89.675,-24.964
-32.065,-31.76,-28.86,-26.575,-26.715,-25.717,-91.026,-21.426
-32.364,-29.459,-26.524,-24.486,-24.075,-23.674,-89.875,-17.52
-28.275,-25.671,-22.81,-18.178,-20.743,-17.318,-84.732,-11.868
-20.971,-20.836,-17.377,-10.304,-15.873,-9.555,-76.425,-5.884
-17.914,-18.887,-14.437,-8.273,-12.836,-8.19,-69.798,-5.843
-18.763,-19.868,-14.924,-11.021,-12.94,-11.517,-66.118,-10.732
-17.504,-19.573,-15.276,-11.641,-13.518,-11.853,-62.607,-13.208
-16.303,-18.208,-15.271,-10.842,-14.049,-10.283,-60.83,-12.481
-19.413,-18.81,-16.899,-12.598,-15.697,-11.769,-63.989,-12.564
-23.035,-20.389,-19.098,-15.095,-17.637,-14.858,-69.203,-14.077
-22.308,-19.828,-19.417,-14.753,-18.3,-15.246,-70.581,-14.404
-18.39,-16.392,-17.21,-11.051,-16.964,-11.433,-66.722,-11.169
-16.083,-12.769,-14.918,-6.7,-14.944,-6.37,-62.792,-6.416
-17.534,-12.065,-15.483,-5.266,-14.755,-4.837,-63.346,-5.417
-18.541,-12.936,-17.435,-6.446,-15.869,-6.556,-65.224,-8.033
-15.039,-11.5,-17.204,-6.852,-15.536,-6.922,-62.968,-8.476
-8.541,-6.415,-13.507,-3.976,-12.313,-3.388,-56.033,-3.288
-0.73,1.576,-5.662,3.412,-5.033,4.032,-47.684,6.563
6.591,9.154,4.866,12.915,5.103,12.516,-42.518,16.097
7.858,11.278,12.175,18.787,12.126,17.118,-43.095,19.225
2.896,8.734,12.365,18.292,12.158,15.882,-46.541,15.598
-0.442,6.716,7.015,12.125,7.15,9.405,-49.376,8.268
-0.467,5.42,-0.606,2.334,0.148,-0.731,-52.508,-1.493
-2.929,1.538,-6.754,-5.926,-5.883,-9.093,-55.994,-9.585
-8.106,-4.615,-8.885,-8.257,-8.138,-10.708,-56.956,-9.819
-11.152,-9.148,-8.496,-6.455,-7.35,-7.949,-55.681,-3.96
-11.513,-10.186,-8.628,-5.324,-6.973,-6.801,-54.998,-1.525
-11.71,-10.261,-9.766,-6.47,-8.254,-8.676,-55.101,-6.491
-10.701,-9.874,-9.003,-6.246,-7.971,-8.425,-52.886,-10.316
-6.083,-4.89,-3.829,-0.789,-2.983,-1.744,-45.236,-4.942
-0.907,2.827,1.746,5.76,2.481,5.929,-36.706,2.633
-1.921,3.034,0.263,4.747,0.742,5.042,-38.114,0.907
-9.613,-6.58,-7.686,-3.272,-7.129,-3.419,-49.723,-7.618
-15.512,-14.543,-13.968,-8.955,-12.967,-9.511,-58.875,-12.399
-13.694,-13.098,-14.933,-8.65,-13.768,-9.361,-59.112,-11.092
-8.393,-8.107,-12.582,-5.943,-11.455,-6.617,-55.081,-7.501
-5.17,-6.375,-7.262,-1.828,-5.668,-2.506,-49.618,-2.062
-4.125,-6.742,-0.045,3.884,2.202,3.224,-42.662,5.398
-4.678,-6.196,3.487,7.186,5.507,6.999,-38.025,10.69
-6.725,-4.901,0.483,5.282,1.657,6.09,-39.315,10.159
-8.702,-5.587,-5.411,0.219,-4.438,1.843,-45.326,5.061
-8.658,-8.475,-9.145,-4.05,-7.643,-2.201,-51.86,0.614
-4.255,-8.018,-7.559,-3.423,-5.83,-1.345,-53.673,2.185
2.362,-3.21,-3.358,0.644,-2.084,3.238,-50.914,6.861
2.649,-2.611,-4.233,-0.064,-3.435,2.756,-51.893,5.301
-5.61,-9.848,-11.78,-8.339,-10.889,-5.594,-60.617,-3.646
-14.087,-17.7,-19.183,-17.28,-17.968,-14.252,-70.036,-12.02
-16.144,-19.617,-20.658,-19.847,-19.581,-16.019,-72.614,-13.584
-12.38,-16.076,-15.756,-14.48,-15.172,-9.754,-67.551,-6.912
-7.059,-11.5,-8.517,-5.594,-8.115,-0.357,-59.195,3.412
-4.266,-9.441,-5.157,-0.792,-4.573,4.462,-54.885,7.879
-5.136,-9.742,-7.79,-2.469,-7.243,2.813,-58.712,3.37
-8.855,-11.388,-12.808,-6.208,-12.634,-0.579,-66.207,-3.379
-14.155,-14.973,-17.243,-9.358,-17.195,-3.488,-70.666,-7.527
-18.316,-19.343,-20.464,-12.628,-20.144,-6.66,-71.102,-9.94
-18.747,-20.862,-20.759,-14.085,-20.28,-7.773,-69.388,-10.185
-15.802,-17.979,-16.803,-10.962,-16.534,-4.584,-65.553,-6.828
-11.853,-13.138,-10.941,-5.67,-11.124,-0.167,-60.188,-2.46
-9.183,-9.761,-7.563,-3.397,-8.165,0.942,-55.929,-1.353
-8.879,-9.192,-8.637,-5.638,-9.376,-1.912,-54.756,-4.294
-9.996,-10.356,-11.248,-8.883,-12.099,-5.409,-56.404,-8.327
-9.879,-10.724,-10.466,-8.314,-11.676,-4.897,-56.357,-9.244
-7.527,-9.427,-6.788,-4.629,-8.107,-0.819,-48.919,-6.539
-6.528,-9.416,-6.544,-4.834,-7.174,-0.631,-37.511,-5.473
-9.418,-12.167,-10.676,-10.234,-10.262,-6.119,-31.55,-7.968
-12.913,-14.681,-13.224,-13.757,-12.427,-9.709,-31.745,-9.637
-14.51,-15.684,-13.241,-13.807,-12.842,-9.652,-32.079,-10.787
-15.256,-17.163,-14.578,-15.106,-14.443,-11.188,-32.184,-15.316
-15.599,-19.714,-17.486,-18.19,-17.229,-14.762,-35.427,-21.212
-16.71,-22.53,-20.913,-21.09,-20.842,-18.163,-40.513,-25.426
-19.322,-24.009,-23.881,-22.493,-24.317,-20.315,-42.004,-27.221
-18.534,-20.791,-21.736,-18.771,-22.146,-17.337,-36.182,-22.929
-12.102,-13.607,-14.064,-10.536,-13.658,-9.225,-27.535,-13.623
-7.912,-9.732,-10.132,-7.073,-8.878,-5.587,-25.946,-10.475
-9.838,-11.848,-13.957,-12.263,-12.57,-10.988,-32.262,-17.321
-11.261,-14.248,-17.803,-18.107,-16.687,-17.312,-37.199,-23.57
-9.152,-13.088,-16.877,-18.227,-15.69,-17.836,-36.231,-22.023
-6.938,-9.772,-14.439,-14.491,-13.161,-14.311,-33.137,-16.579
-5.351,-6.453,-12.118,-9.916,-11.459,-9.729,-31.443,-11.937
-2.758,-5.149,-8.171,-5.199,-8.396,-5.149,-31.765,-8.525
0.577,-6.424,-4.044,-1.73,-4.525,-2.17,-33.449,-6.072
2.424,-8.116,-4.76,-2.706,-4.807,-3.347,-35.238,-6.784
0.442,-9.565,-11.42,-9.061,-10.813,-9.103,-37.469,-12.788
-3.077,-11.101,-17.02,-15.446,-15.897,-14.537,-40.03,-19.422
-3.417,-10.464,-15.985,-16.266,-14.62,-14.853,-40.141,-19.847
-3.116,-7.815,-12.946,-13.624,-11.601,-12.652,-37.706,-15.931
-6.096,-6.873,-12.765,-11.518,-11.653,-11.617,-35.998,-13.011
-7.507,-8.057,-12.529,-9.431,-11.696,-10.24,-36.555,-11.492
-4.433,-8.454,-10.218,-6.94,-9.429,-7.748,-38.435,-10.715
-1.584,-5.598,-7.961,-4.878,-7.16,-5.528,-38.723,-10.509
0.521,1.089,-6.01,-2.264,-5.6,-2.857,-35.304,-8.977
4.401,7.847,-3.8,0.561,-3.75,0.145,-31.34,-6.211
7.073,9.614,-2.867,1.264,-2.359,0.981,-30.302,-4.696
6.685,8.166,-3.085,0.959,-1.657,0.498,-29.125,-3.224
7.039,8.806,-1.96,2.479,0.008,1.995,-24.624,0.829
8.094,9.241,-0.475,3.324,1.583,3.32,-21.471,3.497
4.898,3.573,-2.155,-0.303,-0.253,-0.134,-25.419,0.105
-0.291,-3.881,-4.542,-3.71,-3.126,-4.26,-31.755,-3.412
-0.33,-4.072,-2.762,-0.714,-1.888,-1.935,-31.217,-0.123
3.42,0.146,0.011,3.666,0.932,2.592,-25.363,4.278
4.619,-0.26,-1.482,1.933,-0.136,0.983,-22.523,2.556
1.829,-4.399,-5.322,-3.416,-4.058,-4.889,-24.239,-2.65
-1.136,-4.434,-6.312,-5.298,-5.528,-7.018,-25.694,-5.555
0.686,1.607,-2.674,-1.617,-1.798,-2.883,-23.576,-3.44
5.781,6.921,0.931,2.459,2.484,1.386,-20.791,0.781
6.846,5.428,-1.329,1.197,0.534,-0.11,-21.821,0.694
3.852,1.139,-6.282,-2.552,-4.761,-3.596,-23.717,-2.464
4.723,2.253,-5.105,-0.9,-4.112,-1.214,-20.499,0.346
11.238,8.493,2.963,6.812,3.532,6.905,-14.111,10.048
16.851,13.452,10.605,14.045,10.993,14.149,-10.069,17.546
17.911,15.086,13.935,17.597,14.353,17.719,-7.832,19.488
16.318,14.249,13.127,17.528,13.564,17.801,-6.126,19.12
12.798,10.223,7.337,12.132,7.813,12.466,-8.465,15.401
7.328,4.837,-0.927,3.542,-0.241,3.514,-14.672,7.626
5.091,3.504,-3.159,0.686,-2.274,-0.048,-17.481,3.039
10.118,7.593,4.293,7.501,5.107,6.312,-13.176,7.049
14.387,10.61,11.498,14.365,12.167,13.234,-8.323,12.396
10.083,8.11,8.623,11.824,9.507,10.821,-9.928,9.787
5.328,6.049,2.248,5.995,3.62,4.953,-13.203,4.026
8.247,9.236,2.835,6.793,4.345,5.903,-10.115,4.881
12.022,11.981,7.299,11.749,8.382,11.307,-4.135,10.081
10.013,9.366,7.648,12.951,8.271,12.666,-3.411,11.291
5.087,3.385,3.057,8.039,3.58,7.163,-8.39,6.243
0.01,-3.947,-2.967,0.341,-2.334,-1.425,-14.236,-1.541
-4.715,-10.165,-6.878,-4.424,-6.122,-6.65,-16.819,-6.759
-5.95,-10.368,-6.139,-2.825,-5.399,-5.041,-13.842,-5.873
-2.039,-4.91,-1.311,2.741,-0.834,0.424,-6.146,-0.524
2.068,-0.806,3.813,6.908,3.949,4.023,1.1,3.819
2.156,-0.941,6.309,7.53,6.298,4.026,3.223,4.21
0.925,-1.984,6.489,6.388,6.631,2.772,1.421,2.592
0.229,-3.563,5.125,4.483,5.739,1.153,-0.726,0.714
-3.162,-7.896,2.233,1.508,3.607,-1.591,-3.054,-1.902
-9.362,-13.084,-0.72,-1.188,1.32,-4.239,-6.997,-4.368
-12.701,-15.464,-1.451,-1.729,0.643,-4.625,-10.076,-4.446
-9.877,-13.597,0.54,0.19,2.108,-2.294,-7.691,-1.78
-4.33,-8.471,3.215,3.477,4.275,1.38,-1.032,1.49
-0.412,-2.959,4.688,6.87,5.718,4.969,4.569,4.22
2.804,1.498,6.63,10.646,7.821,9.018,8.536,8.482
7.22,5.643,10.739,14.943,11.717,13.836,13.456,14.194
9.751,8.988,13.937,16.969,14.672,16.136,17.492,16.296
6.579,8.911,12.145,13.319,13.369,11.932,15.67,11.476
0.514,4.667,7.204,6.106,9.15,3.793,9.148,4.062
-0.517,1.198,5.71,3.033,7.509,0.422,6.495,2.135
5.489,3.25,8.901,6.616,9.992,4.385,10.624,6.232
10.782,8.388,10.835,10.296,11.792,8.297,13.621,8.739
9.291,11.467,8.847,9.3,10.217,6.903,9.714,6.65
4.131,10.361,5.965,5.813,7.493,2.86,2.932,3.792
0.005,5.481,3.775,2.581,5.104,-0.389,-1.629,1.585
-3.786,-1.372,0.905,-0.906,2.028,-3.644,-4.937,-2.461
-7.272,-7.144,-2.543,-5.125,-1.555,-8.113,-8.875,-8.343
-5.168,-7.795,-3.155,-6.933,-2.196,-10.4,-10.88,-11.218
3.251,-1.603,1.007,-3.452,2.064,-6.989,-8.717,-7.929
8.454,4.865,4.783,0.714,5.908,-2.721,-6.622,-3.673
3.735,1.92,0.958,-2.197,2.062,-5.774,-10.385,-6.154
-2.606,-6.059,-6.355,-8.548,-5.221,-12.071,-16.101,-11.439
4.029,-1.722,-2.218,-3.4,-1.043,-6.302,-10.857,-4.887
22.781,17.654,16.172,15.868,17.175,13.5,7.568,15.075
34.52,31.993,30.393,30.464,31.054,27.859,21.521,28.602
28.793,28.663,27.695,27.731,28.101,24.372,17.979,23.774
16.653,18.215,18.033,17.633,18.257,13.72,6.154,13.341
10.247,12.772,13.884,12.227,13.928,8.348,-1.001,10.714
9.772,11.344,13.929,10.9,14.007,7.573,-3.021,12.297
10.617,9.172,12.978,9.537,13.279,6.901,-4.073,10.879
9.271,5.485,11.386,7.836,11.73,5.377,-5.252,8.266
4.264,0.293,9.508,5.644,9.732,2.65,-8.239,7.314
-2.336,-6.359,5.145,1.539,5.482,-1.942,-14.884,5.142
-5.147,-10.197,0.906,-2.151,1.599,-5.652,-20.477,2.083
-1.172,-6.752,2.178,-0.992,3.114,-4.653,-18.263,2.934
6.105,1.554,7.784,4.304,8.729,0.041,-9.582,6.497
11.88,9.146,12.988,10.067,13.88,5.353,-0.277,8.645
15.125,13.056,16.083,14.378,16.991,9.794,6.997,9.763
16.715,13.393,17.37,15.869,18.291,11.547,11.474,9.86
17.192,12.516,17.699,14.417,18.556,9.859,12.739,7.823
16.088,11.632,17.661,12.125,18.474,7.021,12.177,5.86
12.872,9.285,17.133,10.786,17.851,5.521,11.622,5.619
11.449,7.359,18.025,11.732,18.24,6.738,13.272,6.718
18.972,13.152,24.558,17.541,23.87,12.637,21.246,11.61
34.928,28.537,36.622,28.78,35.376,23.592,35.968,22.134
47.784,42.376,45.805,38.837,44.892,33.494,48.699,32.087
47.745,43.014,44.224,39.205,43.885,34.145,50.188,32.764
37.864,33.442,34.982,30.844,34.583,26.278,42.304,24.511
28.578,25.177,27.279,22.564,26.489,18.554,34.155,15.483
26.001,23.823,25.297,20.117,24.425,16.646,31.517,12.417
29.543,27.562,27.683,22.937,26.859,19.691,35.285,16.604
35.272,32.278,31.937,27.57,31.113,24.145,42.352,23.853
37.528,32.751,33.761,29.188,33.092,25.481,45.542,26.515
32.924,25.937,28.605,23.953,28.005,20.264,40.647,20.701
25.405,17.625,19.645,15.619,18.871,12.387,32.938,12.688
21.805,16.283,16.171,13.036,15.523,10.171,30.449,11.148
21.651,18.705,19.128,16.07,18.849,12.813,32.34,13.479
19.042,15.588,19.45,15.73,19.045,11.606,31.308,10.755
14.002,8.118,14.075,10.226,13.212,5.67,26.046,3.197
12.286,4.814,10.413,6.643,9.51,2.108,22.405,-1.162
15.33,7.998,13.015,7.983,12.452,3.158,23.988,0.985
18.885,12.658,17.069,9.82,16.586,4.475,27.41,4.709
19.932,13.846,16.717,7.657,15.965,2.12,26.812,3.977
20.481,12.457,14.039,3.886,13.29,-1.848,23.522,0.667
24.137,13.802,15.505,5.527,15.08,-0.604,25.273,2.286
29,18.158,20.119,11.949,19.612,6.014,31.854,8.411
28.338,18.205,19.67,13.442,18.637,8.576,32.338,9.806
20.162,10.02,11.039,5.404,9.725,1.567,19.441,2.188
10.742,0.187,0.154,-5.64,-1.036,-9.2,0.567,-8.746
7.154,-2.428,-5.071,-10.392,-6.159,-13.901,-7.963,-13.937
9.96,1.91,-2.772,-6.781,-4.131,-9.702,-0.84,-10.388
14.89,6.729,2.512,0.084,0.487,-2.072,11.175,-3.188
18.129,9.433,6.65,6.137,3.971,4.197,20.533,3.103
17.66,10.491,8.434,9.967,5.592,8.075,27.767,7.366
14.035,9.219,8.209,10.303,5.608,9.126,29.148,8.264
11.488,6.854,8.373,8.62,5.961,8.611,21.588,6.384
13.247,6.5,10.779,8.338,8.287,9.051,11.542,5.226
15.728,6.985,13.078,9.12,10.415,10.03,4.685,5.852
13.016,3.784,11.964,7.798,9.321,9.167,-1.037,5.181
5.378,-2.703,8.082,4.088,5.562,6.229,-6.76,1.711
-1.159,-6.614,4.356,0.604,1.63,3.073,-10.492,-1.629
-1.856,-5.152,2.699,-0.641,-0.574,1.944,-12.264,-2.113
2.882,-0.078,5.115,2.095,1.594,5.383,-11.13,1.036
9.796,6.886,12.217,9.193,9.016,13.354,-5.857,7.654
14.935,11.93,18.144,14.819,15.155,19.316,-2.557,12.937
16.036,11.178,16.715,12.702,13.395,17.193,-6.557,10.951
16.121,8.926,12.293,6.961,8.62,11.255,-11.182,4.762
16.886,10.071,11.744,4.423,8.163,8.189,-9.754,1.016
12.72,9.186,11.88,2.924,8.52,6.289,-6.762,-0.81
4.164,2.234,8.381,-0.192,4.751,3.416,-6.579,-2.222
3.546,-2.35,6.76,0.073,2.486,4.142,-5.234,0.476
13.982,2.329,12.174,6.145,7.819,10.092,0.54,7.474
19.977,8.852,18.254,10.993,14.447,14.007,6.527,11.017
10.908,7.495,16.348,8.557,12.561,10.305,6.534,5.679
-2.334,0.718,8.432,2.172,3.843,3.269,0.489,-3.7
-5.088,-1.761,3.824,-1.013,-1.181,0.585,-4.173,-7.34
3.585,5.184,8.374,3.173,3.929,5.843,0.358,-0.307
15.872,17.426,18.705,12.825,14.814,16.182,12.981,12.047
23.033,25.106,25.347,19.753,21.37,23.165,23.712,19.091
20.824,22.349,23.117,17.954,19.094,21.158,25.18,17.2
13.094,13.355,15.737,10.823,12.099,13.779,21.118,11.117
7.061,7.259,9.769,5.918,6.385,8.563,20.07,5.616
6.632,8.147,8.326,6.484,4.723,8.901,24.525,3.591
10.282,11.778,9.467,9.199,5.539,11.552,29.81,5.683
12.013,11.876,8.872,8.525,4.861,10.715,30.299,6.955
6.865,6.883,5.043,3.508,1.125,5.31,25.042,2.335
-1.954,0.178,0.81,-1.086,-2.816,0.375,18.996,-4.009
-5.214,-3.263,-0.265,-0.997,-3.251,0.339,18.053,-3.987
1.218,-0.564,2.819,3.046,0.255,4.285,22.478,2.012
11.198,6.298,8.201,7.881,5.158,9.065,27.616,7.432
15.909,11.957,12.497,11.444,8.746,12.972,30.307,9.705
13.924,12.908,12.822,12.212,9.088,14.234,30.85,9.946
11.597,11.004,9.893,9.773,6.453,11.652,31.017,8.876
13.678,10.657,8.348,7.575,4.92,8.872,32.021,7.952
16.997,12.493,10.761,9.061,7.468,10.002,32.217,8.425
15.894,12.748,13.315,10.954,10.32,11.374,29.247,8.145
10.165,9.253,10.61,7.474,7.538,7.072,23.922,4.02
4.834,4.273,3.421,-0.141,0.138,-0.74,19.484,-2.376
3.867,1.669,-1.74,-5.263,-4.556,-5.28,18.845,-5.832
6.82,3.464,-0.79,-4.521,-2.517,-3.913,23.023,-3.651
11.832,8.121,4.302,0.583,3.364,1.618,31.586,2.875
16.636,11.619,8.848,6.369,7.835,7.676,41.295,9.889
17.997,11.998,9.902,9.194,8.274,10.506,46.238,13.297
17.006,12.181,9.408,9.46,7.231,10.561,45.329,13.441
17.789,14.512,10.102,10.22,7.69,11.11,43.123,13.179
18.227,15.637,9.794,10.694,7.478,11.593,41.488,12.138
14.14,12.476,6.767,8.509,4.795,9.696,38.54,9.698
8.702,7.721,4.701,5.805,2.997,7.239,32.516,8.667
7.023,5.544,6.242,5.862,4.606,6.988,23.775,10.776
8.395,6.769,8.851,7.425,7.326,7.565,15.431,12.959
9.603,8.918,9.521,7.57,8.092,6.728,9.42,11.514
10.216,9.298,8.325,6.379,6.797,5.353,3.53,8.042
11.396,8.571,6.806,5.374,5.149,4.767,-3.791,7.026
13.305,10.08,6.619,5.471,4.88,5.031,-9.651,9.091
15.264,14.022,8.539,6.81,6.744,6.033,-11.242,11.64
15.697,15.701,10.379,7.725,8.757,6.718,-11.367,13.312
13.528,12.845,9.345,6.691,8.182,6.08,-15.238,14.475
10.875,9.17,6.224,5.021,5.48,5.154,-21.81,15.501
11.104,8.244,3.716,4.738,3.027,5.251,-25.219,15.622
14.637,10.126,3.557,6.426,2.639,6.443,-24.066,14.704
18.948,14.236,6.912,10.154,5.887,9.097,-20.095,16.012
21.103,19.092,12.564,14.301,11.812,12.596,-14.723,20.967
19.537,20.364,15.306,14.441,14.886,13.001,-12.398,23.356
15.967,16.17,12.874,9.633,12.381,8.838,-15.058,19.284
14.832,11.862,10.278,5.795,9.534,5.258,-16.552,15.3
17.296,12.169,10.697,6.444,9.976,5.343,-13.201,16.004
18.805,13.532,10.574,7.591,10.001,5.313,-10.013,16.107
15.744,10.81,7.296,5.187,6.789,2.041,-10.339,11.319
9.595,4.754,2.534,-0.355,2.327,-3.484,-11.296,4.351
3.768,-0.698,-1.427,-6.407,-0.842,-9.229,-11.544,-0.993
1.984,-1.799,-2.236,-9.048,-0.827,-11.909,-11.321,-2.226
7.645,4.045,2.929,-4.181,4.339,-6.979,-6.422,2.93
17.979,14.124,12.676,6.731,13.17,4.685,5.374,12.81
22.921,19.552,18.692,14.14,18.359,12.929,15.249,19.201
18.132,15.731,15.329,11.166,15.042,9.805,12.97,15.961
11.601,9.09,8.146,3.354,8.534,1.18,1.868,7.996
9.562,6.37,4.367,-1.11,5.332,-3.528,-6.965,3.15
8.951,5.951,3.263,-2.576,4.173,-4.516,-9.549,0.994
8.371,5.563,3.188,-3.389,3.568,-5.004,-9.017,-1.281
10.268,6.348,5.233,-2.911,5.21,-4.743,-7.862,-1.93
12.39,6.504,6.356,-2.959,6.267,-4.937,-6.911,-1.158
11.896,4.179,3.51,-4.995,3.521,-6.71,-6.506,-2.158
12.896,4.484,1.845,-4.479,1.994,-6.38,-4.587,-2.517
17.806,10.653,5.164,0.897,5.218,-1.944,-0.05,1.799
20.163,15.338,7.572,5.024,7.093,1.644,2.294,6.167
14.575,11.105,3.809,2.388,2.86,-0.649,-1.771,3.43
4.505,1.152,-3.533,-4.922,-4.332,-7.552,-8.486,-4.618
-3.165,-6.369,-9.675,-11.289,-9.962,-13.955,-11.329,-10.291
-5.958,-8.963,-12.564,-13.914,-12.346,-16.832,-9.681,-11.159
-7.367,-11.252,-13.754,-15.211,-13.208,-18.115,-8.382,-12.304
-10.668,-16.636,-16.227,-18.415,-15.886,-20.792,-9.879,-16.906
-13.255,-20.444,-18.232,-20.798,-18.553,-22.542,-10.388,-19.934
-11.298,-16.648,-14.376,-17.106,-15.003,-18.634,-5.388,-15.669
-7.234,-9.405,-6.978,-9.95,-7.026,-11.497,2.43,-7.497
-6.892,-8.814,-6.234,-8.602,-5.273,-9.996,5.287,-4.986
-10.824,-15.669,-14.389,-15.951,-12.868,-17.35,1.602,-11.689
-13.489,-19.637,-20.428,-22.773,-19.095,-24.968,-1.373,-19.271
-10.44,-13.924,-15.318,-18.905,-14.432,-22.295,2.723,-17.166
-2.124,-3.137,-3.338,-6.173,-2.666,-9.899,12.855,-5.414
7.542,5.293,6.169,5.151,6.755,2.247,23.891,6.743
13.144,8.978,9.704,8.718,10.153,6.643,30.871,11.911
11.636,8.303,8.156,5.471,8.744,3.41,29.593,9.519
5.653,4.396,3.384,-0.336,4.551,-2.633,20.944,3.549
2.327,2.586,1.089,-2.056,2.699,-4.126,15.276,1.354
7.162,8.321,6.823,5.253,8.292,3.7,21.507,8.718
16.026,16.016,15.29,15.441,16.409,14.304,31.951,19.682
18.793,15.595,16.186,16.798,17.148,15.641,31.556,21.681
13.008,9.058,9.597,8.733,10.381,6.856,20.933,13.432
5.347,5.444,3.356,0.944,3.805,-1.629,13.987,5.144
0.944,5.83,0.93,-0.743,1.128,-2.941,15.661,3.404
-0.855,5.497,0.719,1.408,0.793,0.261,19.267,5.722
-1.765,3.316,1.622,3.079,1.697,2.431,21.428,6.994
-1.717,0.293,2.897,2.269,3.405,1.313,24.061,5.411
-1.347,-3.636,2.181,-0.597,3.509,-1.904,26.328,2.552
-2.623,-6.134,-0.881,-3.58,0.865,-4.849,26.077,0.794
-4.364,-3.521,-2.334,-4.093,-0.944,-5.018,25.262,2.031
-1.898,3.155,0.598,-0.866,1.623,-1.115,27.45,6.577
3.593,7.721,4.305,2.462,5.618,2.805,31.789,10.146
4.044,5.852,3.513,0.669,5.266,0.825,33.456,7.558
-0.86,1.52,0.236,-3.241,1.884,-3.817,31.771,2.571
-2.159,1.778,0.779,-1.961,1.953,-3.194,31.812,3.046
2.521,6.263,5.127,3.454,5.954,1.731,34.813,7.757
6.585,8.74,8.128,6.42,8.854,4.463,35.802,10.258
5.639,5.703,7.096,4.174,7.96,2.355,31.316,8.605
0.98,-1.128,2.547,-1.96,3.769,-3.716,23.674,3.915
-4.568,-7.273,-2.735,-8.451,-1.233,-10.66,18.369,-2.047
-8.865,-9.644,-5.456,-11.794,-4.07,-14.532,17.145,-6.782
-9.72,-9.104,-5.781,-12.142,-4.772,-14.834,16.511,-8.921
-7.498,-8.895,-6.465,-12.357,-5.687,-14.542,14.337,-9.555
-7.337,-11.319,-9.06,-14.398,-8.293,-16.249,12.165,-11.57
-10.091,-12.935,-11.351,-16.449,-10.612,-18.528,13.403,-14.516
-8.271,-7.144,-9.036,-13.921,-8.339,-16.351,21.008,-12.432
-1.353,2.642,-4.19,-8.056,-3.359,-10.229,31.621,-5.276
1.471,5.596,-3.959,-6.543,-2.891,-8.196,37.296,-2.653
-0.526,1.413,-7.396,-10.336,-6.107,-12.008,36.335,-7.306
-0.457,-1.88,-7.459,-12.34,-5.962,-14.243,33.938,-10.632
0.722,-2.53,-3.869,-9.737,-2.454,-11.43,34.392,-8.094
-1.761,-3.613,-1.706,-6.202,-0.935,-7.465,37.941,-4.177
-5.561,-4.987,-2.204,-4.416,-2.238,-5.471,40.429,-2.514
-6.372,-4.709,-2.406,-3.175,-2.771,-4.341,39.049,-1.122
-7.023,-5.189,-2.058,-2.22,-2.163,-3.4,38.068,1.112
-12.322,-11.638,-5.34,-5.257,-4.998,-5.854,38.242,-0.403
-20.411,-22.69,-13.483,-14.039,-12.957,-14.115,31.69,-8.638
-26.712,-30.214,-20.962,-23.527,-20.476,-24.048,18.394,-17.57
-29.318,-29.969,-21.975,-26.71,-21.302,-27.75,11.091,-18.551
-27.519,-24.536,-16.745,-21.89,-15.552,-22.394,17.798,-10.847
-21.92,-17.577,-10.093,-13.894,-8.535,-13.835,31.734,-1.879
-15.074,-11.913,-6.056,-8.626,-4.636,-9.193,41.426,1.73
-9.975,-9.39,-4.725,-7.386,-3.726,-8.818,44.208,0.401
-9.228,-9.525,-4.688,-8.105,-4.183,-9.461,44.166,-2.401
-13.657,-11.93,-7.467,-10.893,-7.4,-11.824,41.171,-6.936
-20.06,-16.491,-13.859,-16.556,-13.75,-17.541,33.002,-13.852
-21.378,-18.07,-16.402,-18.904,-15.58,-19.957,27.194,-15.929
-13.493,-10.983,-7.74,-10.367,-6.204,-10.921,34.763,-5.839
-2.398,0.232,4.634,2.927,6.023,2.926,50.72,8.472
3.657,7.321,9.028,8.836,9.581,8.824,59.105,14.231
5.002,10.143,7.709,8.185,7.82,7.898,55.043,13.229
3.388,9.994,6.453,7.077,7.03,6.8,46.156,11.494
-2.773,4.557,2.544,4.044,3.816,4.053,39.77,6.554
-9.935,-3.857,-4.485,-1.57,-3.089,-1.398,37.787,-1.611
-12.921,-10.134,-9.839,-6.234,-8.693,-6.237,37.452,-7.693
-13.232,-13.662,-12.301,-8.911,-11.196,-9.219,35.776,-10.29
-12.532,-14.204,-12.572,-9.166,-11.431,-9.652,34.899,-10.061
-9.185,-10.165,-10.207,-6.254,-9.229,-6.91,37.245,-7.259
-6.054,-4.764,-7.51,-3.597,-6.642,-4.61,38.72,-5.448
-9.551,-4.563,-8.883,-5.859,-8.029,-7.188,35.695,-8.677
-17.947,-10.636,-14.589,-11.952,-13.97,-13.138,31.636,-15.211
-21.277,-16.246,-18.732,-15.41,-18.487,-15.989,31.692,-18.135
-16.628,-15.012,-16.238,-12.026,-16.114,-12.034,37.223,-13.032
-10.974,-8.772,-9.708,-4.564,-9.413,-4.415,45.738,-3.628
-6.864,-3.293,-4.435,1.589,-3.92,1.509,53.294,3.061
-2.532,-1.213,-1.876,3.505,-1.121,2.846,57.158,3.78
-2.75,-4.071,-3.476,-0.148,-2.459,-1.57,56.372,-1.861
-10.677,-11.295,-11.005,-8.34,-9.974,-10.104,52.477,-11.598
-17.74,-15.829,-19.383,-15.053,-18.7,-16.345,49.993,-18.303
-16.715,-13.21,-21.299,-15.598,-21.126,-16.153,50.825,-17.305
-13.074,-10.059,-18.566,-13.579,-18.871,-13.935,50.752,-13.527
-14.02,-12.674,-17.773,-14.101,-18.455,-14.68,47.197,-13.397
-17.501,-16.712,-19.05,-15.762,-20.143,-16.35,42.998,-16.053
-16.965,-15.47,-17.304,-14.249,-18.85,-14.666,40.805,-16.739
-10.812,-9.012,-10.249,-8.445,-11.912,-9.015,42.16,-12.282
-4.83,-2.329,-1.666,-1.894,-3.13,-2.8,47.194,-3.902
-5.221,-0.358,2.048,0.361,0.685,-0.458,51.415,1.678
-11.592,-4.915,-1.761,-3.314,-2.847,-3.606,48.911,-1.786
-18.795,-13.288,-9.281,-10.071,-9.505,-9.858,40.147,-11.482
-21.134,-18.027,-12.545,-13.213,-11.971,-12.562,34.514,-16.399
-16.196,-13.181,-6.619,-6.656,-6.285,-5.348,39.269,-9.443
-9.105,-3.829,3.329,5.274,2.632,7.343,47.999,2.928
-6.635,0.47,8.014,11.227,6.623,13.878,50.881,9.321
-7.732,-0.256,6.546,9.204,5.062,12.213,48.804,8.293
-8.343,-1.086,4.72,6.994,3.139,10.135,46.783,6.074
-9.627,-3.597,3.249,6.434,1.578,9.784,43.132,4.126
-14.683,-11.728,-2.557,1.291,-3.795,5.326,33.811,-1.675
-22.268,-22.51,-11.889,-8.611,-12.479,-3.811,21.339,-10.921
-26.8,-28.374,-16.877,-14.438,-17.374,-9.254,12.503,-16.538
-25.134,-26.49,-13.827,-12.043,-14.663,-6.444,10.289,-14.993
-22.822,-22.577,-9.77,-9.133,-10.784,-2.83,11.155,-12.219
-26.386,-23.25,-12.511,-12.887,-13.55,-6.055,10.33,-14.322
-30.091,-25.268,-16.875,-16.919,-18.046,-10.07,8.488,-16.286
-24.724,-21.378,-13.263,-12.54,-14.496,-6.021,8.345,-10.602
-16.66,-15.217,-7.066,-6.091,-7.902,0.193,7.635,-3.655
-17.785,-15.355,-10.282,-8.57,-10.5,-2.106,3.011,-6.626
-23.542,-18.727,-18.982,-16.034,-19.131,-9.079,-2.028,-15.093
-23.888,-17.919,-21.189,-18.153,-21.909,-10.824,-2.406,-17.781
-23.281,-17.614,-19.407,-17.483,-20.693,-10.238,-1.981,-17.14
-29.099,-24.852,-23.682,-22.031,-25.117,-15.03,-6.474,-21.063
-35.858,-32.679,-31.518,-27.971,-32.677,-20.844,-11.576,-25.571
-34.516,-29.713,-32.054,-25.617,-32.803,-18.193,-10.148,-21.791
-26.417,-18.515,-24.15,-16.258,-24.805,-8.92,-4.852,-11.958
-21.653,-12.977,-18.824,-11.496,-19.62,-4.603,-4.297,-7.884
-23.975,-17.639,-21.897,-15.329,-22.568,-8.899,-8.382,-13.101
-24.414,-21.102,-24.854,-18.069,-25.21,-12.194,-8.404,-16.823
-18.646,-15.94,-20.938,-13.376,-21.184,-8.325,-2.525,-11.992
-15.761,-9.747,-16.335,-7.42,-16.494,-3.008,2.553,-4.918
-19.967,-10.15,-17.104,-6.12,-16.964,-1.538,3.37,-1.898
-24.636,-14.682,-20.456,-7.803,-20.197,-2.48,0.987,-3.137
-26.777,-17.959,-23.032,-9.842,-23.11,-4.187,-4.191,-8.64
-27.38,-17.763,-24.364,-11.032,-24.8,-5.843,-9.658,-14.944
-23.749,-13.696,-22.644,-9.144,-23.133,-4.468,-8.884,-13.958
-15.334,-5.723,-16.677,-3.371,-17.247,1.424,0.701,-4.56
-8.69,2.853,-10.208,2.332,-11.079,7.476,11.583,4.266
-8.296,5.889,-8.203,3.106,-9.273,8.131,13.66,5.161
-9.964,3.065,-9.915,0.171,-11,4.766,7.152,0.595
-9.024,0.623,-10.58,-1.314,-11.718,3.037,1.184,-2.669
-6.811,1.108,-8.718,-0.13,-9.867,3.944,0.436,-2.785
-5.929,1.312,-7.143,1.179,-8.066,4.52,1.827,-2.468
-6.299,-0.335,-7.704,1.444,-8.205,3.908,2.131,-2.781
-6.84,-1.987,-8.854,1.314,-8.947,3.394,2.295,-2.28
-7.88,-2.846,-9.345,0.709,-9.283,2.992,3.291,-1.489
-10.219,-3.962,-10.749,-1.571,-10.69,0.967,1.844,-3.488
-12.822,-5.445,-13.823,-5.488,-13.475,-2.967,-4.157,-8.338
-14.328,-6.395,-16.328,-8.628,-15.525,-6.177,-10.564,-12.076
-14.78,-7.231,-17.173,-9.739,-16.595,-7.375,-12.98,-13.607
-13.248,-8.787,-17.444,-10.504,-17.707,-8.337,-12.817,-15.549
-9.913,-9.91,-16.802,-11.69,-17.329,-9.714,-14.134,-17.739
-10.443,-10.594,-15.649,-12.701,-15.518,-11.033,-18.65,-18.492
-16.286,-12.138,-16.01,-13.126,-15.191,-11.968,-23.887,-18.386
-18.109,-11.862,-16.226,-11.36,-15.326,-10.371,-24.019,-17.032
-12.087,-7.907,-13.833,-7.481,-13.206,-5.823,-17.37,-13.798
-7.138,-5.027,-11.406,-5.397,-10.879,-2.9,-11.551,-11.836
-8.985,-7.277,-12.23,-7.516,-11.524,-5.284,-13.868,-14.229
-12.716,-11.662,-14.548,-10.946,-13.617,-9.915,-21.715,-18.097
-12.416,-11.908,-13.43,-10.436,-12.342,-10.24,-27.241,-17.294
-8.035,-5.63,-7.286,-4.833,-6.07,-5.041,-26.285,-10.622
-1.801,3.206,-0.379,1.501,0.893,0.583,-20.622,-2.996
4.685,9.21,2.632,5.109,3.705,3.554,-14.384,1.839
8.289,11.025,2.316,6.935,2.941,5.583,-10.875,4.841
5.881,9.638,1.334,7.587,1.793,6.92,-12.074,6.506
-1.926,4.254,-2.123,4.171,-1.098,3.798,-18.105,3.243
-11.327,-4.86,-10.67,-4.157,-8.915,-4.658,-26.785,-6.157
-17.523,-12.433,-18.999,-11.671,-17.324,-12.105,-34.055,-14.755
-15.665,-11.948,-17.468,-10.925,-16.528,-11.07,-34.226,-13.618
-5.241,-3.178,-5.484,-1.524,-4.985,-1.738,-25.661,-2.859
4.161,5.205,5.275,7.179,5.865,6.422,-17.965,6.359
2.43,5.21,5.697,6.978,6.511,5.666,-20.916,5.537
-4.42,0.66,0.919,2.01,1.95,0.454,-29.088,0.341
-3.408,-0.067,-0.164,0.332,1.224,-1.275,-32.849,-0.573
2.281,1.705,0.825,0.183,2.669,-1.678,-34.359,-0.643
-0.02,-0.728,-2.239,-4.195,-0.113,-6.633,-39.679,-7.319
-7.146,-4.965,-5.642,-8.223,-3.521,-11.115,-44.739,-14.736
-5.836,-3.146,-1.032,-3.229,0.976,-6.161,-40.417,-11.101
1.505,1.878,7.819,5.87,9.681,3.102,-29.564,-0.871
2.016,0.813,9.623,6.979,11.24,4.446,-25.072,1.347
-4.702,-5.003,3.629,0.646,5.033,-1.76,-30.205,-4.926
-8.511,-6.872,-1.487,-3.012,-0.136,-5.754,-36.057,-8.028
-5.02,-2.704,-0.982,-0.545,0.433,-3.87,-36.732,-4.215
-0.391,1.334,2.012,2.26,3.655,-1.283,-36.074,-1.188
-3.248,-1.929,1.169,-0.655,3.35,-3.984,-39.725,-5.213
-12.236,-11.422,-4.7,-7.307,-1.76,-10.317,-45.715,-12.134
-16.145,-16.606,-8.847,-9.489,-5.512,-12.006,-46.156,-13.108
-9.788,-10.665,-5.946,-3.863,-2.979,-5.489,-36.627,-6.063
0.632,1.334,2.083,5.133,4.54,4.258,-21.569,4.044
8.741,10.833,10.826,13.022,13.268,12.128,-9.905,12.504
11.958,13.608,16.27,17.405,18.852,16.211,-6.657,16.802
8.677,9.921,15.723,16.122,18.15,15.032,-10.13,15.795
2.331,4.811,11.194,11.314,13.284,10.565,-14.702,11.514
0.506,4.41,7.838,9.301,9.58,8.822,-16.287,8.995
4.768,8.02,7.536,11.944,8.815,11.646,-15.163,11.022
9.257,10.221,8.415,15.363,9.056,14.988,-13.28,15.068
9.096,9.268,8.882,16.503,9.003,15.716,-12.749,16.641
5.07,7.256,8.277,15.064,8.175,13.957,-14.606,13.84
0.967,6.04,6.241,12.157,5.924,11.042,-16.835,9.066
-1.057,5.887,3.158,9.464,2.559,8.208,-17.913,6.128
0.495,7.398,1.376,9.325,0.86,7.478,-18.686,6.935
7.439,12.27,4.527,14,4.656,11.368,-17.434,12.047
15.954,18.047,11.246,20.626,12.142,17.542,-11.727,19.048
18.546,19.186,14.184,22.096,15.289,19.189,-6.153,21.436
14.8,16.116,9.855,16.799,10.349,14.225,-8.287,15.629
9.753,13.521,3.009,9.773,2.583,7.176,-17.519,6.423
5.313,12.421,-0.385,5.159,-1.248,2.542,-25.67,1.389
1.935,11.207,0.481,3.866,-0.075,1.585,-27.39,2.284
1.433,10.129,2.42,5.103,2.48,3.32,-24.524,5.157
3.752,10.975,3.789,7.526,4.205,6.171,-20.998,7.53
8.02,14.517,6.904,11.459,7.333,10.145,-17.79,11.148
13.826,18.636,12.099,16.645,12.367,14.883,-15.34,15.542
17.261,19.031,13.554,17.964,13.439,15.74,-17.685,14.777
14.374,14.579,8.473,12.102,7.93,9.794,-26.432,7.239
8.11,9.228,3.011,4.741,2.543,2.499,-33.546,0.61
4.945,6.638,2.664,3.205,2.838,0.93,-31.764,1.003
7.626,7.546,6.054,7.591,6.803,5.63,-25.97,5.867
11.939,9.979,9.121,11.842,9.92,10.841,-24.626,8.948
11.118,9.651,8.822,10.77,9.459,10.573,-29.097,7.211
6.032,5.595,6.154,6.533,6.976,6.198,-33.63,3.758
3.898,2.728,5.652,5.016,6.813,3.99,-32.371,3.041
5.589,3.558,7.801,6.388,8.856,4.853,-27.881,4.544
5.299,3.962,7.939,6.495,8.515,4.811,-26.931,5.265
1.601,1.03,4.923,4.614,5.275,2.944,-30.285,4.619
-0.666,-1.284,3.47,3.598,4.128,1.795,-33.107,4.235
2.714,2.513,6.91,5.641,7.998,3.42,-31.19,5.713
9.804,10.181,11.856,8.811,13.029,6.019,-26.816,7.317
14.063,13.221,12.679,8.59,13.648,5.213,-26.631,5.21
13.883,10.43,10.194,5.841,11.056,2.08,-30.016,1.238
13.446,8.651,9.029,5.303,10.168,1.568,-30.202,0.539
11.657,7.883,7.794,4.827,9.441,1.325,-29.065,0.822
4.282,1.887,2.406,-0.926,4.286,-4.343,-34.058,-3.504
-4.418,-6.878,-4.08,-8.714,-2.377,-12.139,-41.891,-9.898
-6.543,-9.491,-5.641,-11.453,-4.187,-14.703,-43.411,-12.504
-2.374,-5.435,-3.237,-9.976,-1.986,-12.928,-39.164,-12.883
2.485,-0.658,-1.642,-9.428,-0.747,-12.188,-35.691,-14.705
6.098,3.634,-1.188,-9.046,-0.781,-11.657,-34.327,-14.962
9.422,7.938,0.183,-5.519,0.304,-8.06,-33.114,-10.935
11.239,9.261,2.151,-1.064,2.33,-3.982,-33.492,-6.505
9.655,6.778,3.181,0.773,3.56,-2.736,-38.345,-4.631
6.3,3.935,2.616,0.845,3.049,-2.598,-46.211,-3.867
4.586,2.646,0.953,0.283,1.182,-2.494,-51.997,-3.958
4.513,1.306,-1.507,-2.335,-1.507,-4.908,-53.115,-6.257
2.598,-1.406,-5.392,-6.743,-5.408,-9.756,-52.19,-9.595
-2.72,-4.222,-9.956,-9.756,-9.925,-12.923,-52.279,-11.263
-7.023,-5.33,-12.126,-9.539,-12.113,-12.438,-52.28,-10.703
-4.095,-4.614,-10.121,-7.438,-10.107,-10.583,-50.006,-9.271
3.031,-3.796,-7.385,-6.932,-7.421,-11.116,-47.849,-9.147
3.121,-4.602,-9.239,-10.764,-9.4,-15.864,-50.507,-12.273
-5.321,-6.215,-14.663,-16.072,-14.853,-21.2,-55.996,-16.621
-9.73,-6.089,-16.876,-16.758,-17.067,-21.358,-56.947,-17.701
-2.62,-3.304,-13.146,-12.543,-13.481,-16.662,-52.973,-15.755
8.469,0.566,-7.94,-8.701,-8.369,-12.616,-50.821,-14.371
13.977,3.965,-5.283,-7.335,-5.631,-11.505,-52.26,-13.469
12.475,5.323,-5.33,-7.628,-5.724,-12.146,-53.342,-12.502
6.61,1.55,-7.992,-11.204,-8.699,-15.409,-53.219,-14.519
-0.731,-6.025,-11.698,-17.041,-12.587,-20.429,-52.817,-18.496
-6.586,-9.093,-12.186,-17.965,-12.632,-20.575,-49.234,-17.707
-6.882,-4.212,-8.058,-11.207,-7.599,-12.703,-41.174,-11.863
0.385,1.461,-3.044,-3.787,-2.145,-3.234,-34.065,-9.16
6.713,1.338,-1.815,-2.626,-1.386,-0.316,-34.037,-12.561
1.014,-2.98,-6.333,-7.535,-6.471,-6.228,-41.006,-16.618
-11.326,-6.076,-13.402,-13.464,-13.495,-15.461,-47.666,-18.09
-13.867,-4.648,-15.422,-14.745,-15.35,-19.13,-46.443,-17.139
-3.933,-1.507,-10.071,-11.674,-10.237,-16.587,-39.885,-13.753
2.096,-3.51,-6.206,-11.365,-6.574,-16.156,-37.4,-11.356
-6.817,-11.897,-11.243,-16.944,-11.306,-20.901,-41.051,-14.258
-20.823,-20.549,-19.754,-23.132,-19.348,-25.308,-45.102,-20.005
-27.229,-25.252,-23.234,-25.21,-22.76,-26.091,-48.094,-22.296
-28.148,-27.397,-22.748,-24.934,-22.604,-26.088,-56.299,-20.08
-31.397,-29.79,-24.819,-26.916,-24.807,-28.955,-73.902,-18.882
-36.13,-32.394,-29.658,-31.163,-29.002,-33.29,-88.858,-21.522
-35.426,-31.467,-30.311,-31.632,-28.637,-33.031,-84.162,-23.294
-27.841,-24.371,-23.829,-25.32,-21.939,-26.286,-68.51,-20.369
-18.263,-13.948,-15.288,-16.615,-14.124,-18.012,-60.04,-14.617
-9.237,-4.657,-8.387,-9.286,-7.662,-11.118,-52.5,-8.197
-0.04,1.949,-1.987,-2.737,-0.839,-4.029,-39.139,-1.929
6.719,5.054,2.99,2.318,4.653,2.202,-31.51,1.885
6.745,3.302,3.426,2.755,5.167,3.075,-31.664,1.4
2.495,-1.416,0.403,-1.11,2.121,-1.828,-29.551,-1.543
1.15,-3.759,-1.228,-4.431,0.534,-6.429,-24.364,-3.509
3.183,-2.975,0.209,-4.859,1.724,-6.761,-21.818,-4.058
2.262,-4.631,1.242,-5.043,2.174,-5.923,-24.483,-5.162
-3.08,-9.256,-0.398,-6.411,0.166,-6.851,-29.855,-6.618
-7.177,-10.537,-2.529,-7.309,-1.966,-8.116,-31.168,-7.075
-5.621,-6.432,-1.998,-5.834,-1.568,-6.904,-25.988,-6.461
0.635,-0.115,2.619,-0.457,2.719,-1.222,-19.007,-3.503
7.4,5.267,9.038,6.988,9.017,6.614,-13.604,2.201
10.126,6.595,12.067,10.741,12.153,10.272,-11.103,6.471
6.559,2.545,9.626,8.179,9.845,7.277,-12.875,5.658
-0.571,-3.599,4.998,2.898,5.335,1.712,-16.339,1.38
-3.901,-5.499,3.285,0.58,3.486,-0.796,-16.577,-1.681
0.633,-0.56,6.3,3.234,5.933,1.394,-13.85,-0.717
7.145,5.261,9.532,6.233,8.716,3.76,-13.178,1.602
8.569,5.991,8.489,5.3,7.889,2.592,-14.571,1.739
7.487,4.707,5.9,3.854,5.825,1.618,-12.509,1.588
8.932,6.305,6.097,5.745,6.23,4.196,-7.409,3.21
11.086,9.388,8.29,7.818,8.203,6.467,-5.301,3.6
12.231,11.503,10.522,7.502,10.018,5.962,-5.862,2.045
14.436,12.916,12.317,7.388,11.467,5.844,-3.832,2.148
15.488,12.689,11.936,7.717,11.012,6.39,-0.731,2.896
11.275,9.754,8.252,5.189,7.486,4.054,-2.771,0.065
4.207,5.363,3.237,-0.749,2.628,-1.58,-9.93,-5.687
-0.461,0.355,-0.514,-6.892,-1.041,-7.17,-16.298,-10.448
-0.939,-4.148,-1.732,-9.749,-2.029,-9.398,-16.908,-11.88
1.611,-5.085,-0.634,-8.624,-0.428,-7.773,-11.16,-10.319
3.638,-3.042,0.031,-6.978,0.611,-5.876,-4.558,-8.977
0.657,-4.06,-3.701,-9.663,-3.33,-8.298,-4.226,-11.435
-6.501,-10.097,-11.085,-16.016,-11.076,-13.768,-9.23,-16.542
-11.258,-14.564,-15.612,-18.917,-15.39,-15.224,-11.533,-18.799
-9.996,-12.472,-13.857,-15.333,-13.214,-10.628,-7.872,-15.793
-6.494,-8.661,-10.623,-12.057,-10.195,-7.207,-3.681,-11.712
-6.735,-10.46,-11.631,-15.228,-11.756,-10.158,-4.891,-11.507
-11.83,-16.699,-15.724,-21.144,-15.799,-14.971,-10.907,-14.764
-17.744,-20.736,-18.303,-23.491,-17.861,-15.955,-15.919,-17.602
-20.909,-21.129,-18.529,-22.897,-18.093,-14.763,-17.072,-18.193
-20.233,-20.444,-17.457,-22.089,-17.609,-14.121,-16.848,-16.567
-15.196,-17.426,-13.608,-18.958,-14.024,-11.228,-15.486,-12.235
-7.595,-10.938,-7.518,-13.129,-7.685,-5.478,-12.374,-7.366
-1.852,-5.764,-3.54,-9.543,-3.728,-1.919,-10.947,-5.89
0.3,-5.433,-2.34,-9.328,-3.225,-1.612,-12.208,-6.571
-0.189,-7.52,-1.312,-9.142,-3.06,-1.414,-13.726,-6.267
-3.207,-9.803,-1.272,-8.998,-3.413,-1.647,-15.514,-6.616
-6.906,-11.388,-3.119,-9.963,-5.267,-2.944,-17.617,-9.055
-8.021,-10.371,-3.9,-10.23,-6.202,-2.889,-18.239,-11.369
-7.042,-7.855,-2.368,-9.509,-4.911,-1.781,-18.792,-12.994
-6.885,-7.883,-1.785,-10.198,-4.205,-3.06,-22.458,-15.357
-8.745,-10.917,-4.268,-12.282,-6.574,-6.314,-26.384,-17.446
-10.845,-12.589,-5.933,-11.926,-8.798,-6.627,-23.825,-15.759
-9.435,-9.498,-1.599,-7.032,-5.16,-1.94,-14.757,-8.729
-4.682,-4.816,5.854,-1.666,2.379,3.38,-7.012,-0.606
-1.084,-3.361,9.242,0.167,6.341,5.651,-4.308,3.456
1.034,-2.503,9.407,1.319,6.893,7.529,-1.064,4.988
3.925,1.313,11.113,4.36,8.827,10.707,5.352,6.621
6.301,4.164,12.697,6.132,10.46,11.771,9.217,5.729
7.091,3.555,12.005,5.793,9.384,10.53,8.187,2.035
6.261,3.774,12.2,7.252,9.053,11.43,7.762,1.238
3.455,6.93,14.862,11.393,11.606,15.182,12.584,5.789
1.469,9.004,16.699,14.133,13.715,17.355,19.801,10.149
2.76,7.528,15.182,12.468,12.373,15.06,23.396,8.593
4.99,5.923,12.027,8.825,9.153,11.169,22.812,3.332
6.497,6.706,10.33,7.723,7.525,10.389,22.582,0.949
8.654,7.631,10.862,9.482,8.72,12.747,25.676,3.433
11.848,8.408,12.899,11.853,11.858,15.68,30.9,8.299
15.21,12.47,16.842,15.869,16.38,20.167,36.129,14.622
17.682,18.966,22.46,22.112,21.624,26.613,40.193,21.513
18.139,22.112,26.294,25.646,25.029,29.854,41.486,24.501
16.958,20.153,24.97,22.818,23.89,26.489,39.813,20.503
16.469,17.674,20.032,17.33,19.266,20.701,38.091,13.486
18.583,18.315,16.037,14.591,15.222,18.155,39.282,10.497
21.222,20.446,14.344,14.699,13.337,18.916,42.701,12.424
20.687,21.1,12.724,14.158,11.689,19.076,44.751,13.598
17.937,19.606,10.223,11.751,9.108,17.102,43.283,11.45
15.915,16.674,8.069,9.508,6.533,15.135,39.185,9.307
14.577,14.021,7.162,9.285,5.146,14.834,35.609,9.267
13.899,14.019,7.367,10.81,5.295,15.658,34.775,9.611
15.165,16.824,8.283,12.232,6.57,16.356,34.247,8.293
18.365,20.682,10.517,12.784,9.308,16.655,32.722,6.189
21.877,24.005,14.738,13.746,13.95,17.275,33.495,6.945
22.867,23.92,18.017,14.319,17.27,17.048,35.696,10.462
20.457,19.379,17.053,12.283,16.109,14.386,34.722,11.894
18.756,15.424,14.858,9.96,13.97,12.066,31.524,10.567
20.996,16.195,15.898,10.932,15.145,13.278,29.359,10.082
23.621,18.863,18.467,13.39,17.66,15.945,26.883,10.86
21.7,19.197,18.639,13.711,17.99,16.651,22.552,11.277
16.547,16.352,16.562,12.166,16.266,15.365,18.696,11.758
13.109,11.464,14.48,10.599,14.159,13.176,16.4,12.266
12.156,6.743,12.477,8.778,11.88,10.119,13.542,10.646
10.637,4.651,10.115,6.784,9.615,7.57,10.24,7.307
8.308,5.492,9.205,6.559,9.28,7.816,9.72,5.91
7.774,7.655,10.555,8.171,11.323,9.876,12.521,7.061
9.8,9.636,11.607,8.96,12.706,10.478,15.462,7.751
13.469,10.834,11.687,8.57,12.492,9.544,17.346,8.135
17.579,11.933,13.974,10.284,14.249,10.51,19.87,11.224
19.487,12.843,17.779,13.731,17.873,13.212,22.717,14.827
16.634,10.95,17.461,13.129,17.774,12.308,22.936,14.045
10.173,5.283,12.249,7.636,12.895,7.004,19.078,10.984
5.796,0.788,8.626,4.695,9.48,4.378,14.126,11.492
8.913,3.755,11.541,9.299,12.335,9.12,14.106,16.346
15.926,11.335,16.62,15.627,17.131,15.388,20.125,20.239
17.212,13.019,14.968,14.183,15.359,13.864,24.415,17.073
13.08,7.743,7.785,7.016,8.388,6.769,23.79,9.337
12.938,6.617,5.559,5.694,6.098,5.787,26.895,7.071
17.276,12.949,10.099,12.062,9.894,12.658,36.221,12.246
18.316,17.006,12.948,15.723,12.084,16.546,40.885,16.012
15.519,14.596,11.184,12.218,10.634,12.732,35.699,13.783
13.924,12.13,8.984,7.823,9.281,7.882,28.202,9.639
13.565,11.892,7.219,6.076,7.822,5.973,23.818,6.532
13.514,11.006,5.394,5.705,5.705,5.596,21.038,4.542
17.626,12.471,7.514,8.991,7.602,8.943,21.274,6.115
26.128,19.354,14.327,16.901,14.334,17.381,27.195,12.062
31.875,25.688,19.031,23.229,18.702,24.628,34.118,17.56
31.318,26.284,18.212,23.547,17.414,25.272,36.516,19.024
28.317,23.888,15.747,20.165,14.966,21.211,35.484,17.483
27.032,22.596,15.489,17.549,15.243,17.613,35.204,15.696
29.081,24.687,19.019,20.069,19.159,19.282,39.431,17.856
32.682,29.442,25.188,27.575,25.331,26.247,47.477,25.011
33.296,32.076,29.237,32.912,29.234,31.875,53.435,30.518
29.769,29.799,27.477,30.81,27.149,30.473,52.751,28.009
25.464,25.321,21.687,24.526,20.944,24.129,45.64,20.232
23.093,23.009,17.742,20.995,16.96,20.009,36.789,15.54
22.633,24.408,18.798,22.36,18.451,21.197,32.259,17.133
21.575,25.83,20.424,23.391,20.653,22.419,32.03,19.021
16.912,21.898,16.904,18.703,17.614,18.092,29.727,15.054
9.703,12.825,9.449,9.904,10.447,9.785,22.578,7.027
5.607,5.415,4.135,3.147,5.233,2.955,15.887,1.108
7.451,4.299,3.723,1.659,4.763,0.555,14.97,0.087
10.017,5.576,4.459,2.564,5.241,0.84,18.096,0.96
8.742,5.373,3.267,2.49,3.69,1.092,21.126,1.095
8.003,7.588,3.395,3.492,3.629,2.448,24.137,3.163
10.99,13.829,7.084,8.11,7.345,6.941,28.809,8.666
11.61,16.594,9.654,12.514,9.948,11.23,33.594,12.787
6.14,11.616,7.191,11.667,7.554,10.142,34.987,11.632
0.779,5.449,2.683,7.319,3.366,5.03,31.637,7.748
1.145,4.826,0.557,4.992,1.628,2.173,27.293,5.392
4.271,7.965,0.835,5.834,1.975,3.558,27.036,5.342
4.61,9.422,0.585,5.989,1.552,4.705,29.387,5.506
1.451,7.298,-1.204,3.489,-0.27,2.646,28.582,4.974
-2.963,2.659,-3.181,0.441,-2.056,-0.441,23.239,4.434
-7.298,-2.695,-4.981,-1.5,-3.756,-2.472,17.61,3.415
-9.486,-4.955,-6.159,-1.765,-5.252,-2.903,16.574,2.382
-7.279,-1.634,-4.839,1.036,-4.488,-0.21,20.87,4.257
-1.402,4.795,-0.615,7.424,-0.511,6.565,27.246,10.319
5.424,10.417,4.061,14.346,4.222,14.17,30.852,17.277
8.745,11.563,4.959,15.155,5.102,15.117,25.215,18.268
4.515,6.072,0.162,6.579,0.416,5.787,7.679,9.899
-2.829,-1.459,-5.55,-4.194,-4.856,-6.059,-12.328,-0.977
-3.634,-2.615,-5.65,-7.001,-4.569,-9.453,-20.254,-4.632
1.507,3.055,-1.139,-1.794,0.035,-4.052,-12.494,-0.763
2.519,6.07,0.763,2.535,1.686,0.882,1.208,3.061
-2.489,1.628,-2.197,1.218,-1.857,-0.086,10.986,2.761
-4.111,-1.541,-3.089,-0.486,-3.317,-2.075,17.17,2.132
2.162,3.97,2.689,2.428,2.269,0.125,23.661,4.784
10.121,11.795,9.626,6.407,9.476,3.427,27.671,7.899
14.229,14.478,12.277,7.79,12.685,4.45,25.105,8.731
14.348,14.149,12.409,8.869,13.272,5.526,20.033,9.254
11.958,13.857,12.299,10.525,13.331,7.29,20.101,10.044
8.896,11.429,11.165,9.787,12.236,6.409,25.151,8.538
5.55,5.397,8.419,6.208,9.532,2.491,27.741,4.983
1.472,-0.525,5.251,3.318,6.448,-0.596,25.895,2.928
-0.89,-1.708,3.736,3.528,4.99,-0.299,25.362,4.146
0.72,1.142,4.674,5.35,5.828,1.965,28.142,7.303
3.238,3.192,6.64,6.952,7.74,4.436,30.128,10.711
2.902,2.432,8.177,8.795,9.575,7.174,29.374,13.508
1.462,1.679,9.505,11.122,11.187,9.895,28.41,14.935
1.489,2.28,10.788,12.603,12.258,11.486,28.592,14.776
0.902,0.835,10.499,12.011,11.745,11.028,27.758,13.929
-2.569,-4.126,7.403,9.516,8.917,8.287,24.878,12.859
-6.739,-8.044,3.302,6.948,5.071,5.013,22.799,11.24
-7.022,-6.205,2.726,7.692,4.33,5.431,26.043,11.452
-1.868,0.488,7.875,13.391,9.164,11.627,35.553,16.553
4.613,7.191,14.803,20.053,15.734,19.078,44.904,23.234
8.824,11.445,19.868,23.763,20.448,23.326,48.647,26.963
11.715,14.748,24.404,26.159,24.98,26.079,50.241,29.623
12.33,16.343,27.252,27.134,28.217,27.359,51.701,31.81
8.086,13.086,24.529,23.171,25.832,23.304,48.029,29.577
2.317,7.015,18.427,16.522,19.684,16.176,39.235,23.66
-0.197,3.018,14.097,13.137,15.073,12.633,31.953,18.821
-0.682,1.502,12.359,13.175,13.087,12.792,29.049,16.421
-1.387,1.09,12.561,13.271,13.124,12.646,28.585,15.74
-0.368,2.207,15.114,13.262,15.598,12.292,27.658,16.689
4.076,4.789,19.025,14.747,19.526,13.84,25.282,18.607
8.638,7.505,21.868,17.07,22.42,16.219,23.914,20.003
8.441,8.679,21.685,17.607,22.252,16.343,24.053,19.046
3.615,6.828,18.059,14.869,18.531,13.384,22.438,15.14
-1.383,1.99,12.376,10.079,12.682,9.148,18.219,10.051
-3.086,-2.574,7.817,6.644,8.179,6.139,14.192,6.619
-1.33,-2.184,7.414,7.705,8.091,6.815,13.216,7.235
0.791,2.196,9.251,11.254,10.005,10.067,15.708,10.892
0.693,3.96,8.591,12.037,9.167,11.087,19.761,12.903
0.227,1.468,5.797,10.002,6.59,9.102,22.876,11.171
1.709,0.429,4.974,9.788,6.331,8.749,23.227,9.463
4.127,4.969,7.647,13.159,9.133,12.293,21.849,11.96
5.219,11.524,11.074,16.058,12.023,15.254,20.596,16.14
4.104,13.149,11.344,14.211,11.651,13.014,18.817,16.176
2.572,9.834,9.276,10.845,9.535,9.522,18.248,13.417
1.273,7.124,7.915,10.69,8.689,9.946,21.847,12.795
-2.401,5.103,5.672,10.698,6.636,10.638,25.151,12.549
-7.764,0.073,0.609,7,1.175,7.211,22.108,9.053
-10.43,-6.313,-4.369,2.224,-3.861,2.453,15.993,4.353
-9.746,-8.468,-5.469,0.755,-4.51,1.117,13.647,2.945
-9.278,-5.523,-3.08,2.91,-2.142,3.769,14.603,5.999
-11.612,-3.505,-1.678,4.516,-1.215,6.314,13.469,10.087
-16.039,-7.24,-3.816,2.224,-3.318,5.101,8.728,11.595
-20.296,-14.101,-6.829,-1.755,-5.755,1.823,3.685,11.139
-23.991,-19.667,-8.94,-4.19,-7.309,-0.446,0.058,10.705
-28.613,-23.967,-12.134,-6.299,-10.145,-2.859,-3.543,9.342
-32.048,-26.52,-15.375,-8.585,-13.355,-5.897,-5.228,6.274
-28.668,-23.534,-14.199,-7.302,-12.589,-5.35,-0.253,4.533
-18.495,-14.674,-8.342,-0.914,-7.348,0.869,11.193,7.47
-8.888,-4.718,-1.566,7.046,-1.148,8.994,23.944,14.285
-6.065,0.527,2.366,11.109,2.226,13.009,32.658,19.422
-9.218,-2.06,0.79,8.054,0.091,9.813,34.394,17.945
-10.852,-7.188,-2.987,2.982,-4.158,4.979,32.403,13.996
-5.413,-4.637,-0.976,5.158,-2.474,7.596,34.548,16.495
1.215,4.442,5.373,12.521,3.684,14.942,39.547,23.213
0.589,7.548,5.919,13.747,4.062,15.671,36.158,22.628
-2.76,2.864,1.319,8.415,-0.547,9.757,25.296,14.351
1.353,2.7,2.61,7.683,1.295,8.101,21.632,10.918
11.306,11.222,11.55,14.957,11.002,14.094,28.95,17.276
16.949,17.778,18.965,21.478,18.448,20.09,36.655,24.007
15.945,15.706,20.226,21.149,19.168,20.276,38.398,23.623
13.646,10.773,18.95,17.172,17.906,16.546,36.452,19.635
10.689,7.349,17.038,12.507,16.624,11.184,31.97,15.852
4.904,2.476,12.6,5.998,12.491,3.84,24.125,10.456
-0.831,-4.655,6.43,-1.454,6.267,-3.685,14.881,2.981
-3.069,-10.317,2.028,-6.829,2.243,-8.376,7.512,-2.94
-2.901,-12.703,0.613,-9.551,1.599,-10.297,3.535,-4.553
-3.346,-13.875,0.053,-11.064,1.332,-11.264,1.496,-3.276
-5.834,-15.532,-1.478,-12.247,-0.636,-11.92,-1.346,-2.395
-8.604,-16.307,-3.067,-13.31,-2.59,-12.368,-4.758,-3.351
-8.911,-14.904,-3.73,-14.314,-3.023,-13.052,-6.391,-5.458
-8.181,-13.227,-4.571,-15.002,-3.584,-13.835,-7.125,-7.69
-10.21,-13.465,-5.99,-14.769,-5.117,-13.66,-9.904,-9.054
-13.11,-13.462,-5.698,-12.083,-4.854,-10.527,-12.127,-7.53
-10.967,-8.98,-1.583,-5.181,-0.307,-2.817,-7.01,-0.781
-4.696,-2.007,3.774,3.078,5.453,5.749,3.718,8.428
-2.721,-0.774,3.873,4.806,5.47,6.969,8.418,10.768
-8.797,-7.519,-3.002,-2.118,-1.719,-0.328,1.157,2.459
-16.779,-14.594,-10.231,-9.545,-9.153,-7.467,-10.142,-7
-18.493,-14.614,-10.761,-8.995,-9.807,-6.749,-13.146,-6.431
-11.768,-6.596,-3.547,0.761,-2.716,2.539,-4.506,4.931
-2.574,3.799,5.94,13.266,6.719,14.501,6.733,18.122
0.188,7.269,9.412,18.865,10.096,20.023,9.553,22.518
-6.06,0.327,3.39,13.657,3.699,15.134,1.749,15.139
-16.104,-11.071,-7.827,2.356,-8.035,4.436,-11.441,2.407
-22.992,-18.773,-16.56,-7.133,-17.211,-4.346,-22.514,-6.983
-23.537,-19.17,-18.059,-9.876,-19.062,-6.678,-26.48,-9.256
-20.8,-15.548,-14.567,-7.483,-15.572,-4.168,-26.015,-7.006
-19.256,-13.234,-11.059,-4.408,-11.611,-0.922,-25.772,-3.69
-17.829,-11.077,-7.835,-0.902,-8.112,3.006,-23.797,1.185
-14.696,-5.969,-4.009,3.845,-4.598,8.473,-19.311,7.34
-14.654,-3.19,-3.644,5.025,-4.679,10.499,-19.492,9.415
-21.369,-9.211,-9.59,-1.422,-10.891,4.896,-28.115,3.949
-28.924,-18.791,-16.808,-9.965,-18.375,-2.848,-38.648,-4.084
-29.339,-21.101,-18.204,-11.786,-20.073,-4.558,-43.202,-7.157
-21.982,-14.353,-13.132,-6.161,-15.305,0.274,-39.739,-4.444
-11.481,-4.537,-5.498,2.009,-8.067,8.017,-30.506,0.97
-1.802,4.735,2.436,10.333,-0.481,16.792,-19.365,8.56
3.792,10.659,7.773,15.629,4.779,21.963,-11.894,14.471
2.282,8.137,5.497,11.972,2.461,17.019,-13.552,10.358
-4.886,-2.197,-3.515,0.814,-6.806,4.986,-22.984,-2.65
-10.903,-11.212,-10.536,-7.216,-13.92,-2.497,-30.982,-12.177
-10.402,-12.045,-9.845,-5.747,-12.914,-0.132,-31.185,-11.241
-5.656,-7.191,-5.231,0.357,-7.993,6.178,-26.569,-5.276
-2.462,-2.657,-2.455,3.186,-5.184,8.62,-23.312,-2.008
-1.941,-1.216,-2.176,0.789,-4.878,5.348,-24.043,-3.01
-1.504,-1.881,-2.902,-2.837,-5.368,0.817,-26.523,-4.78
-0.084,-2.329,-3.896,-3.755,-6.127,-0.122,-26.915,-4.23
1.849,-2.264,-3.841,-2.526,-6.089,1.501,-24.905,-2.482
2.853,-3.614,-2.382,-2.916,-4.723,0.583,-24.199,-3.017
0.539,-7.38,-2.641,-7.483,-4.788,-5.103,-27.901,-7.589
-3.72,-11.663,-6.48,-14.037,-8.013,-11.876,-34.101,-13.914
-3.457,-12.288,-9.025,-16.618,-9.757,-13.671,-36.535,-16.395
3.414,-7.496,-5.234,-12.103,-5.519,-8.529,-31.969,-11.984
8.632,-2.432,0.092,-5.566,-0.349,-1.739,-26.469,-5.742
6.144,-2.471,-0.339,-3.578,-1.117,0.776,-26.47,-3.715
4.233,-3.286,-2.166,-3.371,-3.13,1.355,-26.383,-2.47
10.952,1.663,2.104,0.567,0.947,4.663,-19.55,2.616
18.236,8.164,7.608,4.324,6.248,7.339,-12.609,6.714
16.76,8.069,6.076,1.839,4.722,4.323,-14.091,4.65
11.049,2.194,-0.453,-4.341,-1.508,-1.781,-21.133,-1.151
7.182,-3.636,-6.334,-9.478,-6.866,-6.54,-26.889,-7.424
3.347,-7.38,-11.027,-13.814,-11.125,-10.54,-29.384,-13.645
-0.153,-8.531,-13.982,-16.994,-13.963,-13.81,-28.347,-17.142
0.971,-6.054,-12.175,-15.706,-11.944,-12.744,-24.067,-13.874
5.47,-1.645,-6.001,-9.914,-5.092,-6.747,-19.073,-4.873
7.96,2.152,0.672,-3.592,2.109,0.013,-14.463,4.166
6.047,4.176,3.822,-1.154,4.94,2.572,-11.176,7.428
1.462,3.279,0.804,-4.788,1.37,-1.502,-12.201,2.373
-2.011,0.198,-5.589,-10.686,-5.018,-8.141,-15.94,-6.393
-1.683,-1.189,-8.074,-11.174,-7.556,-9.17,-15.75,-9.613
2.351,2.697,-3.806,-3.578,-3.943,-1.975,-9.568,-3.69
7.188,10.486,2.024,6.269,1.357,7.17,-3.285,4.481
9.3,16.275,3.846,11.08,3.203,11.173,-1.975,6.941
8.495,17.004,2.526,10.21,2.079,9.99,-3.546,5.045
6.575,15.102,0.925,7.405,0.652,7.125,-5.017,3.284
4.174,13.014,-0.946,4.55,-1.162,3.651,-6.576,1.015
2.68,11.112,-2.227,2.611,-2.572,0.923,-7.467,-1.923
4.919,10.37,-0.161,3.702,-0.583,2.372,-6.109,-1.783
10.602,12.059,4.188,7.602,3.87,7.41,-3.746,2.377
13.493,13.697,5.13,9.671,4.968,9.558,-4.039,5.429
8.653,10.585,0.637,6.652,0.656,5.552,-8.082,3.291
1.565,4.168,-2.827,2.869,-2.579,1.611,-10.592,0.559
0.53,0.862,-0.027,3.952,0.488,3.758,-6.684,3.06
3.342,0.918,3.714,6.474,4.348,6.8,-1.636,5.887
3.039,-0.833,2.115,4.037,2.371,3.508,-3.112,1.802
-0.076,-4.673,-1.463,-1.165,-1.793,-2.653,-7.964,-4.667
-2.531,-7.656,-2.724,-3.985,-3.01,-5.73,-10.076,-5.79
-4.598,-10.271,-4.177,-5.271,-3.875,-6.959,-11.968,-4.133
-5.857,-12.315,-6.723,-6.463,-6.146,-7.506,-16.387,-5.024
-2.937,-10.033,-5.916,-5.242,-5.604,-4.944,-18.026,-5.816
3.516,-3.793,-1.853,-2.555,-1.988,-1.723,-14.535,-3.63
8.357,0.873,-0.332,-2.64,-0.814,-2.786,-12.874,-2.53
11.058,3.428,-0.872,-3.187,-1.537,-4.54,-15.205,-3.612
14.413,8.012,2.179,0.765,1.4,-1.355,-15.394,-2.201
17.407,13.901,8.387,6.831,7.595,4.045,-12.156,1.928
19.408,16.955,13.638,10.439,13.118,7.254,-8.973,5.077
21.23,15.248,15.539,10.267,15.488,6.759,-7.816,5.428
20.35,9.557,12.508,6.354,12.801,2.131,-10.139,2.713
15.781,4.096,6.612,1.553,6.985,-2.925,-14.428,-1.173
11.43,3.14,3.246,-0.047,3.491,-3.519,-15.803,-3.043
9.548,4.991,3.599,1.096,3.689,-1.045,-14.068,-2.609
8.03,4.644,3.038,0.642,3.142,-0.849,-15.313,-2.976
5.218,0.536,-1.451,-3.782,-1.273,-5.108,-21.962,-6.886
3.616,-4.121,-5.998,-8.869,-5.783,-10.081,-27.644,-12.173
6.011,-5.778,-5.861,-9.831,-5.381,-10.846,-26.31,-13.487
8.544,-5.812,-3.907,-8.427,-2.914,-9.224,-22.058,-11.362
5.872,-7.168,-5.203,-9.179,-3.846,-9.952,-22.35,-11.349
1.427,-8.004,-7.707,-10.361,-6.415,-11.4,-25.557,-13.309
0.754,-6.447,-7.792,-9.045,-6.936,-10.447,-25.931,-13.388
1.264,-5.764,-7.91,-8.387,-7.51,-9.882,-24.645,-13.146
-0.64,-8.25,-10.941,-11.578,-10.744,-12.677,-25.904,-16.154
-2.237,-10.718,-13.944,-15.515,-13.838,-16.148,-28.666,-20.136
-1.805,-11.001,-13.788,-16.636,-13.723,-17.446,-29.47,-20.555
-2.487,-11.793,-12.607,-16.529,-12.332,-17.931,-28.972,-17.871
-4.926,-14.093,-13.178,-17.071,-12.547,-18.485,-29.447,-15.435
-6.689,-16.374,-15.886,-18.454,-15.067,-19.325,-30.777,-15.823
-7.479,-18.795,-19.755,-21.523,-18.716,-22.155,-32.241,-19.941
-7.126,-19.714,-21.359,-24.398,-19.731,-25.135,-31.981,-23.911
-5.79,-17.788,-19.444,-25.058,-17.316,-26.111,-29.665,-24.153
-6.616,-17.495,-18.744,-26.393,-16.875,-28.245,-30.504,-24.644
-9.152,-19.56,-20.372,-27.645,-19.147,-30.213,-34.977,-26.512
-7.602,-17.08,-18.437,-22.935,-17.399,-25.414,-34.137,-22.559
-1.935,-9.867,-12.767,-15.053,-11.557,-17.105,-26.021,-13.629
0.38,-6.619,-11.451,-13.977,-10.244,-15.882,-21.709,-11.493
-3.004,-10.173,-17.017,-20.601,-15.825,-22.609,-27.299,-18.939
-7.188,-14.909,-23.391,-27.15,-21.939,-29.422,-35.482,-26.574
-10.828,-17.829,-27.276,-30.946,-25.624,-33.602,-39.834,-30.121
-14.008,-18.773,-28.348,-32.342,-26.8,-35.505,-39.76,-30.693
-11.102,-14.485,-22.725,-26.255,-21.229,-30.037,-32.361,-24.02
-1.499,-5.865,-11.166,-12.421,-9.435,-16.547,-18.605,-9.986
5.701,-0.46,-2.891,-1.362,-0.916,-5.236,-9.149,0.459
6.245,-0.355,-1.997,0.556,-0.016,-2.798,-10.48,1.028
4.291,-1.592,-4.327,-3.22,-2.509,-6.516,-17.448,-3.992
2.673,-3.315,-6.938,-8.224,-5.3,-12.239,-23.372,-9.31
0.78,-6.512,-9.526,-12.222,-7.872,-17.002,-26.894,-12.437
-2.35,-10.362,-12.319,-15.036,-10.429,-19.966,-30.32,-14.673
-6.064,-13.515,-15.705,-17.773,-13.786,-22.554,-35.013,-18.851
-7.219,-14.321,-17.671,-19.024,-16.122,-23.431,-37.464,-21.843
-4.354,-11.892,-15.571,-16.202,-14.222,-19.793,-33.958,-18.069
-1.091,-8.35,-11.452,-11.242,-9.801,-14.129,-27.264,-10.697
-0.155,-6.509,-9.121,-8.389,-7.322,-11.152,-22.364,-7.443
0.195,-6.242,-8.863,-8.121,-7.539,-10.952,-20.152,-8.503
0.021,-6.14,-10.204,-8.952,-9.309,-11.661,-19.793,-9.434
-2.549,-6.25,-12.954,-10.505,-11.866,-13.059,-21.974,-9.674
-4.508,-6.268,-13.45,-10.948,-12.017,-13.748,-25.198,-9.693
-0.909,-4.15,-8.016,-7.197,-6.588,-10.764,-23.984,-6.567
5.448,-0.374,-0.159,-0.883,1.067,-5.153,-17.625,-0.047
6.936,0.706,2.908,1.665,4.095,-2.61,-14.103,3.538
4.232,-1.511,0.261,-1.139,1.588,-4.824,-17.9,0.677
4.832,-1.808,-2.64,-3.979,-1.324,-7.328,-23.048,-3.582
8.904,1.594,-2.6,-4.159,-1.437,-8.121,-24.05,-4.38
9.378,2.971,-2.697,-5.247,-1.351,-10.115,-24.282,-4.28
3.366,-2.532,-7.041,-9.983,-5.237,-14.814,-28.238,-8.116
-5.066,-10.744,-13.512,-15.329,-11.795,-19.33,-33.492,-14.646
-9.582,-13.36,-16.236,-16.825,-15.261,-20.351,-35.806,-18.132
-7.612,-9.329,-14.303,-14.614,-13.749,-18.271,-35.186,-16.679
-3.082,-4.688,-11.24,-11.623,-10.596,-15.556,-32.798,-12.931
0.164,-2.211,-8.191,-8.692,-7.749,-12.906,-28.174,-8.611
2.078,-0.603,-5.464,-6.55,-5.475,-10.813,-23.061,-5.545
0.443,-1.498,-6.699,-8.799,-6.657,-12.64,-22.502,-7.951
-6.266,-5.794,-12.546,-15.688,-11.997,-19.14,-27.446,-15.609
-11.003,-8.134,-15.644,-19.833,-14.893,-23.377,-31.661,-20.789
-7.583,-5.027,-10.876,-16.322,-10.421,-20.337,-30.824,-18.79
-2.324,-1.763,-4.468,-11.153,-4.107,-15.907,-29.434,-14.518
-5.274,-4.971,-5.717,-13.152,-4.948,-18.481,-34.168,-15.704
-16.887,-14.504,-15.581,-23.299,-14.571,-28.497,-44.719,-25.07
-29.192,-25.512,-27.212,-34.867,-26.438,-39.652,-54.729,-37.256
-34.655,-32.685,-32.978,-39.703,-32.306,-44.521,-58.401,-42.299
-32.043,-32.545,-30.209,-34.927,-29.219,-39.934,-54.44,-36.515
-25.994,-26.335,-22.461,-25.053,-21.199,-29.905,-45.094,-25.601
-20.929,-18.807,-15.172,-16.246,-14.071,-20.946,-34.248,-15.833
-17.64,-13.565,-11.458,-10.935,-10.888,-15.655,-27.055,-10.205
-17.139,-12.069,-12.204,-9.401,-12.164,-13.611,-26.375,-10.526
-21.144,-14.046,-16.5,-11.956,-16.558,-14.999,-29.47,-15.71
-25.45,-15.75,-20.016,-16.133,-19.71,-18.518,-30.671,-19.763
-23.247,-13.332,-18.18,-17.067,-17.421,-19.927,-27.353,-17.661
-16.389,-9.487,-13.077,-14.092,-12.017,-17.582,-22.436,-12.111
-11.607,-9.547,-10.643,-11.37,-9.374,-14.897,-19.384,-9.236
-11.843,-14.482,-13.122,-12.868,-11.605,-16.372,-19.984,-11.874
-17.081,-21.705,-18.191,-18.414,-16.389,-22.107,-24.582,-18.071
-23.701,-26.813,-21.893,-23.057,-19.936,-26.549,-29.548,-22.662
-27.031,-27.045,-22.911,-24.056,-20.979,-26.962,-32.501,-23.83
-27.495,-24.395,-22.442,-23.442,-20.542,-26.262,-34.285,-23.805
-26.79,-21.623,-20.513,-21.5,-18.685,-24.915,-32.564,-22.165
-23.813,-19.057,-17.32,-17.447,-15.731,-21.229,-26.063,-17.381
-18.051,-15.717,-13.493,-12.558,-12,-15.928,-18.781,-11.159
-11.59,-11.086,-8.508,-7.999,-6.836,-10.657,-14.05,-6.862
-7.128,-6.246,-2.957,-4.474,-1.308,-6.856,-12.479,-5.866
-3.049,-0.937,3.143,-0.67,4.418,-3.527,-11.823,-4.25
4.873,6.658,11.856,6.867,12.849,3.048,-7.645,2.744
13.094,13.42,20.563,16.396,21.66,11.892,-0.823,12.257
14.137,14.215,22.878,20.813,24.332,16.303,1.986,17.292
8.642,9.811,17.188,16.501,18.768,12.26,-2.229,14.518
0.282,2.061,5.612,5.133,6.843,1.088,-11.628,4.09
-9.926,-9.1,-8.163,-8.606,-7.351,-12.53,-23.517,-10.269
-19.178,-20.068,-18.269,-18.682,-17.664,-22.597,-34.007,-21.266
-25.132,-26.428,-21.937,-22.927,-21.426,-26.943,-39.891,-24.326
-29.974,-29.251,-22.199,-24.643,-21.47,-28.864,-41.793,-22.178
-35.879,-31.709,-23.183,-27.051,-21.77,-31.47,-42.404,-20.996
-40.771,-34.033,-25.702,-29.556,-23.797,-33.688,-43.12,-22.962
-40.943,-34.639,-27.168,-29.506,-25.564,-32.767,-42.557,-24.627
-35.466,-32.114,-25.464,-25.959,-24.482,-28.536,-37.486,-22.744
-27.158,-25.75,-21.158,-20.757,-20.408,-23.14,-26.756,-18.089
-19.527,-16.888,-15.294,-15.156,-14.519,-17.061,-13.979,-12.688
-14.002,-9.145,-9.6,-9.478,-9.084,-10.442,-4.243,-8.165
-10.972,-5.472,-7.707,-6.532,-7.642,-7.239,0.749,-6.729
-11.469,-6.177,-11.665,-9.176,-11.678,-10.799,1.721,-9.747
-16.408,-10.784,-19.569,-15.845,-19.278,-18.192,-1.269,-16.103
-22.194,-16.004,-25.526,-20.63,-24.974,-22.602,-4.848,-20.594
-20.147,-13.487,-21.944,-16.955,-21.267,-18.452,-0.438,-15.918
-8.546,-1.243,-9.367,-5.494,-8.538,-7.053,12.979,-3.089
1.728,9.495,0.734,4.211,1.692,2.695,23.588,6.865
3.313,9.973,1.294,5.994,2.198,4.785,24.262,7.741
1.539,4.387,-2.593,3.259,-1.827,2.152,21,3.69
0.572,-0.836,-5.935,-0.563,-5.249,-1.775,19.766,-1.331
-1.827,-3.733,-8.978,-5.363,-8.35,-6.5,20.823,-6.392
-3.643,-2.956,-10.198,-8.395,-9.591,-9.081,24.026,-8.66
-2.033,-0.236,-9.063,-8.178,-8.449,-8.331,27.285,-7.109
-2.053,-1.6,-10.085,-9.083,-9.549,-9.186,25.89,-6.518
-7.201,-8.04,-14.859,-13.606,-14.391,-14.339,19.531,-11.273
-11.933,-13.275,-18.675,-17.978,-18.08,-19.703,13.431,-18.743
-9.925,-11.817,-16.516,-16.894,-15.885,-19.511,12.985,-21.01
-0.894,-2.617,-7.189,-8.149,-6.999,-11.235,20.153,-13.712
9.964,9.995,4.581,3.763,4.255,0.685,30.343,-2.718
15.675,17.741,10.882,10.105,10.639,7.194,35.892,2.783
13.871,16.827,9.973,8.65,10.259,5.634,36.379,2.406
9.623,12.328,8.404,6.661,8.999,3.286,37.85,2.692
10.067,12.091,11.518,10.124,11.925,6.309,42.739,6.56
15.659,17.608,16.494,15.903,16.236,11.451,48.391,11.056
18.859,22.059,16.871,17.637,15.717,12.68,51.766,12.558
15.367,20.229,12.236,14.927,10.588,10.254,50.939,10.696
10.273,15.603,8.697,12.258,7.271,8.371,46.531,8.091
9.123,13.941,10.037,12.83,9.15,9.522,44.051,8.01
11.655,15.608,13.467,15.798,13.022,12.987,47.738,10.617
13.472,15.684,12.539,15.482,12.31,13.362,50.425,10.228
9.252,10.079,3.72,6.815,3.387,5.191,41.829,1.632
-0.045,1.888,-7.456,-5.277,-8.113,-6.897,27.744,-9.9
-4.744,-0.782,-10.999,-9.803,-11.73,-11.556,24.073,-13.265
1.048,4.723,-4.717,-4.359,-5.142,-6.117,32.336,-6.673
10.07,11.762,3.908,2.963,3.578,1.185,39.289,1.209
12.727,14.076,7.85,5.681,7.171,4.124,38.036,4.19
9.091,12.335,6.544,4.368,5.597,3.799,33.778,2.98
3.893,8.908,2.923,1.517,2.042,2.32,31.474,-0.489
-1.248,4.221,-0.94,-1.898,-1.777,-0.307,28.383,-5.219
-5.794,-0.671,-4.447,-4.623,-5.58,-2.849,21.015,-9.14
-7.744,-3.372,-6.032,-4.679,-7.632,-2.811,13.082,-9.402
-7.439,-3.991,-4.958,-3.204,-6.773,-1.576,8.538,-7.087
-9.045,-6.5,-5.23,-4.893,-6.94,-3.887,2.989,-8.404
-13.882,-12.304,-9.541,-10.498,-11.293,-9.792,-6.845,-14.902
-15.842,-15.376,-11.903,-12.56,-14.215,-11.654,-12.326,-17.379
-8.782,-8.991,-5.554,-4.451,-8.677,-3.14,-4.746,-8.388
2.813,3.306,4.966,8.174,1.217,10.178,8.831,5.117
7.113,9.295,8.593,12.416,4.642,15.495,14.917,10.777
0.142,3.566,2.832,4.801,-0.669,9.003,11.751,6.248
-9.08,-5.831,-4.243,-5.164,-6.897,-0.19,7.622,-1.431
-11.103,-9.359,-5.803,-8.211,-7.984,-2.876,8.008,-5.418
-7.916,-6.931,-3.294,-5.065,-5.501,0.366,11.383,-4.581
-6.786,-4.443,-1.136,-1.81,-3.445,3.433,14.718,-2.25
-6.82,-3.636,1.364,0.486,-1.218,5.267,18.996,0.594
-2.981,-1.59,6.623,4.52,3.534,9.081,25.66,5.394
0.846,-0.142,10.402,6.906,7.107,11.683,30.048,8.212
-1.944,-3.494,7.57,2.679,4.489,7.667,27.644,4.048
-7.778,-7.764,1.13,-3.789,-1.692,1.555,22.634,-2.98
-8.983,-6.457,-2.295,-4.724,-4.802,1.372,20.95,-4.904
-4.584,-0.714,0.222,0.391,-1.822,6.928,23.275,0.011
1.529,4.696,6.118,6.568,4.402,12.879,28.55,7.187
7.033,8.507,10.756,10.593,8.811,16.52,35.029,11.711
10.985,11.23,12.623,12.326,9.902,17.671,38.386,12.322
10.396,11.648,12.391,11.388,9.093,15.646,35.276,9.795
4.819,9.23,10.351,8.27,7.138,11.547,28.768,5.534
0.654,6.354,7.77,6.035,4.894,9.11,25.509,2.314
2.609,5.543,7.151,6.868,4.576,10.064,27.826,2.361
6.674,7.125,8.973,9.619,6.728,12.593,32.044,4.579
6.877,8.766,9.312,10.607,7.206,13.312,32.888,4.983
3.544,7.118,4.576,6.769,2.152,9.588,29.708,1.055
0.029,2.295,-2.51,-0.394,-5.465,2.606,26.986,-5.187
-3.33,-1.622,-6.213,-5.551,-9.476,-2.697,27.217,-9.579
-4.79,-0.957,-4.331,-4.565,-7.59,-2.189,29.177,-9.178
0.437,4.864,1.156,2.047,-1.882,3.777,32.402,-3.909
10.023,12.815,6.935,9.898,4.249,11.311,36.956,2.907
14.516,17.77,10.285,14.477,7.907,16.28,40.187,6.818
11.14,17.078,9.791,14.125,7.571,16.335,39.17,6.094
6.535,13.484,6.45,10.521,4.33,12.419,35.526,3.176
5.655,11.604,3.601,7.464,1.575,8.911,32.338,2.11
6.042,11.952,3.06,7.438,1.189,8.95,29.83,3.624
4.698,12.291,3.679,9.739,2.075,11.487,28.833,4.869
4.932,13.952,5.298,13.354,3.809,15.22,32.256,5.402
9.63,18.513,8.4,17.059,6.82,19.243,38.67,6.939
13.134,20.671,10.234,17.226,8.86,20,40.712,6.684
10.029,15.815,8.555,12.707,7.777,15.655,35.889,1.602
5.226,9.453,6.845,8.617,6.418,10.698,31.59,-2.928
6,9.279,9.542,9.942,8.906,10.754,33.97,0.252
12.28,15.734,15.951,16.474,14.814,16.924,41.778,10.039
20.035,24.671,23.102,25.185,21.374,26.195,51.296,20.393
27.237,32.837,30.383,33.604,28.268,34.91,59.789,28.395
32.96,38.625,36.982,40.042,35.147,41.091,66.094,34.364
33.919,39.161,38.129,41.305,37.044,42.428,68.603,36.119
28.632,32.925,31.419,35.611,30.865,37.433,65.983,31.276
22.124,25.022,22.966,27.474,22.55,29.899,61.895,24.166
18.702,20.982,18.612,22.021,18.187,24.707,60.659,20.063
17.75,20.27,17.476,19.607,17.09,22.889,60.537,17.88
19.271,21.311,19.208,20.315,19.019,24.534,59.263,16.494
22.044,22.862,23.821,23.101,23.76,27.445,57.997,17.568
21.373,21.696,26.291,23.337,26.016,26.733,56.374,19.285
17.351,18.331,24.115,20.466,23.644,23.145,53.49,18.639
14.918,17.431,21.04,18.402,20.791,21.179,50.945,16.76
14.389,18.981,18.374,17.173,18.457,20.021,49.068,15.169
13.003,18.942,14.491,14.741,14.592,17.141,46.216,13.094
11.72,16.902,10.932,12.348,10.727,14.138,42.827,10.611
12.565,15.911,10.409,12.418,9.742,13.965,41.227,9.785
14.751,17.557,12.347,14.885,11.228,16.789,40.927,11.499
16,19.755,13.854,16.794,12.374,19.138,38.473,13.073
14.396,19.171,13.132,15.954,11.435,18.088,34.072,12.026
10.216,15.533,10.709,13.77,9.059,15.188,31.742,9.894
5.256,10.857,7.294,11.544,5.908,12.435,31.453,8.038
0.598,6.302,2.909,8.318,1.798,9.118,29.783,5.155
-2.164,3.252,-0.562,5.165,-1.406,5.973,27.316,2.013
-0.732,3.932,0.174,5.496,-0.3,6.253,27.832,1.579
4.041,8.619,5.004,9.755,4.824,10.78,32.161,4.206
7.708,14.862,9.495,14.574,9.155,16.025,37.318,7.973
9.128,20.357,11.239,17.957,10.317,19.127,40.907,12.078
12.381,23.985,13.045,21.382,11.653,21.708,43.609,16.52
17.377,24.321,16.377,25.009,15.017,25.002,46.258,19.705
19.227,22.621,18.984,27.16,17.868,27.518,48.25,20.951
18.743,24.026,21.073,29.248,19.974,30.115,50.212,23.429
19.178,28.294,23.491,31.691,22.39,33.109,51.805,27.266
18.103,28.545,23.049,30.141,22.2,32.237,49.465,26.705
14.796,24.007,18.905,24.277,18.112,26.751,43.238,20.754
13.918,20.511,15.503,19.594,14.277,21.743,38.365,15.265
16.362,19.777,15.671,18.491,14.194,19.967,37.878,13.691
18.605,20.026,18.436,19.465,17.307,20.69,40.292,15.066
20,20.954,21.076,20.95,20.254,22.703,42.193,16.903
21.3,21.646,20.704,21.301,19.746,23.819,41.967,16.998
21.328,20.505,17.987,20.045,16.791,22.655,42.284,15.743
20.755,18.998,16.532,18.857,15.203,20.843,44.873,14.813
22.032,19.975,17.229,18.526,16.076,19.86,45.91,14.09
23.628,22.041,17.518,17.304,17.061,18.174,42.462,12.566
20.916,20.343,14.588,13.529,14.753,14.074,36.958,9.415
13.656,14.292,8.375,8.315,8.374,8.873,32.429,4.491
7.395,8.92,2.962,4.725,2.439,5.529,29.823,0.471
5.562,7.015,1.84,4.28,1.151,5.119,28.623,0.661
5.009,6.059,2.74,4.82,2.059,5.548,26.983,3.331
2.058,3.75,1.656,3.303,0.92,4.382,23.077,3.367
-1.923,1.035,-1.35,-0.525,-1.889,1.294,16.19,-0.754
-4.196,-1.118,-4.117,-5.166,-4.191,-3.252,7.899,-5.919
-5.636,-4.163,-6.18,-9.525,-5.741,-8.43,2.043,-8.801
-8.115,-8.983,-7.504,-12.424,-6.517,-12.019,0.213,-8.357
-10.007,-12.151,-6.563,-12.258,-5.315,-11.814,-0.146,-5.396
-9.166,-10.491,-3.375,-9.271,-2.364,-8.59,-1.288,-2.455
-8.158,-8.369,-1.866,-7.05,-1.091,-6.517,-3.295,-2.362
-11.071,-11.934,-4.834,-8.907,-4.084,-8.876,-7.187,-5.527
-15.696,-17.581,-8.85,-13.141,-8.219,-13.566,-12.917,-9.451
-15.482,-16.894,-8.957,-14.947,-8.366,-15.442,-15.569,-10.441
-11.669,-12.36,-7.452,-14.478,-6.561,-14.661,-13.926,-9.106
-13.231,-14.887,-10.988,-17.614,-9.825,-17.54,-15.719,-11.796
-22.102,-25.468,-19.17,-25.2,-18.075,-25.391,-24.168,-20.21
-29.897,-33.053,-24.112,-29.266,-23.259,-29.858,-30.289,-26.055
-28.405,-29.615,-19.504,-23.003,-18.805,-23.294,-25.158,-20.809
-18.554,-19.143,-7.667,-10.479,-6.77,-10.11,-12.712,-7.094
-9.68,-11.886,1.462,-2.878,2.919,-2.552,-4.227,3.225
-7.495,-11.34,2.72,-3.419,4.521,-3.75,-3.075,4.317
-9.146,-13.083,0.371,-5.746,1.892,-6.427,-4.927,1.226
-12.134,-15.196,-2.757,-7.781,-1.684,-8.22,-8.512,-2.23
-16.664,-18.81,-7.344,-11.966,-6.379,-11.977,-14.62,-6.408
-20.282,-21.891,-10.773,-15.638,-9.672,-15.419,-20.029,-9.176
-18.848,-20.686,-9.03,-13.272,-7.896,-13.203,-20.017,-7.232
-12.897,-15.611,-3.214,-5.3,-2.354,-5.721,-14.622,-1.51
-8.862,-11.787,0.601,0.95,1.062,0.044,-9.753,2.457
-10.087,-11.357,-0.211,0.945,0.09,-0.209,-9.7,1.167
-11.615,-10.822,-1.529,-1.348,-1.101,-2.508,-11.302,-2.33
-9.68,-9.076,-1.22,-2.156,-0.646,-3.091,-10.947,-4.435
-7.357,-8.736,-1.47,-3.083,-0.989,-3.885,-9.923,-5.194
-6.814,-9.279,-1.492,-4.028,-1.183,-5.118,-8.241,-4.388
-5.964,-7.198,1.34,-2.214,1.784,-3.544,-3.543,-1.077
-3.903,-2.051,5.333,1.166,6.019,0.3,2.494,3.128
-2.54,1.663,6.343,1.573,6.826,1.571,5.313,5.06
-3.051,0.207,3.795,-1.942,3.783,-1.531,4.449,3.801
-4.788,-4.087,0.766,-5.499,0.65,-5.191,3.234,0.835
-7.059,-7.22,-1.293,-6.728,-1.004,-6.537,2.356,-2.559
-8.886,-8.805,-3.112,-7.008,-2.46,-7.07,-0.118,-4.742
-8.492,-8.893,-4.009,-6.751,-3.357,-7.472,-3.182,-3.982
-6.422,-6.931,-4.193,-5.628,-3.625,-6.824,-3.773,-2.484
-6.218,-5.763,-6.829,-6.049,-6.09,-7.019,-1.749,-3.573
-8.861,-8.28,-11.369,-8.887,-10.297,-9.553,0.113,-4.98
-11.281,-12.034,-12.814,-10.622,-11.502,-11.478,-0.324,-3.617
-12.104,-13.693,-11.072,-9.927,-9.576,-10.973,-2.82,-2.387
-13.282,-14.342,-10.744,-10.066,-9.112,-11.018,-6.114,-4.608
-14.558,-15.672,-11.599,-11.76,-10.062,-12.862,-8.773,-7.633
-11.291,-14.186,-7.717,-9.482,-6.405,-10.926,-7.447,-5.285
-2.937,-7.172,2.074,-0.731,3.319,-1.91,0.181,3.829
2.667,-1.17,9.705,6.441,11.092,6.126,8.71,11.704
2.63,-1.005,11.032,6.524,12.656,6.678,11.389,12.637
3.34,-1.207,11.974,5.402,13.843,5.132,10.352,11.794
4.318,-0.621,13.09,4.74,15.153,3.77,8.828,10.851
-1.242,-5.129,7.251,-1.855,9.288,-2.872,3.976,3.346
-9.688,-12.074,-3.282,-12.035,-1.689,-12.149,-3.829,-8.39
-12.249,-13.75,-8.482,-16.31,-7.463,-15.343,-8.34,-13.493
-10.523,-12.031,-7.339,-14.411,-6.472,-13.295,-8.467,-10.275
-11.514,-13.588,-6.939,-13.847,-5.893,-13.47,-10.142,-6.717
-16.224,-18.355,-9.928,-17.084,-8.72,-17.182,-15.235,-6.835
-21.484,-22.71,-13.387,-20.686,-11.738,-20.558,-19.703,-8.159
-26.35,-26.591,-15.865,-23.099,-13.276,-22.83,-23.079,-9.111
-31.343,-31.722,-18.47,-25.205,-15.269,-25.157,-28.686,-10.622
-34.717,-37.285,-21.048,-26.097,-18.311,-25.753,-34.601,-12.539
-34.014,-39.425,-21.705,-24.266,-19.85,-23.03,-33.893,-12.813
-29.709,-35.35,-19.73,-21.109,-18.167,-19.74,-25.135,-10.389
-24.508,-27.883,-17.014,-19.686,-15.165,-19.126,-14.92,-7.683
-20.504,-22.201,-15.818,-20.501,-13.612,-20.29,-8.654,-7.561
-17.284,-18.243,-15.011,-19.881,-12.774,-19.334,-4.602,-7.714
-11.818,-11.107,-10.44,-13.289,-8.818,-12.578,3.021,-2.545
-3.798,-0.472,-2.278,-2.452,-1.463,-1.867,14.605,7.174
0.248,5.703,2.034,3.799,2.877,4.311,21.196,12.654
-3.685,2.638,-1.392,1.286,0.195,1.774,17.35,9.727
-8.43,-3.071,-5.597,-3.146,-3.639,-3.119,10.364,5.11
-6.836,-4.559,-3.966,-2.712,-2.296,-3.745,8.098,5.002
-3.41,-4.636,-0.25,0.285,0.968,-1.557,8.235,6.845
-4.166,-7.418,0.067,1.172,0.979,-0.613,6.67,6.46
-6.886,-11.095,-1.911,-0.493,-1.13,-1.99,4.059,3.725
-10.53,-14.712,-4.965,-4.76,-4.271,-6.462,-0.839,-1.414
-16.945,-19.454,-9.709,-11.105,-9.248,-13.259,-9.396,-8.031
-19.816,-21.044,-11.664,-13.574,-11.52,-15.858,-14.815,-10.377
-11.919,-14.14,-5.626,-7.322,-5.551,-9.58,-10.235,-4.868
1.416,-1.744,5.527,3.817,5.923,1.27,-0.217,4.936
10.17,8.113,13.774,11.987,14.588,9.042,4.94,12.811
11.287,10.514,13.501,12.059,14.403,9.059,1.293,13.237
7.396,7.156,6.168,5.404,6.7,2.717,-6.098,6.166
2.539,4.042,-1.163,-1.018,-1.235,-3.233,-10.388,-1.582
0.229,5.069,-3.833,-2.472,-4.323,-4.425,-10.089,-5.086
1.56,9.319,-2.888,-0.649,-3.346,-2.967,-8.111,-5.077
4.946,13.905,-0.292,1.311,-0.507,-2.021,-5.935,-3.096
7.913,16.119,2.975,2.734,2.728,-1.639,-3.241,-0.363
8.545,14.831,4.994,3.591,4.373,-1.116,-1.449,1.374
6.305,12.124,4.454,3.469,3.473,-0.78,-1.54,1.487
2.818,10.464,2.4,2.441,1.312,-0.905,-1.416,0.568
0.946,9.452,0.587,1.271,-0.225,-1.155,0.579,-0.486
2.8,9.485,1.002,1.93,0.768,-0.04,3.89,0.356
7.924,12.552,4.254,5.163,4.25,3.003,7.72,4.049
11.929,16.03,6.458,7.056,6.002,4.174,9.406,6.528
11.685,16.397,5.231,5.683,4.385,1.959,6.634,4.683
10.092,16.185,4.396,5.978,3.892,2.083,3.17,2.698
8.787,16.521,4.785,9.255,4.99,6.114,1.671,3.694
6.108,14.983,3.287,11.075,3.752,8.942,-0.719,5.696
4.895,14.311,2.306,11.862,2.448,10.331,-2.413,8.571
8.525,17.868,5.198,14.591,5.092,13.255,0.85,12.427
13.562,21.782,9.029,17.492,8.93,16.463,5.642,14.872
15.401,21.33,10.303,17.211,9.903,16.686,5.095,15.435
14.081,17.44,9.137,13.274,8.11,12.915,-1.409,14.374
13.024,15.224,8.416,10.148,7.012,9.817,-7.278,12.346
15.382,18.062,11.373,13.117,10,13.318,-6.459,13.502
18.424,21.233,14.975,18.093,13.789,18.913,-2.67,17.008
15.628,18.146,13.281,16.634,12.376,17.509,-5.263,15.191
7.035,10.525,8.119,9.957,7.525,10.797,-16.31,8.293
-0.592,3.218,4.353,4.332,3.677,5.638,-30.412,3.654
-1.332,0.012,3.966,3.503,2.766,5.436,-40.579,4.474
5.72,4.957,9.508,10.186,8.11,12.501,-41.004,10.744
13.802,13.945,18.223,19.641,17.253,22.047,-35.52,17.951
15.42,17.026,20.735,21.344,20.003,23.438,-35.238,18.208
12.855,14.13,15.564,15.312,14.484,17.028,-41.279,12.507
11.252,11.242,10.228,10.065,8.988,12.058,-45.463,8.521
9.254,8.295,8.01,7.637,7.193,10.44,-45.687,6.965
5.474,4.638,7.033,5.293,6.613,8.48,-46.121,4.415
3.416,3.773,6.929,3.91,6.64,6.616,-46.942,2.547
4.922,5.763,7.802,4.888,7.634,7.013,-45.436,3.752
6.461,5.959,7.234,5.059,6.915,7.378,-44.378,4.798
5.426,3.085,3.576,1.496,2.625,4.562,-47.741,1.957
5.08,1.532,0.692,-1.5,-0.948,2.12,-50.746,-1.628
8.752,4.78,3.91,2.429,1.807,6.251,-45.764,0.509
13.497,10.351,10.761,10.345,8.335,14.252,-35.627,7.64
13.727,12.676,12.938,12.662,10.392,16.436,-30.695,11.392
8.306,8.894,7.461,6.313,5.186,9.675,-33.856,6.778
1.606,1.363,-0.907,-2.76,-2.742,0.509,-38.717,-2.073
-2.574,-5.324,-7.58,-9.267,-9.225,-5.397,-41.163,-8.853
-4.498,-8.904,-11.852,-12.972,-13.296,-8.592,-41.679,-12.197
-4.082,-8.689,-12.524,-12.982,-13.377,-8.911,-39.298,-11.562
0.002,-4.515,-8.258,-7.747,-8.653,-4.192,-33.998,-5.094
6.015,1.14,-1.739,-0.557,-2.257,3.188,-29.564,4.14
9.91,4.443,3.21,3.872,2.56,8.249,-26.639,10.267
8.628,2.622,4.242,3.411,3.851,7.93,-23.209,10.795
2.913,-3.735,0.517,-1.667,0.283,2.459,-21.624,6.388
-2.03,-9.129,-4.682,-6.992,-5.213,-2.929,-23.369,0.795
-3.082,-9.456,-7.145,-8.044,-8.042,-3.591,-24.621,-1.786
-2.671,-6.966,-7.555,-5.711,-8.516,-1.246,-22.693,-1.362
-2.848,-5.481,-8.7,-3.357,-9.549,0.513,-19.588,-0.666
-3.442,-6.562,-10.885,-3.251,-11.638,-0.179,-19.242,-1.796
-4.917,-9.287,-12.566,-5.582,-13.371,-3.54,-22.98,-4.792
-6.799,-10.691,-12.398,-7.642,-13.578,-6.667,-27.363,-7.174
-7.058,-9.285,-10.337,-6.706,-11.945,-6.171,-27.839,-6.072
-5.71,-7.179,-7.837,-3.91,-9.436,-3.416,-24.722,-2.202
-5.443,-7.044,-6.983,-3.016,-8.392,-2.867,-23.487,-0.392
-7.36,-8.733,-8.363,-5.372,-9.922,-5.935,-26.567,-3.171
-9.156,-10.119,-9.964,-7.964,-11.739,-9.494,-30.08,-6.942
-8.737,-9.938,-9.5,-7.722,-10.989,-10.116,-31.126,-8.152
-5.596,-7.351,-6.368,-5.08,-7.23,-7.548,-30.462,-7.177
0.267,-1.759,-1.465,-1.907,-1.927,-3.898,-28.536,-4.826
6.349,4.141,2.589,0.372,2.264,-1.532,-25.478,-1.862
7.493,5.072,1.995,-0.782,1.864,-2.988,-24.672,-1.652
1.619,-0.819,-4.034,-6.938,-3.895,-9.014,-29.454,-6.669
-5.53,-8.042,-9.201,-12.609,-8.829,-13.85,-34.674,-11.624
-6.761,-9.954,-7.312,-10.614,-6.765,-10.857,-32.971,-9.404
-3.856,-7.921,-2.546,-4.277,-1.887,-4.218,-27.454,-3.255
-2.508,-6.068,-1.228,-1.426,-0.45,-2.28,-24.493,-0.475
-1.964,-3.255,-0.691,-1.607,0.126,-4.026,-22.959,-0.709
0.432,1.141,2.59,-0.809,3.158,-4.064,-20.091,-0.869
2.628,3.4,4.603,-0.29,4.804,-2.965,-17.302,-1.746
2.562,2.112,1.736,-2.731,1.815,-4.232,-16.01,-3.688
2.441,0.631,-1.531,-5.553,-1.337,-6.428,-14.986,-3.37
3.196,-0.119,-1.085,-5.964,-0.71,-6.967,-14.229,-0.849
1.664,-3.548,-0.787,-6.977,-0.117,-8.531,-15.739,-1.856
-2.12,-8.452,-3.207,-9.792,-2.233,-12.001,-17.947,-6.537
-2.77,-8.021,-3.528,-9.167,-2.539,-11.492,-15.524,-6.796
2.872,-0.501,1.342,-2.589,2.172,-4.096,-7.439,0.771
10.791,7.511,6.328,4.043,7.089,3.391,-0.474,8.6
13.497,9.088,4.833,3.556,5.463,2.746,-1.938,8.034
8.629,4.268,-2.225,-3.36,-1.868,-4.977,-10.318,0.523
2.636,-0.243,-7.415,-8.944,-7.163,-11.12,-16.237,-5.292
3.595,2.419,-5.541,-7.324,-5.173,-9.631,-13.858,-4.611
10.443,11.248,0.244,-1.303,0.569,-3.353,-7.668,-0.691
13.885,16.771,2.566,1.347,2.603,-0.016,-5.491,0.583
10.084,13.04,0.439,-1.083,0.373,-1.897,-8.107,-1.239
4.326,5.146,-1.463,-3.794,-1.101,-4.768,-10.642,-2.534
-0.459,-0.953,-3.532,-6.115,-2.431,-7.427,-12.709,-4.122
-5.52,-5.603,-8.857,-10.57,-7.294,-11.719,-17.276,-8.846
-7.779,-7.644,-13.025,-13.539,-11.477,-14.374,-20.186,-12.81
-2.971,-2.373,-8.682,-8.644,-7.306,-9.606,-14.059,-8.864
5.667,8.452,2.375,2.73,3.415,1.384,-1.443,2.757
11.456,16.16,11.014,12.359,11.375,10.922,7.479,13.641
12.89,16.821,12.776,15.564,12.757,14.512,8.705,17.498
12.505,14.283,10.478,14.657,11.023,14.602,6.882,15.792
11.331,12.263,7.078,12.94,8.426,14.917,5.468,11.788
8.569,9.429,2.566,10.243,4.004,14.515,3.34,6.129
5.487,4.272,-1.766,6.471,-0.71,11.108,1.322,0.775
4.962,1.071,-2.181,5.234,-1.31,8.003,2.925,-0.376
6.099,3.239,0.54,7.383,1.448,8.212,6.68,2.856
5.251,5.942,0.9,7.56,1.741,7.435,7.366,6.445
1.479,3.618,-2.801,2.799,-2.09,2.254,4.195,6.045
-3.772,-2.697,-7.943,-3.73,-7.134,-4.094,-0.536,0.288
-8.053,-8.43,-11.749,-7.674,-10.775,-7.312,-4.283,-6.24
-8.681,-9.97,-11.968,-7.339,-11.196,-6.695,-3.955,-7.415
-6.384,-7.905,-8.98,-5.162,-8.693,-5.329,-0.446,-4.087
-4.485,-6.503,-6.384,-4.536,-6.32,-5.798,1.628,-1.689
-5.028,-8.38,-6.476,-5.421,-6.156,-6.629,0.131,-1.948
-8.486,-11.819,-7.702,-6.077,-6.963,-6.219,-2.962,-2.34
-12.265,-12.745,-7.328,-5.647,-6.434,-5.199,-3.601,-1.234
-12.608,-9.748,-6.198,-4.825,-5.43,-4.492,-1.712,-1.024
-10.979,-6.674,-8.073,-5.682,-7.28,-5.24,-2.54,-4.501
-10.758,-6.976,-12.648,-8.423,-11.622,-7.529,-6.403,-9.287
-10.848,-9.536,-15.6,-10.737,-14.551,-9.576,-6.935,-11.069
-9.309,-11.971,-15.399,-11.316,-14.426,-10.412,-1.87,-9.741
-7.889,-13.747,-14.611,-11.52,-13.351,-11.467,3.997,-8.71
-9.805,-16.033,-16.463,-14.035,-14.634,-14.851,5.99,-10.803
-14.973,-18.807,-20.598,-18.722,-18.34,-19.567,5.278,-14.513
-18.052,-18.697,-21.736,-20.124,-19.366,-20.203,6.879,-14.182
-14.127,-13.393,-15.961,-13.556,-13.66,-12.85,11.953,-6.741
-6.754,-6.881,-7.059,-3.195,-4.809,-2.239,15.713,2.992
-2.566,-3.742,-0.776,3.393,1.488,4.043,15.82,8.964
-0.109,-1.508,3.572,6.341,5.816,6.53,15.895,12.62
4.074,2.212,7.226,8.314,9.259,8.167,16.79,15.713
5.605,2.269,5.648,5.906,7.328,5.373,13.684,12.847
-0.486,-5.544,-2.927,-2.951,-1.375,-4.004,5.073,2.086
-10.678,-16.216,-11.886,-12.404,-10.149,-13.852,-3.611,-8.553
-16.47,-20.928,-14.408,-15.661,-12.636,-17.345,-6.644,-11.685
-13.456,-16.5,-10.122,-11.795,-8.661,-13.846,-2.856,-7.675
-6.044,-7.954,-3.374,-4.982,-2.147,-7.28,3.96,-1.165
-2.388,-3.05,0.438,-0.731,1.717,-2.521,7.171,3.341
-3.892,-3.197,0.181,-0.074,1.593,-0.982,6.008,5.489
-3.681,-1.939,1.062,1.867,2.638,1.155,8.199,9.098
1.541,3.597,5.325,6.542,7.187,5.283,15.812,14.596
5.769,7.381,7.921,8.922,9.981,7.351,20.19,17.364
5.197,6.094,7.418,8.441,9.327,7.356,18.221,16.765
4.045,4.153,7.832,9.384,9.486,8.854,16.851,16.278
4.648,3.812,8.513,10.326,10.136,9.474,17.581,14.982
3.793,1.636,5.725,6.749,7.323,4.949,13.814,10.254
0.402,-3.854,0.61,-0.185,2.01,-2.775,4.456,4.295
-1.026,-6.944,-1.784,-4.754,-0.545,-7.847,-2.245,0.855
3.881,-1.21,1.156,-3.412,2.186,-7.139,-0.735,0.15
11.688,9.492,6.219,1.26,6.826,-3.472,3.372,-0.047
14.302,15.039,8.962,4.44,9.507,-1.287,3.869,-0.174
11.477,13.646,9.696,5.428,10.909,-0.64,3.79,1.107
11.066,12.889,11.319,6.908,12.978,1.342,6.977,3.795
15.864,16.365,13.929,9.459,15.174,4.895,11.214,6.464
19.25,17.756,14.199,9.651,15.099,6.088,12.039,6.823
14.924,11.674,9.7,5.006,10.864,2.152,7.451,2.659
5.488,2.994,2.752,-1.302,3.995,-3.743,0.231,-4.553
-1.239,-0.712,-1.766,-3.874,-0.942,-6.289,-4.708,-9.426
-1.734,0.475,-2.143,-1.941,-1.6,-4.822,-4.967,-8.966
0.459,1.299,-0.955,-0.231,-0.347,-3.809,-2.343,-6.77
0.56,-0.186,-0.222,-1.865,0.445,-5.832,0.16,-7.233
-1.366,-1.411,0.602,-3.804,1.303,-7.381,2.039,-8.851
-2.453,-1.163,1.309,-3.553,2.216,-6.186,2.512,-9.026
-2.727,-1.457,0.472,-4.065,1.544,-6.147,-0.309,-9.812
-3.842,-3.206,-1.727,-7.121,-0.99,-9.485,-4.866,-12.802
-4.351,-4.084,-3.069,-9.064,-3.009,-11.814,-6.691,-14.572
-0.829,-1.37,-1.304,-6.574,-1.488,-9.195,-2.844,-11.531
6.153,4.2,3.258,-1.564,3.464,-4.025,4.98,-5.38
10.006,7.583,6.906,1.605,7.626,-0.791,11.029,-1.4
5.653,4.758,5.805,0.992,6.86,-0.591,11.198,-2.809
-3.084,-1.168,0.141,-2.233,1.351,-2.708,7.251,-7.96
-8.311,-3.856,-6.128,-5.907,-4.838,-6.643,3.418,-12.661
-8.069,-2.534,-9.439,-8.575,-7.918,-10.783,1.405,-14.55
-7.846,-2.437,-10.378,-11.231,-8.611,-14.54,-0.4,-15.313
-11.663,-6.911,-11.772,-15.191,-10.236,-18.686,-4.627,-17.182
-15.443,-11.982,-12.693,-17.249,-11.737,-20.156,-9.997,-17.669
-15.12,-12.705,-10.383,-14.318,-9.641,-16.172,-12.781,-13.515
-13.756,-10.988,-6.497,-9.693,-5.593,-10.991,-13.793,-6.909
-12.669,-9.609,-3.105,-5.72,-2.205,-7.412,-14.514,-0.2
-8.201,-6.117,1.686,0.829,2.44,-1.304,-12.12,7.68
-1.553,-0.303,7.504,9.318,8.195,7.311,-5.859,14.021
1.574,1.852,9.365,12.939,9.84,11.079,0.203,13.326
0.937,-0.868,6.167,10.355,6.163,8.433,3.267,7.944
2.211,-0.329,4.053,8.852,3.733,7.131,5.318,6.172
7.95,7.379,7.413,12.763,7.149,11.475,8.109,9.9
12.799,14.648,11.919,16.845,11.679,15.634,8.101,12.661
10.925,14.434,10.916,14.363,10.477,12.551,2.411,9.621
6.042,10.516,5.806,7.819,5.258,5.002,-4.294,4.135
6.356,10.626,3.765,5.476,3.266,2.014,-5.936,1.903
11.582,15.148,6.084,7.982,5.624,4.52,-3.487,2.311
15.185,18.485,7.282,8.557,6.85,5.072,-1.541,1.139
15.731,18.544,5.547,5.843,4.98,2.035,-1.528,-1.471
15.931,18.01,4.549,4.446,3.442,0.567,-2.15,-2.89
15.54,17.986,5.201,4.752,3.358,1.202,-2.464,-4.02
12.382,17.122,4.23,3.633,1.984,0.436,-3.089,-6.361
6.78,14.834,0.388,1.217,-1.66,-1.657,-5.423,-8.411
1.645,10.901,-3.996,-1.242,-5.536,-3.685,-10.284,-10.11
-1.062,5.634,-6.876,-4.117,-8.147,-6.091,-17.055,-13.804
-1.513,2.515,-7.449,-5.697,-8.84,-7.22,-22.058,-17.514
0.74,5.484,-4.418,-2.75,-5.967,-4.076,-21.161,-15.094
5.946,12.528,1.737,3.084,0.187,1.393,-15.992,-7.035
11.079,17.783,6.887,6.432,5.186,4.255,-11.543,-1.936
12.563,18.724,8.088,5.801,5.979,3.63,-8.994,-3.107
9.948,16.175,6.666,3.925,4.532,2.107,-6.939,-5.146
5.224,11.33,4.53,2.089,3.051,0.484,-6.315,-5.318
1.733,6.386,2.254,-0.456,1.177,-2.42,-8.318,-6.11
3.051,5.405,2.005,-1.482,0.378,-4.275,-9.829,-6.71
9.81,10.625,6.611,3.002,4.29,-0.298,-6.186,-2.867
17.773,17.092,13.151,9.93,10.903,6.769,1.266,3.318
21.452,17.796,14.641,11.358,12.943,8.541,5.477,4.395
20.819,14.864,10.837,7.528,9.651,5.096,5.032,0.492
20.22,14.912,7.58,5.088,6.867,3.302,5.538,-2.035
19.348,16.258,5.763,4.37,5.317,3.287,6.899,-3.004
14.752,13.873,2.758,2.247,2.103,1.419,4.996,-5.415
10.799,11.353,1.269,1.937,0.218,1.047,4.007,-6.331
15.309,15.548,5.665,7.651,4.305,7.06,10.968,-1.985
23.34,22.955,12.144,14.575,10.402,14.738,20.762,3.8
21.714,22.233,12.375,14.116,10.482,14.811,21.005,4.289
11.724,11.858,6.931,7.281,5.538,7.971,12.167,0.476
7.413,3.713,4.57,3.405,3.699,4.048,6.118,-0.468
11.378,4.586,7.613,5.66,6.714,6.607,6.025,2.924
14.435,7.699,10.091,8.368,9.086,9.65,4.702,4.831
13.311,5.892,9.122,7.384,8.196,8.597,-1.446,2.481
10.416,0.586,6.442,3.371,5.359,4.579,-8.821,-1.345
7.295,-2.846,3.933,-0.644,2.383,1.467,-12.888,-3.486
7.788,-0.798,5.282,0.28,3.376,3.728,-11.27,-0.849
14.502,5.272,11.741,6.955,9.913,11.147,-5.42,6.37
21.122,9.312,16.456,11.951,15.061,16.441,-1.553,11.046
19.787,7.219,13.937,9.43,12.796,14.08,-3.966,8.658
12.162,0.795,7.97,2.977,6.356,7.45,-9.782,3.863
5.194,-5.378,4.537,-0.387,1.984,4.004,-13.122,2.008
2.512,-7.308,5.6,2.184,2.55,7.364,-10.93,3.807
4.732,-2.95,10.349,8.709,7.459,14.997,-4.596,8.082
10.819,5.664,16.099,15.265,13.348,21.495,1.871,12.259
17.271,12.836,19.334,19.249,16.463,24.562,5.059,14.147
20.571,14.75,18.943,20.612,16.141,25.978,5.764,14.99
19.786,12.723,16.936,20.199,14.447,26.49,7.246,15.957
17.102,10.586,16.22,19.422,13.919,26.132,9.293,16.285
16.021,9.905,17.686,19.733,15.363,26.759,10.077,16.456
15.739,7.723,18.286,19.211,15.825,27.092,9.949,15.956
11.575,1.737,14.816,14.625,12.132,22.827,9.177,12.09
4.651,-3.854,9.682,8.415,6.721,16.144,8.385,6.652
1.995,-3.958,7.615,6.303,4.421,14.243,9.312,5.084
4.392,-0.895,7.785,7.743,4.619,16.602,11.062,6.534
6.073,0.401,6.57,7.731,3.746,16.599,10.922,5.592
6.855,1.321,6.424,7.779,4.079,15.696,10.399,4.205
12.466,6.81,13.173,14.439,11.234,21.812,14.895,10.091
22.278,15.886,24.355,26.059,22.363,33.548,24.358,21.619
26.574,20.333,28.905,31.565,26.445,39.126,29.504,26.596
20.332,15.065,21.982,25.283,19.532,32.523,23.168,19.805
10.322,4.595,10.581,13.224,8.86,19.945,10.331,8.427
3.358,-3.876,1.525,3.216,0.224,9.771,1.12,-0.078
0.03,-6.713,-3.547,-1.017,-5.448,5.994,0.477,-2.428
1.022,-3.312,-2.928,1.749,-5.823,9.357,7.028,2.248
5.381,2.521,1.907,7.798,-1.229,15.534,13.21,8.907
6.26,3.553,3.489,9.127,1.031,16.357,10.135,8.824
0.865,-1.364,-0.885,3.813,-2.673,10.081,-0.53,1.303
-2.316,-3.664,-3.666,0.254,-5.282,5.474,-7.39,-3.42
4.529,3.384,1.617,6.121,0.025,10.49,-3.663,2.394
16.898,15.155,11.221,17.603,9.548,21.45,5.837,13.222
24.423,21.854,17.029,24.671,15.039,28.59,11.936,18.705
23.023,19.339,16.445,23.586,14.289,27.944,11.309,17.302
15.94,11.209,12.43,18.333,10.461,22.54,6.473,13.834
7.432,3.295,7.189,12.811,5.513,16.174,0.403,9.719
1.464,-1.059,1.937,8.12,0.526,11.16,-3.875,4.739
2.396,-0.364,0.321,6.329,-1.027,10.226,-3.189,3.021
8.748,5.134,4.101,9.291,2.544,14.457,1.325,7.363
11.418,10.192,7.743,13.273,6.098,19.213,3.677,12.163
5.003,7.162,4.89,12.154,3.605,18.197,0.396,10.693
-6.13,-4.601,-2.799,5.585,-3.536,11.007,-6.862,3.688
-14.34,-15.643,-7.915,-0.593,-8.453,3.371,-14.575,-3.209
-15.334,-17.523,-6.368,-1.712,-7.139,0.516,-18.59,-5.248
-10.351,-13.067,-1.291,0.766,-2.263,1.982,-16.525,-2.175
-3.637,-9.068,2.873,3.297,2.047,4.444,-9.942,2.367
0.729,-7.32,4.893,4.321,4.357,5.823,-4.111,4.764
-1.464,-9.054,2.813,1.552,2.423,3.552,-5.254,2.269
-11.084,-16.553,-5.572,-6.838,-5.731,-4.361,-13.658,-6.173
-20.539,-25.208,-14.327,-15.021,-13.903,-12.395,-20.965,-14.729
-20.22,-25.464,-12.561,-13.285,-11.689,-10.883,-18.778,-13.536
-11.679,-17.424,-1.452,-2.91,-0.823,-1.074,-9.782,-3.212
-7.302,-13.339,4.046,2.929,4.072,4.06,-5.035,2.873
-13.985,-20.68,-4.091,-3.437,-4.35,-2.52,-9.757,-3.549
-22.994,-30.239,-15.507,-13.827,-15.512,-12.389,-16.826,-14.274
-21.086,-27.621,-15.634,-14.934,-14.993,-12.72,-14.562,-15.513
-9.31,-13.574,-5.193,-6.182,-3.876,-3.608,-1.38,-5.479
-1.794,-3.303,1.683,0.428,3.284,2.642,10.719,4.451
-4.633,-4.616,-2.186,-1.361,-0.643,0.295,12.022,5.533
-10.849,-10.524,-10.789,-6.854,-9.377,-5.163,4.997,-0.317
-16.936,-15.853,-19.05,-13.363,-17.944,-11.088,-4.573,-8.967
-24.103,-21.586,-25.823,-20.46,-25.169,-17.647,-11.921,-16.932
-26.102,-22.344,-25.166,-20.383,-24.759,-17.166,-9.077,-15.869
-18.136,-13.531,-14.398,-8.906,-14.004,-5.258,5.787,-2.54
-9.873,-5.213,-4.123,2.093,-3.708,5.891,19.651,10.155
-11.262,-7.578,-3.885,1.608,-3.344,5.223,22.124,10.867
-18.321,-15.816,-9.688,-4.873,-8.886,-1.178,18.468,5.513
-22.852,-21.281,-13.733,-7.955,-12.786,-3.802,16.288,2.888
-22.361,-22.14,-13.788,-6.682,-12.836,-2.432,16.097,2.839
-17.851,-19.97,-11.083,-3.829,-10.003,-0.397,16.912,3.577
-11.658,-16.151,-6.604,0.008,-5.343,2.067,19.605,6.39
-7.268,-12.066,-1.312,4.615,-0.084,5.651,23.054,11.348
-6.747,-9.599,2.783,8.002,3.922,8.873,23.816,15.382
-8.343,-9.528,4.815,9.142,6.105,10.322,22.282,16.491
-8.752,-10.199,5.405,8.947,6.934,10.444,22.624,15.883
-7.875,-9.864,4.011,7.699,5.533,9.892,25.896,14.613
-7.221,-8.09,1.159,5.704,2.354,8.943,28.62,12.698
-5.715,-5.063,-0.183,4.349,0.571,7.585,27.937,10.784
-3.378,-3.024,-0.191,3.259,0.479,4.984,24.363,8.62
-3.833,-5.503,-2.538,0.135,-1.324,0.419,19.474,4.972
-7.981,-11.796,-7.604,-5.006,-5.758,-4.903,14.101,0.189
-11.239,-16.215,-11.632,-8.775,-9.729,-8.001,9.484,-3.747
-8.952,-14.165,-11.102,-7.768,-9.528,-6.349,9.564,-3.871
-2.885,-7.571,-6.226,-3.198,-4.838,-1.71,16.669,0.369
-1.586,-4.828,-3.213,-2.711,-1.817,-1.717,23.091,2.152
-8.954,-11.016,-8.039,-11.218,-6.726,-10.678,19.111,-5.011
-17.028,-19.636,-16.137,-21.205,-15.01,-20.482,8.856,-15.301
-18.248,-21.894,-17.541,-22.266,-16.36,-20.898,5.37,-17.861
-15.191,-18.473,-11.431,-15.702,-9.971,-14.045,11.817,-11.861
-12.642,-15.01,-5.739,-9.811,-4.157,-8.733,17.775,-4.716
-10.547,-13.145,-4.201,-7.214,-2.751,-7.265,16.115,-1.043
-8.704,-11.708,-3.952,-5.772,-2.774,-6.861,11.999,-0.942
-9.327,-10.483,-3.743,-5.34,-2.9,-6.957,11.272,-3.518
-11.459,-9.229,-4.797,-6.262,-4.212,-7.907,11.544,-6.938
-11.564,-8.001,-6.704,-7.252,-6.301,-8.987,8.095,-9.628
-11.056,-9.004,-9.023,-8.72,-8.89,-10.988,1.497,-12.861
-13.368,-12.849,-12.395,-12.064,-12.479,-14.84,-4.649,-17.929
-14.122,-13.556,-14.174,-13.9,-14.17,-16.659,-7.775,-20.671
-7.138,-6.07,-10.35,-9.557,-10.245,-12.081,-6.79,-15.829
2.427,3.608,-3.524,-2.022,-3.66,-4.687,-3.425,-6.89
6.063,7.617,0.466,2.382,0.143,-0.759,0.034,-1.855
3.991,6.402,-0.712,1.154,-0.632,-2.279,1.393,-3.32
-1.224,2.049,-7.729,-5.937,-6.999,-9.359,-2.632,-9.985
-6.796,-2.975,-15.965,-13.744,-15.091,-17.013,-8.961,-17.281
-5.822,-2.223,-15.076,-12.604,-14.511,-15.453,-8.666,-17.165
1.693,4.56,-5.599,-3.88,-5.121,-6.252,-1.86,-9.86
4.98,7.653,-0.761,-0.59,0.077,-3.082,1.201,-6.291
0.365,2.684,-5.006,-6.793,-3.719,-9.831,-3.641,-11.027
-3.837,-3.482,-10.126,-13.746,-8.788,-17.114,-10.178,-16.968
-3.104,-4.075,-10.951,-15.139,-10.182,-18.669,-13.111,-18.024
-1.282,0.378,-9.141,-11.877,-9.095,-15.387,-12.857,-14.799
-1.536,3.897,-7.074,-7.429,-7.277,-10.472,-12.248,-10.582
-3.933,0.585,-6.662,-5.952,-6.827,-8.565,-13.848,-9.164
-8.218,-8.897,-9.671,-9.552,-9.944,-12.065,-17.758,-12.77
-13.627,-17.74,-15.815,-16.189,-16.175,-18.44,-21.842,-19.143
-17.946,-20.673,-21.955,-21.649,-22.167,-23.65,-23.923,-23.332
-17.106,-16.987,-22.837,-20.669,-22.816,-22.887,-21.673,-20.97
-9.832,-9.425,-16.288,-12.048,-16.018,-14.498,-14.819,-11.976
-2.855,-4.426,-8.683,-4.067,-8.199,-6.548,-8.909,-3.872
-0.738,-4.27,-5.413,-2.027,-5.011,-4.819,-6.78,-1.847
2.917,-1.379,-1.351,1.589,-1.251,-1.659,-1.909,0.592
11.18,7.397,6.098,9.965,6.031,6.487,6.274,7.207
16.245,13.586,9.538,13.877,9.4,9.82,8.867,9.94
14.987,12.853,6.918,10.322,6.758,5.136,6.257,5.594
12.073,9.969,4.78,6.958,4.788,1.284,5.808,1.761
8.247,7.398,5.059,6.894,5.182,1.902,6.71,2.023
2.84,3.871,4.388,6.164,4.378,1.781,4.842,1.982
-1.051,0.047,1.821,2.656,1.749,-1.985,1.023,-1.014
-1.913,-1.491,-0.355,-0.973,-0.3,-5.795,-2.179,-4.119
-0.89,0.224,-0.229,-1.964,-0.109,-6.039,-4.02,-4.66
0.634,1.917,0.961,-2.274,1.099,-5.411,-5.397,-4.537
1.071,0.667,1.214,-4.088,1.519,-7.078,-6.627,-5.112
1.074,0.164,1.981,-3.342,2.307,-6.613,-4.992,-2.514
2.304,3.164,4.284,2.242,4.038,-1.118,0.189,4.157
2.576,3.683,4.557,5.718,3.542,2.315,3.033,7.591
0.384,-1.604,1.822,3.048,0.602,-0.354,0.777,4.381
-0.71,-5.808,0.759,0.5,-0.26,-2.772,-1.783,1.255
0.06,-4.592,2.363,2.068,1.355,-1.465,-3.012,2.314
-1.787,-2.938,2.036,3.173,0.962,-1.183,-7.097,2.649
-6.983,-5.649,-2.098,-0.21,-2.932,-5.382,-15.324,-1.905
-11.088,-10.976,-7.232,-5.926,-7.629,-11.495,-23.727,-8.587
-12.075,-14.564,-10.392,-9.767,-10.485,-15.153,-29.296,-12.57
-12.985,-16.027,-11.524,-11.301,-11.51,-15.865,-32.184,-13.088
-17.228,-19.369,-13.321,-13.91,-13.19,-17.418,-34.322,-13.363
-24.544,-25.925,-17.605,-18.991,-17.222,-21.892,-39.048,-15.538
-32.397,-32.49,-23.196,-24.572,-22.487,-27.578,-46.658,-19.119
-38.518,-37.831,-28.201,-30.212,-27.304,-33.695,-53.598,-24.05
-40.341,-41.702,-30.161,-34.905,-29.31,-38.724,-56.893,-28.176
-34.694,-38.765,-25.067,-32.365,-24.05,-36.128,-53.192,-24.51
-21.967,-25.459,-12.842,-20.074,-11.158,-23.464,-40.549,-11.295
-7.472,-7.946,0.396,-5.793,2.463,-8.713,-23.464,2.793
4.426,6.103,10.042,3.897,11.509,1.426,-8.858,11.417
11.599,14.612,15.297,8.851,15.994,6.834,-0.733,15.483
12.245,17.419,15.243,8.56,15.935,6.804,0.13,14.705
8.025,15.369,10.561,3.7,11.297,1.825,-2.693,9.054
2.998,11.101,4.881,-0.771,4.887,-2.748,-3.823,3.48
-1.138,6.141,1.229,-1.832,0.644,-3.645,-2.258,1.534
-4.097,1.168,-0.102,-1.46,-0.223,-3.255,-0.413,1.437
-5.316,-1.862,-0.874,-1.516,-0.157,-3.579,-0.305,1.039
-6.128,-2.956,-3.378,-2.11,-2.342,-4.45,-3.31,-0.579
-10.025,-5.911,-8.82,-5.098,-7.919,-7.717,-8.761,-4.82
-16.555,-11.443,-15.292,-10.891,-14.528,-13.72,-13.203,-10.299
-17.277,-12.014,-16.008,-11.872,-15.332,-14.395,-11.201,-9.791
-5.755,-1.245,-5.451,-0.754,-5.057,-2.362,0.886,1.836
8.931,12.539,8.487,13.736,8.624,12.983,15.567,16.121
12.007,15.265,11.436,16.298,11.842,15.54,19.216,19.68
4.72,7.704,3.914,8.418,4.916,6.93,11.559,13.347
-2.155,-0.152,-2.967,1.844,-1.658,-0.083,3.751,6.55
-7.666,-6.224,-6.62,-1.952,-5.322,-3.826,0.318,1.35
-14.129,-11.229,-9.062,-5.769,-7.866,-8.007,-0.372,-2.469
-16.033,-10.69,-7.647,-5.419,-6.854,-8.323,3.346,-0.932
-10.812,-4.509,-2.923,-0.073,-2.955,-2.818,11.185,4.512
-6.635,-0.968,-1.85,1.702,-2.585,-0.239,15.802,5.366
-9.837,-4.45,-7.137,-4.653,-7.804,-6.08,12.364,-1.143
-15.455,-9.689,-13.095,-12.923,-13.018,-14.067,5.261,-9.158
-15.895,-9.905,-13.562,-15.958,-12.783,-17.03,1.892,-12.544
-10.36,-3.797,-8.399,-13.033,-7.377,-14.766,5.514,-9.124
-3.676,3.859,-2.675,-8.223,-1.701,-10.992,14.108,-2.497
-1.258,6.325,-1.489,-6.293,-0.703,-9.734,22.885,-0.028
-2.872,3.583,-3.114,-6.328,-2.561,-10.105,30.017,-1.873
-1.851,3.527,-0.028,-1.443,0.538,-5.295,37.872,0.839
4.096,9.284,8.653,9.278,9.471,5.709,45.478,10.601
7.709,13.402,13.624,16.457,14.637,13.378,48.299,17.948
4.334,10.481,10.088,14.504,11.305,12.175,46.051,16.793
-0.907,4.841,4.341,9.261,5.937,7.904,41.204,12.791
-4.084,0.502,0.985,6.167,2.846,5.632,33.851,11.235
-8.085,-4.274,-2.331,3.311,-0.701,3.399,24.083,9.437
-14.03,-10.243,-6.746,-1.379,-5.651,-0.907,13.733,4.53
-17.867,-14.558,-10.07,-6.179,-9.422,-5.892,4.463,-1.098
-16.363,-14.811,-9.832,-7.995,-9.595,-8.255,-1.513,-2.877
-11.981,-12.133,-5.673,-5.588,-5.739,-5.96,-2.621,0.239
-10.474,-9.93,-1.584,-2.217,-1.453,-1.981,-2.503,3.133
-13.939,-10.409,-2.049,-2.977,-1.423,-2.229,-6.536,0.546
-17.981,-12.079,-4.673,-6.911,-3.843,-6.653,-13.168,-4.427
-16.053,-10.161,-2.173,-6.669,-1.56,-7.499,-14.892,-3.507
-8.401,-3.957,5.875,-0.958,6.03,-2.265,-9.322,3.51
-1.97,1.247,12.428,3.316,12.071,2.527,-2.556,9.147
2.257,5.267,16.265,5.398,15.581,5.566,1.917,12.668
7.194,10.616,19.562,8.438,18.812,9.498,4.274,16.03
7.212,11.021,17.209,6.999,16.442,8.748,0.488,12.996
-2.544,1.562,6.507,-3.02,5.632,-0.863,-9.715,1.338
-14.016,-10.315,-4.802,-13.988,-5.76,-11.644,-18.284,-9.861
-17.465,-14.786,-9.182,-16.892,-10.2,-14.083,-19.526,-13.107
-13.968,-9.913,-6.598,-10.554,-7.8,-6.668,-14.035,-8.083
-10.599,-2.227,-2.358,-0.957,-3.62,4.168,-6.095,0.62
-10.332,-0.502,-1.879,3.686,-2.75,9.502,-1.009,5.354
-11.269,-5.412,-4.788,1.169,-5.175,6.93,0.036,3.211
-13.05,-10.575,-7.311,-3.699,-7.662,1.898,0.092,-1.142
-17.05,-13.783,-9.007,-7.495,-9.707,-1.454,0.081,-4.188
-20.386,-16.552,-10.629,-10.405,-11.647,-3.736,-1.578,-6.712
-18.237,-16.485,-10.096,-11.591,-11.145,-4.944,-3.051,-8.315
-12.161,-11.375,-6.78,-10.391,-7.585,-4.337,-2.284,-8.024
-8.266,-5.548,-4.246,-9.546,-4.751,-3.944,-3.047,-8.546
-8.556,-4.458,-4.966,-11.711,-5.395,-5.964,-7.498,-12.7
-9.539,-7.386,-7.113,-15.373,-7.867,-9.398,-10.146,-17.289
-7.39,-8.656,-7.371,-16.406,-8.725,-11.008,-7.054,-16.121
-1.967,-4.938,-4.584,-13.228,-6.351,-8.895,-2.278,-9.833
3.211,0.298,-1.4,-9.942,-3.062,-6.274,-0.652,-6.659
4.554,1.978,-1.272,-11.403,-2.521,-8.05,-2.544,-10.14
2.452,0.54,-3.897,-16.295,-4.765,-13.115,-6.092,-14.804
0.388,0.2,-6.552,-19.513,-7.096,-16.119,-8.275,-16.997
-0.766,1.709,-8.662,-19.644,-9.065,-15.834,-8.491,-19.205
-4.316,-0.076,-12.374,-20.582,-13.069,-17.038,-11.024,-23.633
-11.041,-8.193,-18.275,-24.909,-19.458,-22.605,-17.242,-29.154
-15.112,-15.654,-22.127,-28.175,-23.445,-26.742,-21.393,-32.06
-10.676,-12.572,-18.251,-23.443,-19.133,-21.437,-17.707,-27.516
1.021,0.856,-6.33,-9.814,-6.562,-6.929,-5.742,-14.238
12.401,13.53,5.626,4.722,5.553,7.582,9.107,0.494
17.164,16.51,9.317,11.114,8.638,13.582,18.606,6.836
18.381,15.187,8.407,11.606,7.007,13.97,20.703,6.267
21.656,18.582,10.592,13.51,9.045,15.795,19.469,6.835
22.569,21.191,11.511,13.689,10.218,15.6,14.277,6.913
16.15,14.798,5.765,7.587,4.693,9.007,4.371,2.319
8.889,5.992,-0.09,1.422,-0.949,2.772,-3.573,-2.4
6.075,3.082,-1.859,-0.485,-2.453,1.456,-6.706,-5.042
2.627,2.374,-4.898,-3.26,-5.357,-0.812,-9.364,-10.022
-4.053,-1.107,-10.293,-9.122,-10.74,-7.131,-12.171,-16.319
-6.816,-3.569,-11.288,-12.013,-11.602,-10.882,-11.465,-17.037
-1.057,0.024,-5.274,-8.166,-5.208,-7.097,-6.375,-10.91
5.441,6.037,-0.075,-4.625,0.461,-2.923,-0.945,-6.37
3.307,6.479,-4.058,-10.23,-3.358,-8.178,0.024,-11.773
-3.999,1.074,-13.132,-21,-12.65,-19.242,-2.788,-22.724
-7.436,-3.543,-17.181,-26.254,-16.637,-25.107,-3.787,-27.648
-7.464,-5.405,-16.166,-25.219,-14.895,-24.562,-0.897,-25.158
-10.158,-8.354,-17.091,-24.689,-15.129,-24.141,0.891,-23.566
-15.761,-14.465,-21.148,-27.082,-19.223,-26.226,-2.564,-27.105
-20.135,-21.564,-24.137,-29.646,-22.703,-28.283,-7.752,-32.087
-20.147,-24.052,-22.113,-28.118,-20.907,-26.583,-7.615,-31.48
-14.813,-17.488,-13.499,-19.562,-12.045,-18.662,0.063,-21.638
-7.541,-6.636,-2.368,-7.38,-0.63,-7.59,10.233,-8.084
-3.54,-1.04,4.089,0.932,5.849,0.169,16.815,0.067
-2.498,-1.557,4.751,3.35,6.388,3.062,18.308,1.051
-0.474,-1.71,4.196,3.655,5.771,4.247,17.049,-0.497
3.514,1.383,4.597,3.986,6.326,5.064,16.318,-1.094
6.692,5.14,4.441,3.014,6.278,3.84,16.133,-1.359
6.03,6.109,2.451,-0.448,3.892,-0.458,13.149,-4.051
3.957,5.76,0.72,-3.04,1.443,-3.871,8.598,-7.189
5.709,8.883,2.822,0.321,3.096,-0.894,8.507,-4.668
9.444,13.178,7.524,6.917,7.767,5.621,12.585,2.166
10.046,11.982,10.198,9.469,10.556,8.163,14.35,5.866
8.24,6.313,9.699,7.262,10.095,5.893,11.81,4.642
6.992,2.111,7.692,3.664,7.971,2.198,7.704,1.777
5.509,0.439,3.865,-1.496,3.903,-2.84,3.441,-1.871
0.357,-2.854,-3.729,-10.065,-3.878,-11.11,-2.314,-8.694
-8.312,-9.65,-13.029,-19.296,-13.22,-20.249,-10.132,-17.848
-14.866,-15.491,-17.494,-22.879,-17.7,-23.882,-15.504,-22.584
-14.957,-14.837,-14.07,-18.495,-14.169,-19.263,-13.335,-18.438
-9.083,-7.254,-5.99,-9.025,-5.69,-9.169,-5.095,-8.716
-1.503,2.079,1.584,0.796,2.197,1.312,3.181,-0.174
2.112,6.99,5.033,5.697,5.395,6.192,6.471,2.785
1.422,6.637,4.852,4.674,4.75,4.222,4.518,1.456
1.159,4.601,3.834,2.503,3.758,1.27,0.655,0.22
2.161,2.644,1.962,1.803,2.167,0.852,-3.4,0.075
2.535,1.158,-0.844,1.563,-1.003,1.301,-7.538,-0.159
4.952,3.139,0.166,4.052,-0.942,4.29,-9.086,1.889
11.311,9.992,7.112,11.438,5.583,12.218,-5.543,8.355
15.346,15.71,12.182,17.168,11.177,18.369,-1.581,13.994
11.591,13.826,8.721,13.756,8.362,14.802,-4.136,12.184
4.795,7.551,2.566,5.989,2.314,6.429,-11.776,6.059
1.256,4.065,1.67,3.634,1.302,3.5,-17.851,3.89
-0.547,2.918,3.464,5.831,3.157,5.542,-19.661,5.663
-2.873,0.417,2.628,5.539,2.303,5.486,-18.894,5.615
-2.276,-0.884,1.403,3.095,0.749,3.149,-17.553,3.996
1.598,1.581,2.612,2.865,1.761,2.768,-16.93,4.446
2.605,4.072,3.214,4.406,2.756,4.626,-16.838,6.697
0.683,5.234,2.54,6.24,2.854,7.513,-13.646,10.19
2.303,8.508,4.764,9.079,5.69,11.062,-6.07,15.364
5.39,11.491,8.127,10.153,9.187,11.724,-1.721,17.807
2.539,8.2,6.039,5.426,6.973,6.197,-7.204,12.856
-3.785,1.805,0.159,-1.257,1.221,-0.732,-16.887,5.791
-6.571,-0.361,-2.907,-3.329,-1.413,-2.482,-22.358,4.321
-6.697,0.989,-3.67,-2.251,-1.9,-0.976,-24.474,5.135
-7.305,2.013,-5.03,-1.946,-3.339,-0.449,-26.313,1.85
-5.335,4.112,-3.82,0.004,-2.374,1.306,-25.311,-0.727
2.026,9.238,2.502,6.244,3.616,6.579,-20.375,4.878
10.356,14.086,8.843,12.539,9.364,11.292,-16.541,13.471
12.421,13.994,8.827,13.143,8.507,10.771,-19.152,14.223
6.247,9.643,3.456,8.663,2.586,6.275,-26.958,7.281
0.467,8.132,0.996,6.522,0.181,4.486,-30.551,3.928
6.075,14.934,7.275,12.319,6.69,10.198,-22.887,10.893
18.032,24.165,16.321,20.819,15.888,18.58,-11.713,20.146
20.604,25.431,18.223,22.894,18.152,20.874,-10.476,21.324
12.325,19.313,13.768,18.808,14.137,16.712,-18.507,17.057
6.134,14.539,10.505,15.273,10.871,12.739,-24.159,15.022
7.049,13.817,10.098,14.064,10.27,11.706,-23.982,14.843
7.356,12.388,8.47,11.413,9.041,9.904,-24.194,11.999
3.451,8.306,4.994,6.983,6.343,5.869,-26.356,7.942
1.413,6.186,4.433,6.038,5.979,4.463,-24.673,8.502
3.309,8.167,7.36,9.26,8.436,7.073,-18.676,12.454
3.59,9.78,7.471,9.983,8.06,7.418,-16.72,11.607
1.052,8.733,3.257,6.465,3.595,3.549,-21.447,5.35
0.539,7.97,0.871,4.954,1.12,1.794,-24.569,2.391
3.111,8.921,2.119,7.362,2.399,4.293,-21.742,5.06
4.861,9.998,1.589,7.98,1.901,5.209,-19.456,5.615
3.557,9.509,-3.191,3.702,-2.903,0.98,-23.034,0.085
0.973,6.987,-7.975,-1.682,-7.823,-5.007,-28.536,-6.232
0.407,4.487,-8.26,-3.558,-8.528,-7.708,-30.025,-7.363
3.089,4.363,-4.314,-1.579,-5.093,-5.671,-27.032,-3.012
6.345,5.487,0.239,1.438,-0.614,-1.416,-23.148,2.571
6.367,5.147,2.32,2.66,2.064,1.278,-21.89,4.984
3.352,3.008,1.974,1.65,2.781,1.014,-23.477,4.763
0.308,0.077,0.639,-0.101,2.47,-0.716,-26.559,5.216
-2.348,-3.671,-2.073,-2.364,0.3,-3.168,-30.774,4.867
-5.221,-7.18,-5.99,-5.344,-3.601,-6.276,-33.85,0.715
-6.69,-7.588,-8.275,-7.167,-6.288,-8.198,-32.99,-4.005
-4.581,-3.492,-6.647,-5.785,-5.354,-7.144,-28.05,-3.999
2.484,4.458,-0.926,-0.528,-0.313,-2.547,-18.803,1.129
13.692,14.596,7.263,7.941,7.443,5.39,-5.717,8.156
23.636,22.852,13.586,15.553,13.491,12.927,5.899,12.974
25.798,24.228,14.023,16.573,13.657,14.055,9.618,12.179
21.433,20.027,10.989,11.986,10.393,9.403,6.787,7.691
18.782,17.545,10.25,9.05,9.578,6.163,5.052,5.423
20.756,18.641,11.545,9.661,11.081,6.526,7.403,5.873
21.695,17.978,10.626,9.329,10.738,6.232,9.659,5.048
18.084,14.171,7.866,7.228,8.574,4.126,8.587,3.841
13.745,11.968,6.336,6.629,7.121,3.364,6.105,5.005
12.488,13.172,5.421,7.483,5.752,4.411,4.355,5.597
13.453,15.331,4.297,8.054,4.064,5.521,3.876,4.221
14.95,17.54,5.677,9.835,5.012,7.511,6.006,5.812
16.901,19.572,9.069,12.769,8.13,10.297,10.328,9.89
18.97,19.733,10.091,13.492,9.284,11.352,14.564,10.078
19.311,17.642,9.028,12.468,8.944,11.465,17.606,7.444
16.928,15.315,9.383,13.157,10.1,13.252,19.211,7.958
13.364,14.455,10.501,14.465,11.535,14.764,19.239,10.92
9.925,13.551,8.846,12.123,9.843,11.937,16.695,10.285
5.77,9.333,3.058,5.484,3.829,4.999,10.545,3.548
0.156,2.226,-4.343,-1.803,-4.146,-2.138,2.515,-4.996
-3.109,-1.209,-7.152,-4.298,-7.647,-4.794,-1.671,-7.917
3.668,5.693,0.409,2.883,-0.358,1.518,4.724,-0.26
20.154,19.468,15.139,17.559,14.477,15.495,20.116,14.894
32.632,27.803,24.991,28.343,24.37,26.417,31.575,25.907
30.349,24.756,23.079,26.829,22.384,25.21,28.832,23.491
18.514,15.929,14.666,16.924,14.119,15.036,16.044,11.149
9.039,7.987,7.909,7.586,7.848,5.099,4.646,0.121
8.215,4.926,7.355,5.123,7.761,2.429,1.887,-1.126
14.35,9.506,13.738,11.352,14.272,9.14,7.458,8.201
20.576,17.575,21.558,20.179,21.957,18.598,14.064,19.85
20.439,19.642,22.697,21.212,22.942,19.594,13.226,22.121
13.363,13.039,16.182,12.677,16.448,10.258,4.259,12.304
