EEG 1,EEG 2,EEG 3,EEG 4,EEG 5,EEG 6,EEG 7,EEG 8
7.636,6.463,-5.695,-6.16,-3.367,-5.131,0.043,-4.82
6.197,1.543,-8.822,-6.806,-6.82,-4.337,-4.994,-5.618
0.945,-1.951,-12.075,-8.707,-10.587,-6.336,-8.95,-8.079
-1.771,0.325,-11.503,-8.523,-10.825,-7.836,-7.89,-9.944
-0.539,1.633,-9.092,-7.007,-9.238,-8.196,-3.946,-10.132
-4.155,-5.535,-11.563,-9.862,-12.043,-12.408,-5.751,-13.131
-11.198,-10.248,-15.617,-13.702,-16.113,-16.854,-13.941,-17.064
-7.271,1.626,-11.227,-9.259,-12.108,-12.173,-17.178,-13.363
7.856,20.114,-0.55,0.437,-1.936,-2.094,-10.126,-3.627
15.544,23.036,3.71,3.392,2.767,0.713,-1.905,0.467
6.135,8.197,-3.147,-3.878,-2.873,-6.871,-3.334,-6.525
-7.096,-5.065,-12.055,-12.699,-11.12,-15.495,-12.482,-16.616
-8.648,-5.174,-12.87,-13.959,-12.087,-15.968,-16.469,-18.371
-1.614,-0.368,-6.269,-8.319,-5.533,-9.342,-9.039,-11.036
2.415,1.246,-0.082,-2.652,1.071,-2.967,1.049,-3.21
1.116,1.34,0.711,-1.503,2.265,-1.773,3.649,-1.229
-1.343,-0.555,-2.88,-5.032,-1.116,-5.688,-0.393,-4.951
-5.237,-8.495,-8.25,-11.697,-6.044,-12.281,-6.277,-11.894
-15.094,-21.24,-16.038,-20.853,-13.274,-20.645,-15.474,-21.492
-27.748,-30.476,-24.814,-29.476,-22.201,-28.696,-27.046,-30.99
-31.065,-27.814,-26.452,-30.568,-24.671,-30.032,-29.028,-32.318
-23.47,-17.551,-19.324,-23.878,-17.96,-23.766,-16.175,-24.206
-17.555,-12.859,-14.792,-18.916,-12.986,-18.675,-3.671,-17.189
-19.39,-15.943,-20.283,-21.28,-18.04,-20.181,-8.545,-18.654
-24.155,-20.242,-29.73,-27.386,-27.731,-25,-26.092,-25.233
-27.861,-24.294,-34.298,-31.751,-32.573,-28.394,-35.575,-29.998
-29.726,-28.344,-32.876,-32.33,-30.73,-28.845,-30.392,-29.919
-30.578,-32.207,-31.308,-31.969,-28.554,-28.929,-24.959,-27.908
-32.215,-38.705,-33.717,-34.382,-30.947,-31.884,-26.415,-27.36
-33.187,-44.389,-35.649,-36.718,-33.361,-34.713,-24.53,-25.753
-31.876,-39.973,-31.848,-34.187,-29.902,-32.442,-14.659,-20.487
-33.051,-30.651,-27.997,-31.575,-25.967,-29.879,-9.12,-18.228
-38.227,-29.801,-30.399,-34.92,-28.228,-33.621,-16.375,-24.617
-37.733,-31.968,-31.467,-37.143,-29.445,-36.608,-24.531,-30.222
-24.671,-22.827,-22.694,-29.53,-20.971,-29.351,-20.491,-24.302
-6.655,-6.387,-11.076,-18.584,-9.573,-18.283,-10.977,-13.834
2.481,1.864,-8.138,-16.111,-6.679,-16.042,-8.688,-12.38
-1.636,-2.342,-12.438,-20.599,-10.73,-21.405,-11.49,-18.602
-9.064,-9.274,-14.692,-21.788,-12.481,-23.31,-10.559,-21.023
-9.364,-9.74,-13.419,-18.119,-10.832,-19.433,-7.878,-17.791
-5.948,-7.301,-14.977,-17.381,-12.345,-17.941,-11.173,-17.223
-5.986,-10.247,-19.992,-21.334,-17.502,-21.496,-17.893,-21.008
-4.068,-12.76,-19.143,-20.143,-17.109,-20.331,-16.089,-19.06
5.583,-3.809,-8.481,-8.682,-7.325,-8.693,-3.205,-6.79
13.441,9.118,0.394,1.392,0.751,1.824,6.011,2.997
11.993,12.884,-2.085,-0.531,-2.012,-0.018,1.201,-0.583
8.611,9.934,-8.426,-7.849,-8.404,-7.674,-8.018,-9.468
7.16,6.462,-8.587,-10.863,-8.898,-10.697,-10.149,-12.585
3.407,3.779,-3.2,-9.07,-4.177,-8.543,-6.148,-10.042
0.446,3.775,3.066,-5.389,1.588,-4.997,-0.658,-5.943
3.546,5.873,7.358,-2.066,6.035,-2.313,3.799,-2.396
7.917,6.928,8.02,-0.63,7.187,-1.118,4.936,-0.393
7.281,6.486,4.955,-1.784,4.228,-2.042,2.038,-1.034
3.631,5.588,0.286,-5.308,-0.432,-5.551,-2.728,-5.013
1.033,4.262,-2.497,-8.468,-2.618,-8.968,-5.802,-9.487
0.346,4.112,-1.441,-7.616,-0.845,-8.123,-4.381,-9.246
3.103,7.746,1.477,-3.352,2.043,-3.345,-0.008,-4.546
7.443,10.096,1.612,-1.806,1.739,-1.006,1.224,-3.307
3.957,2.479,-3.653,-7.731,-3.233,-6.531,-3.908,-10.553
-7.437,-9.64,-9.778,-15.698,-8.277,-14.726,-10.674,-18.849
-11.336,-11.983,-8.614,-15.015,-6.532,-14.075,-11.53,-16.895
-3.882,-5.039,-1.571,-6.527,0.033,-4.931,-6.982,-7.202
-0.509,-1.586,-0.125,-2.975,0.762,-0.812,-6.627,-3.796
-5.582,-3.548,-5.941,-7.263,-5.494,-5.055,-11.69,-8.892
-4.816,-1.366,-5.714,-6.653,-5.599,-4.546,-9.161,-8.182
5.872,6.169,5.098,3.354,5.021,5.147,4.346,3.402
13.147,10.224,12.925,9.632,12.913,10.75,13.354,11.723
10.48,8.348,9.359,4.815,9.527,5.39,9.324,8.178
5.566,5.729,3.082,-1.932,3.353,-1.291,2.633,1.924
4.479,3.81,2.406,-3.214,2.566,-1.864,2.5,1.202
5.888,2.079,5.05,-1.777,4.794,0.461,6.426,3.522
6.945,2.069,6.494,-0.784,5.754,1.895,9.679,5.09
5.664,2.031,5.412,-0.334,4.509,2.413,10.297,5.685
2.772,-0.275,2.671,-0.779,1.821,2.161,8.081,5.572
0.622,-3.054,-1.044,-3.473,-2.089,-0.443,3.374,2.905
-1.905,-5.678,-5.579,-7.864,-7.092,-5.302,-3.137,-2.811
-5.022,-7.41,-7.363,-8.866,-9.095,-6.95,-6.721,-5.771
-4.093,-4.089,-3.25,-3.752,-4.66,-2.221,-3.347,-2.217
0.797,2.94,0.749,0.286,-0.102,1.429,0.123,-0.104
3.469,5.872,-1.71,-2.863,-2.132,-2.217,-3.781,-5.709
2.196,3.553,-5.612,-6.972,-5.821,-6.593,-9.236,-11.024
0.609,1.951,-4.415,-5.004,-4.529,-4.673,-8.273,-8.378
1.654,3.191,0.206,0.436,0.281,0.53,-2.44,-2.095
4.925,4.586,3.808,4.322,4.239,4.021,3.058,1.731
6.932,4.429,3.459,4.424,4.078,4.195,4.14,2.068
4.806,3.074,-1.36,0.255,-0.969,0.637,-0.576,-0.652
1.359,2.022,-5.192,-3.411,-5.213,-2.664,-4.201,-2.916
2.781,3.699,-1.127,1.057,-1.729,1.598,1.137,1.488
8.429,8.352,7.451,11.323,5.88,11.702,8.927,10.679
10.432,11.836,10.576,16.267,8.093,16.871,8.296,14.873
6.113,10.106,6.89,12.519,4.23,13.09,2.2,10.968
0.674,4.736,2.839,6.67,0.838,6.544,-1.381,4.927
-2.14,0.472,0.519,2.705,-0.354,2.059,-3.029,0.811
-3.4,-2.116,-2.94,-1.046,-2.919,-1.373,-6.694,-2.703
-5.724,-6.83,-8.025,-5.175,-7.869,-4.953,-12.109,-7.001
-9.901,-13.697,-11.649,-7.399,-11.833,-6.927,-15.911,-10.395
-12.263,-16.782,-11.242,-6.507,-11.614,-5.705,-15.692,-10.352
-9.088,-12.925,-8.138,-4.436,-8.427,-3.048,-13.054,-7.569
-3.866,-7.106,-6.221,-3.682,-6.437,-1.89,-11.672,-5.169
-1.445,-4.776,-5.59,-3.139,-5.713,-1.371,-10.869,-3.396
1.685,-2.664,-1.168,1.89,-0.827,3.345,-5.575,1.064
10.209,4.585,8.264,12.386,9.314,13.474,4.118,8.909
19.098,13.6,15.556,21.396,17.011,22.405,10.579,15.017
21.252,18.644,15.472,23.079,17.117,24.236,10.817,15.325
19.286,19.979,12.25,20.009,14.297,20.911,10.444,12.887
19.09,19.721,11.014,16.391,13.248,16.765,11.34,11.382
18.668,18.167,9.656,11.836,11.35,12.495,8.314,8.55
15.044,15.694,5.707,6.068,6.715,7.795,0.249,2.752
13.795,14.838,3.549,3.207,4.367,5.446,-5.749,-1.029
18.786,16.864,6.802,5.594,7.71,7.619,-4.445,0.742
23.446,17.82,10.78,8.36,11.969,10.496,-0.881,2.981
22.053,15.009,10.4,6.881,12.359,9.405,-1.162,0.821
18.132,11.902,8.38,4.028,10.974,6.328,-1.695,-2.113
18.172,12.883,9.861,5.014,11.896,6.599,1.869,-0.936
22.71,17.868,13.889,9.571,14.749,10.808,4.605,2.278
23.723,19.885,14.496,12.01,15.152,13.461,1.031,2.165
15.099,12.369,10.207,9.315,11.659,10.849,-4.946,-1.331
4.581,2.152,7.551,6.836,9.493,7.819,-5.868,-2.115
4.423,2.743,11.67,11.14,13.366,11.446,0.355,3.817
12.958,13.814,18.422,19.67,19.672,19.833,9.759,12.546
18.18,21.924,20.565,24.146,21.366,24.318,15.903,16.868
15.751,20.295,17.656,21.99,18.035,21.838,15.508,15.152
11.21,14.516,14.406,17.84,14.796,17.52,11.735,12.035
8.845,11.148,13.335,15.81,14.252,15.68,10.178,11.117
7.007,9.436,13.527,15.4,14.887,15.23,11.802,11.128
2.119,4.257,13.011,14.123,14.249,13.836,11.677,9.559
-5.069,-4.689,9.801,10.452,10.55,10.709,6.101,6.081
-9.239,-10.972,3.502,4.735,4.098,6.097,-1.518,1.982
-8.056,-10.028,-1.347,1.269,-0.22,3.557,-3.532,0.757
-5.012,-4.629,1.411,5.237,3.219,7.721,4.059,6.179
-3.119,-1.282,8.907,13.03,10.957,15.03,15.426,14.439
-1.261,-2.945,11.342,14.996,13.245,16.521,18.981,16.355
0.457,-6.8,7.301,10.213,8.972,11.677,11.383,11.239
-2.726,-10.49,4.14,6.164,5.629,7.64,2.163,7.158
-11.394,-14.858,3.858,5.034,5.157,6.362,-0.107,6.86
-17.068,-18.637,2.306,3.434,3.385,4.521,2.357,6.475
-14.942,-18.615,-0.061,2.138,1.004,2.792,5.179,6.057
-12.328,-16.889,-0.169,3.267,1.215,3.411,6.796,7.389
-16.748,-19.574,-1.097,2.913,0.6,3.142,2.928,6.183
-22.434,-24.533,-4.78,-0.882,-3.145,0.2,-5.176,1.089
-18.473,-21.657,-4.868,-1.849,-3.664,-0.109,-5.527,0.236
-5.967,-10.278,1.37,2.845,1.977,4.175,4.332,6.67
4.374,-1.624,8.191,8.067,8.25,8.109,12.549,13.115
5.561,-2.564,11.767,10.61,11.388,9.308,13.35,15.341
0.189,-7.978,13.179,11.913,12.344,9.917,11.092,15.747
-2.828,-8.598,14.506,14.244,13.278,12.226,10.36,17.064
1.133,-1.733,17.594,19.267,16.175,17.208,13.897,20.605
9.076,8.351,23.973,27.387,22.43,24.758,23.307,27.26
15.989,16.034,31.296,35.46,29.685,32.057,34.047,34.75
17.31,17.005,32.005,36.599,30.443,32.725,35.58,35.474
12.767,12.154,24.279,29.335,22.722,25.398,25.582,26.234
6.858,6.231,16.865,21.975,15.318,18.271,14.514,15.38
2.527,1.366,15.785,20.526,14.459,17.109,11.131,11.698
1.553,-0.885,18.553,22.199,17.544,18.914,15.317,14.839
5.492,1.741,22.111,23.327,21.481,19.938,22.948,19.521
10.886,7.361,25.291,23.558,25.306,19.741,28.632,21.597
11.752,10.85,25.594,22.372,26.342,18.027,27.358,19.481
6.895,7.578,20.81,18.129,21.939,13.736,19.553,13.423
-0.081,-2.667,13.596,11.859,14.684,7.837,12.36,6.037
-3.774,-11.363,10.328,8.933,11.269,5.014,11.797,2.964
-1.664,-10.283,12.928,12.474,13.879,8.474,16.191,7.287
-0.182,-4.972,15.039,16.687,15.987,13.278,18.564,12.782
-5.743,-5.192,11.09,14.388,11.747,12.228,14.255,11.195
-13.032,-9.926,3.565,6.904,3.982,5.475,6.015,3.585
-16.35,-14.199,-3.19,-0.554,-2.516,-2.555,-1.384,-4.043
-17.006,-15.271,-5.867,-3.483,-4.945,-6.848,-5.458,-6.876
-11.455,-8.237,0.775,3.291,1.19,-1.022,-1.244,0.251
2.79,5.692,15.033,17.344,14.585,13.281,11.961,14.946
12.875,13.246,23.839,25.716,23.11,22.76,21.75,23.553
7.446,6.273,19.48,21.642,18.941,19.858,17.652,19.063
-6.819,-8.87,7.474,10.617,6.861,9.823,3.885,7.994
-19.518,-22.553,-4.713,-1.065,-5.496,-1.119,-9.606,-3.128
-26.63,-28.244,-12.101,-8.254,-12.719,-8.188,-15.413,-10.191
-24.753,-23.141,-10.515,-5.388,-11.242,-5.877,-11.601,-7.99
-14.035,-11.479,-1.781,5.355,-3.363,4.312,-4.032,2.022
-3.709,-2.323,5.012,13.349,2.626,12.301,-0.457,9.768
-1.641,-0.573,4.289,12.97,1.76,12.248,-1.484,9.508
-3.644,-3.488,0.052,8.97,-2.42,8.439,-2.155,5.469
-3.346,-7.254,-3.138,5.736,-5.726,5.095,-1.308,1.6
-4.232,-10.846,-6.336,2.045,-8.986,1.189,-3.793,-2.706
-11.36,-13.869,-10.578,-2.471,-13.143,-3.348,-11.656,-6.875
-19.985,-16.569,-14.314,-6.23,-16.826,-7.087,-18.73,-9.894
-23.439,-19.398,-16.949,-9.924,-19.452,-11.28,-19.661,-13.34
-22.313,-20.29,-17.651,-13.014,-20.073,-15.411,-16.735,-16.226
-18.594,-16.55,-13.892,-10.962,-16.074,-14.06,-12.34,-13.572
-13.821,-10.815,-7.88,-4.898,-9.567,-7.693,-7.106,-6.716
-10.971,-8.643,-6.335,-3.758,-7.517,-5.78,-5.362,-4.967
-9.288,-9.421,-9.924,-9.778,-11.225,-11.606,-9.988,-11.384
-5.183,-8.187,-13.593,-15.521,-15.522,-17.939,-16.936,-18.596
3.401,-2.594,-14.083,-15.48,-16.061,-18.548,-19.054,-19.51
14.627,6.435,-9.996,-10.127,-11.068,-13.523,-11.818,-13.358
21.953,14.615,-1.964,-3.176,-2.218,-6.869,1.814,-4.151
24.609,18.601,6.822,2.299,6.55,-1.741,13.578,3.709
29.208,20.362,13.019,5.596,12.461,1.368,17.486,7.855
35.278,22.391,14.366,5.835,13.773,1.598,13.847,7.1
39.585,26.464,12.522,4.486,11.768,0.287,9.104,4.167
47.253,35.034,12.893,7.257,11.533,2.896,8.516,5.385
61.621,47.631,17.74,15.787,15.486,10.941,10.579,12.342
75.905,59.504,23.881,24.093,20.833,18.823,13.208,19.677
82.021,63.975,28.297,27.086,25.081,21.874,17.302,22.816
82.001,60.891,32.582,27.339,29.77,22.423,23.057,23.782
85.07,60.325,39.244,30.417,36.741,25.547,29.091,27.366
92.341,67.996,45.293,35.743,42.925,30.666,33.049,32.675
96.194,77.036,45.756,37.713,43.675,32.372,32.539,33.456
94.732,79.52,41.867,34.951,39.828,29.289,28.006,27.913
93.065,74.807,38.172,30.897,35.417,24.824,21.759,20.617
92.698,67.115,34.89,26.698,31.236,20.338,14.542,14.202
89.398,60.432,30.418,21.508,26.682,15.283,8.201,8.61
81.128,55.887,26.514,17.114,23.546,11.103,6.995,6.023
73.081,52.99,24.569,15.032,22.529,8.577,10.276,6.732
70.613,49.622,22.675,13.265,21.155,5.931,10.776,5.867
68.897,43.271,20.187,10.839,18.457,3.135,4.562,1.744
60.955,36.023,18.955,9.693,16.652,2.378,-3.051,-0.964
52.199,32.621,18.876,9.718,16.509,2.969,-5.819,-0.797
50.023,32.502,17.122,7.987,15.232,1.401,-6.277,-2.266
50.799,31.342,13.689,5.378,12.194,-1.445,-8.29,-5.415
50.908,30.742,13.654,8.072,12.472,1.047,-5.914,-2.812
53.048,34.574,18.86,17.117,18.106,10.227,4.611,6.96
55.14,36.41,22.87,23.768,22.341,17.329,11.593,13.58
51.319,29.097,21.249,22.646,20.482,16.636,6.44,10.97
45.255,21.052,18.541,19.135,17.198,13.04,-0.579,5.762
43.575,22.386,19.199,18.436,17.322,11.648,0.311,4.264
41.062,28.036,21.508,19.657,19.623,12.195,4.679,5.585
31.926,29.249,22.716,20.956,21.337,13.678,6.485,7.245
23.168,25.223,21.388,20.339,20.504,14.086,5.088,6.785
21.42,19.024,16.888,16.19,16.376,10.781,1.426,3.042
22.836,14.447,12.127,11.722,12.127,6.434,-1.883,-0.354
21.624,12.92,10.522,10.568,11.076,5.459,-2.397,-0.159
15.895,10.781,9.923,9.977,10.838,5.706,-1.757,0.671
7.951,6.722,8.008,7.442,9.068,4.079,-1.72,-0.503
3.437,5.421,8.401,6.904,9.318,4.149,-0.227,-0.271
5.124,8.431,13.735,11.455,14.181,9.392,4.162,4.685
8.287,10.588,19.776,17.568,19.696,16.091,9.183,11.668
6.966,8.053,21.359,20.673,21.062,19.095,12.418,15.717
2.44,3.703,18.632,20.763,18.362,18.614,13.592,15.632
-1.072,1.907,14.782,19.845,14.459,17.126,13.236,13.392
-5.236,0.801,10.775,17.542,10.527,14.223,11.327,9.779
-12.503,-4.621,5.505,12.794,5.848,8.975,6.74,4.573
-18.214,-11.898,0.902,8.707,1.763,5.164,0.937,1.124
-18.252,-12.532,0.81,9.514,1.327,7.342,-0.075,3.886
-17.449,-6.901,2.942,12.35,2.798,11.885,4.4,9.577
-21.389,-6.26,0.97,10.268,0.577,10.72,5.806,9.694
-27.029,-14.985,-4.217,3.298,-4.957,3.534,0.621,3.226
-29.197,-23.601,-5.849,-1.807,-7.331,-2.349,-3.694,-1.9
-29.651,-24.576,-3.038,-2.068,-4.803,-3.193,-2.022,-0.784
-32.195,-22.494,-1.047,-1.1,-2.221,-2.295,1.673,2.93
-34.365,-23.116,-1.288,-1.088,-1.624,-1.892,4.045,5.404
-32.765,-24.687,-0.947,-0.19,-0.767,-0.261,6.773,7.601
-32.184,-26.013,-1.218,0.275,-0.952,0.874,8.506,8.539
-37.474,-28.988,-4.702,-2.601,-4.559,-2.143,5.853,5.55
-42.923,-30.939,-7.936,-5.241,-7.776,-5.964,1.875,2.125
-42.298,-28.971,-7.022,-3.339,-6.76,-5.236,1.257,2.944
-38.544,-27.019,-3.849,0.426,-3.696,-1.261,3.313,6.196
-36.053,-28.1,-1.359,2.616,-1.513,2.239,5.931,8.691
-35.291,-28.797,0.246,4.425,-0.16,4.975,9.067,11.154
-36.906,-27.407,1.012,6.621,0.886,7.618,12.769,14.649
-42.591,-28.311,-1.605,5.471,-0.528,7.364,14.194,15.753
-49.405,-33.143,-8.721,-0.903,-6.159,1.894,10.389,11.024
-49.798,-35.933,-14.522,-6.744,-11.469,-4.205,4.699,4.569
-43.389,-33.203,-13.617,-6.85,-11.292,-5.432,2.657,2.437
-39.876,-30.259,-10.405,-5.028,-8.963,-4.093,2.439,3.038
-44.368,-31.851,-11.887,-7.486,-10.663,-5.773,-1.534,1.175
-50.607,-35.538,-16.402,-12.667,-14.789,-9.913,-6.974,-2.441
-51.783,-37.1,-17.066,-13.694,-14.76,-10.558,-6.074,-2.215
-48.318,-35.499,-12.576,-9.299,-9.574,-5.927,0.826,3.003
-43.979,-33.311,-8.111,-5.441,-4.679,-1.307,5.552,7.826
-41.906,-34.504,-7.725,-6.06,-4.142,-1.134,4.681,7.938
-43.349,-38.011,-11.029,-9.479,-7.425,-4.338,1.126,4.151
-45.883,-37.446,-15.797,-13.457,-12.268,-8.402,-3.768,-1.145
-47.262,-32.237,-19.904,-17.503,-16.641,-12.477,-9.833,-6.576
-49.867,-30.786,-21.533,-20.689,-18.866,-15.727,-13.29,-10.782
-54.062,-36.563,-20.513,-21.651,-18.686,-16.777,-11.277,-12.317
-54.629,-40.82,-18.972,-20.608,-17.621,-15.648,-6.859,-10.955
-50.482,-36.798,-18.908,-19.297,-17.112,-14.127,-4.009,-8.335
-46.875,-30.709,-19.895,-19.196,-17.272,-13.983,-3.072,-6.808
-46.047,-31.014,-20.916,-20.777,-18.159,-15.893,-4.214,-7.821
-46.52,-36.526,-22.83,-23.545,-20.671,-19.165,-9.097,-11.211
-47.492,-39.801,-25.609,-25.078,-23.911,-20.846,-15.088,-13.819
-46.792,-36.913,-26.056,-22.469,-24.175,-17.644,-15.096,-11.35
-43.32,-31.415,-23.152,-17.084,-20.72,-11.129,-8,-4.911
-41.326,-28.276,-21.11,-13.677,-18.214,-6.908,-1.526,-0.655
-42.989,-28.173,-22.613,-13.867,-19.604,-7.508,-2.343,-1.772
-45.023,-30.756,-25.026,-15.462,-22.368,-10.759,-9.06,-6.164
-46.671,-34.907,-24.705,-15.42,-22.378,-12.434,-14.412,-9.004
-49.928,-36.452,-21.513,-12.109,-18.736,-9.46,-13.485,-6.613
-54.287,-35.498,-20.767,-9.897,-17.166,-6.244,-10.598,-3.141
-57.124,-36.391,-25.704,-13.863,-22.037,-9.432,-11.578,-5.399
-55.476,-36.929,-29.537,-18.958,-26.342,-14.765,-13.083,-9.983
-50.502,-34.541,-27.979,-19.604,-24.657,-15.659,-11.381,-10.961
-48.001,-34.652,-28.105,-20.32,-24.243,-15.725,-11.188,-11.513
-48.912,-38.015,-32.969,-23.567,-29.286,-17.932,-15.969,-14.077
-48.361,-36.953,-35.421,-24.148,-32.658,-18.08,-20.702,-14.366
-44.855,-30.071,-31.021,-19.695,-29.072,-13.991,-18.21,-9.99
-41.26,-24.186,-22.751,-12.825,-21.429,-7.568,-9.024,-3.015
-39.331,-22.9,-15.595,-6.974,-15.03,-1.81,-2.208,2.757
-39.39,-24.478,-13.446,-5.751,-13.179,-0.785,-2.611,3.532
-42.012,-26.739,-16.648,-9.776,-15.677,-5.2,-4.007,0.014
-45.016,-28.079,-21.683,-15.223,-19.827,-10.646,-2.007,-3.329
-44.34,-28.127,-26.191,-19.591,-24.108,-14.767,-2.685,-5.488
-39.444,-27.517,-28.927,-22.104,-26.711,-17.472,-8.349,-7.066
-33.222,-26.303,-26.876,-20.239,-23.968,-16.065,-9.429,-5.184
-31.104,-25.83,-21.864,-15.648,-18.195,-11.448,-2.614,-0.51
-38.121,-28.755,-22.715,-16.635,-18.724,-11.967,-0.21,-1.305
-50.31,-34.938,-31.935,-26.125,-27.963,-21.238,-9.779,-11.042
-56.679,-40.409,-39.544,-34.971,-36.128,-30.269,-20.604,-20.709
-52.234,-40.724,-37.292,-33.871,-35.006,-29.372,-20.714,-21.1
-41.799,-34.34,-29.704,-25.351,-28.136,-20.867,-13.475,-14.486
-33.698,-24.855,-25.246,-18.398,-23.425,-13.901,-8.947,-9.051
-32.575,-19.159,-25.109,-16.453,-23.045,-12.057,-9.45,-8.179
-34.413,-19.162,-24.836,-15.931,-23.378,-11.663,-9.754,-8.458
-31.933,-18.872,-21.209,-13.554,-20.616,-9.568,-6.308,-6.185
-26.356,-14.614,-15.522,-10.176,-15.209,-6.775,-1.655,-2.423
-25.5,-12.981,-12.389,-8.986,-11.793,-6,-0.289,-0.885
-30.252,-20.524,-14.766,-12.506,-13.815,-9.397,-3.568,-3.705
-33.616,-30.603,-20.053,-19.174,-18.859,-15.913,-8.814,-9.164
-33.195,-32.526,-23.305,-23.93,-21.817,-20.796,-11.754,-12.923
-31.683,-26.623,-22.496,-23.704,-20.702,-20.358,-10.172,-12.1
-27.73,-19.81,-18.498,-19.45,-16.582,-15.143,-4.049,-7.183
-21.969,-16.44,-14.225,-14.802,-12.199,-9.317,4.037,-1.844
-22.283,-17.362,-13.818,-14.075,-11.35,-7.925,6.346,-1.035
-27.801,-18.555,-15.914,-16.068,-12.919,-9.927,-0.176,-4.012
-25.593,-13.889,-13.418,-14.304,-10.536,-8.565,-5.42,-4.271
-13.904,-4.948,-6.386,-8.548,-4.244,-3.416,-2.672,-1.219
-6.271,-0.256,-2.72,-5.571,-1.149,-1.128,1.091,-0.631
-7.923,-2.57,-4.35,-7.312,-2.962,-3.533,0.436,-3.793
-10.578,-6.553,-7.213,-10.242,-5.869,-7.053,-2.239,-8.117
-10.396,-8.724,-10.654,-13.516,-9.002,-10.578,-5.692,-13.229
-11.32,-10.146,-15.027,-17.758,-12.753,-14.675,-9.982,-18.532
-12.865,-10.029,-16.455,-19.757,-14.045,-16.552,-11.791,-20.707
-11.094,-6.426,-13.326,-17.364,-11.474,-14.192,-10.612,-19.21
-8.203,-2.098,-11.394,-15.342,-10.077,-12.123,-12.538,-19.021
-6.772,0.746,-12.994,-16.274,-12.021,-12.882,-17.538,-21.023
-3.689,4.55,-12.37,-15.128,-12.037,-11.573,-17.63,-19.512
0.889,8.325,-8.177,-10.859,-8.808,-7.349,-13.259,-14.791
4.457,9.91,-4.331,-7.703,-5.743,-4.587,-10.138,-11.911
8.206,11.803,-1.991,-6.282,-3.598,-3.614,-7.343,-10.486
7.055,10.646,-3.893,-8.01,-5.247,-5.461,-6.872,-11.335
-6.761,-1.247,-13.163,-16.345,-14.355,-13.763,-15.729,-18.719
-22.785,-16.185,-22.808,-25.61,-23.961,-23.078,-27.967,-27.119
-22.905,-17.517,-22.367,-24.976,-22.923,-22.391,-27.237,-24.692
-11.307,-7.139,-14.445,-16.347,-13.773,-13.673,-12.954,-13.316
-5.909,-1.89,-10.582,-12.368,-9.037,-10.06,-2.816,-7.462
-8.845,-5.905,-13.766,-16.843,-12.223,-15.363,-6.977,-12.564
-10.633,-9.206,-18.006,-22.369,-16.759,-21.383,-18.072,-20.29
-10.799,-8.629,-20.938,-25.371,-19.824,-23.955,-25.841,-24.361
-14.407,-10.097,-24.607,-28.605,-23.593,-26.318,-28.352,-26.931
-19.305,-13.661,-26.955,-30.453,-25.968,-27.602,-27.83,-28.495
-18.432,-12.118,-22.912,-25.065,-21.754,-21.986,-23.048,-23.854
-11.284,-4.686,-15.087,-14.808,-13.93,-11.729,-14.483,-13.992
-7.452,-1.225,-14.002,-11.327,-13.349,-8.497,-11.367,-10.587
-12.939,-7.576,-22.328,-18.613,-22.215,-15.959,-19.293,-18.697
-19.273,-15.15,-29.238,-25.97,-29.154,-23.281,-28.559,-27.138
-16.302,-13.436,-26.312,-24.026,-26.086,-21.628,-27.725,-25.665
-7.92,-5.154,-18.299,-16.645,-18.226,-15.211,-18.638,-18.804
-5.467,-1.326,-13.87,-12.612,-13.929,-12.378,-11.098,-16.101
-10.953,-5.946,-14.574,-14.293,-14.42,-14.823,-11.716,-19.244
-16.167,-11.994,-16.516,-17.73,-16.212,-18.293,-19.025,-23.016
-15.388,-11.852,-16.689,-18.693,-16.635,-18.771,-24.592,-22.953
-9.95,-5.516,-14.121,-15.187,-14.438,-14.845,-21.446,-18.464
-4.772,1.005,-9.327,-8.192,-9.896,-7.912,-12.441,-11.934
-4.85,1.553,-5.174,-2.699,-5.852,-2.632,-6.236,-7.493
-9,-2.922,-4.433,-2.642,-4.962,-2.293,-6.034,-7.222
-10.809,-5.852,-6.424,-5.951,-6.597,-5.014,-8.239,-9.428
-8.8,-5.997,-9.047,-9.419,-8.813,-8.235,-10.465,-12.319
-7.151,-6.521,-11.347,-12.372,-10.683,-11.128,-12.791,-14.832
-6.841,-6.123,-12.114,-13.728,-11.129,-12.266,-13.138,-15.267
-3.867,-2.263,-9.119,-11.714,-7.918,-10.268,-8.477,-12.35
0.667,1.404,-3.673,-8.376,-2.079,-7.34,-1.217,-7.98
-2.394,-2.602,-3.578,-11.129,-1.501,-10.445,0.05,-9.022
-13.906,-14.051,-12.47,-22.106,-10.059,-21.678,-7.105,-18.319
-21.448,-21.972,-20.6,-30.372,-17.934,-30.385,-12.075,-26.005
-18.656,-20.093,-18.254,-27.035,-15.54,-27.491,-7.451,-23.057
-11.379,-13.454,-9.442,-18.035,-7.194,-18.56,-0.049,-14.768
-3.89,-6.351,-2.814,-12.207,-1.415,-12.382,1.723,-10.085
2.964,0.597,-0.4,-9.955,0.262,-9.642,-2.058,-9.509
4.586,3.724,-0.393,-8.541,-0.169,-8.011,-6.684,-9.537
-0.845,-0.419,-1.837,-8.059,-2.056,-7.723,-9.216,-9.957
-5.297,-7.255,-3.054,-8.424,-3.787,-8.291,-9.857,-11.061
-2.352,-7.743,-1.109,-6.915,-1.967,-6.598,-8.7,-9.919
3.262,-0.628,3.79,-2.808,3.178,-2.297,-5.376,-5.568
5.774,6.191,7.508,0.807,6.692,1.022,-1.081,-1.347
5.711,7.264,6.871,1.233,5.201,1.117,1.061,-0.451
3.347,4.131,2.154,-1.8,-0.141,-1.737,-2.76,-4.338
-2.795,-0.042,-3.581,-5.759,-5.662,-5.45,-11.232,-10.821
-9.236,-2.836,-5.567,-5.82,-6.807,-5.657,-14.795,-12.832
-8.583,-1.618,-0.969,0.368,-1.284,0.256,-6.962,-6.249
-0.682,3.221,5.774,7.86,5.866,7.562,3.22,2.287
6.048,6.493,6.462,8.99,6.329,8.495,2.605,3.032
8.112,6.207,1.653,4.429,1.306,3.817,-4.869,-2.335
8.529,5.622,-1.058,0.666,-1.245,0.207,-7.61,-5.728
7.15,4.469,-1.132,-2.288,-1.284,-2.383,-8.41,-8.144
5.125,1.813,-1.395,-6.264,-1.936,-6.153,-12.596,-12.653
6.745,1.879,1.344,-6.745,0.505,-6.971,-12.094,-13.386
9.049,5.433,7.805,-2.455,7.094,-3.342,-3.157,-7.921
7.684,7.697,11.968,0.59,11.265,-0.641,2.842,-4.01
6.982,8.038,11.297,-0.072,9.983,-1.266,-0.677,-5.532
11.105,10.399,10.31,-0.143,8.342,-1.342,-4.623,-6.475
17.787,16.132,13.816,4.406,11.835,3.013,0.305,-1.144
22.923,21.553,20.614,12.099,18.738,10.399,10.104,7.613
24.175,23.043,24.857,17.387,22.597,15.424,15.09,12.525
24.265,23.681,24.142,17.718,21.519,15.772,13.208,11.611
27.132,28.062,21.459,15.822,18.747,14.016,8.883,8.658
29.556,33.021,18.642,13.665,15.561,11.649,4.852,5.736
28.547,34.652,15.831,11.655,12.206,9.219,2.508,3.372
30.425,37.796,16.349,13.415,12.475,11.074,5.012,5.434
38.985,47.378,22.467,21.207,18.3,19.491,11.799,13.566
46.738,59.242,28.504,29.035,23.835,27.684,15.519,20.954
47.764,66.991,27.849,29.856,22.975,28.266,12.538,21.104
46.961,70.433,23.044,25.516,18.265,23.391,7.953,16.326
50.992,73.892,21.086,22.847,16.261,20.089,6.125,12.169
58.752,79.841,23.48,24.335,18.444,20.933,6.649,10.845
63.898,86.076,26.003,26.734,20.691,23.134,8.303,11.32
62.407,88.375,24.681,25.981,18.991,23.049,8.915,10.688
56.718,85.774,20.651,22.623,14.701,20.792,6.849,8.075
54.039,83.737,20.243,23.023,14.422,21.926,6.172,8.916
57.809,87.302,26.907,30.715,21.388,29.793,11.917,17.478
62.166,92.412,35.308,39.325,29.952,38.188,21.415,27.52
60.623,92.859,38.512,41.391,33.392,39.966,27.908,30.786
54.518,88.404,34.771,36.468,30.034,35.343,26.331,26.638
47.967,80.651,26.096,27.734,21.361,27.696,15.189,18.371
42.249,71.639,17.714,20.271,12.492,21.37,1.915,10.968
36.52,64.289,14.191,17.866,8.495,19.451,-3.332,8.055
29.483,58.575,12.773,16.902,7.01,18.335,-2.771,5.978
22.584,54.015,9.33,13.452,4.079,14.439,-3.475,1.787
21.608,54.563,7.932,13.051,3.248,13.713,-2.349,1.953
28.701,61.78,13.113,20.387,8.29,21.072,4.674,9.934
34.994,66.69,18.654,27.785,13.617,28.347,11.313,16.447
30.958,60.188,15.594,26.557,11.142,26.488,9.393,13.483
20.729,48.389,5.906,19.949,2.065,19.413,-0.15,5.952
15.343,44.01,-0.589,16.49,-4.611,15.992,-8.068,2.65
15.521,46.333,-0.353,17.613,-4.564,17.187,-7.861,4.238
13.762,45.034,0.455,17.716,-3.055,17.616,-4.196,5.156
10.501,39.724,-1.429,15.575,-3.997,16.516,-3.228,4.732
11.981,38.129,-0.889,16.791,-3.441,18.767,-1.972,7.508
13.882,37.42,2.468,20.065,-0.708,22.304,1.063,10.692
6.099,27.794,0.293,16.04,-2.941,18.117,-0.876,6.059
-7.606,13.184,-8.289,5.562,-11.025,7.502,-8.969,-3.704
-13.925,6.022,-13.218,-0.155,-16.037,1.549,-15.482,-8.408
-10.359,6.265,-10.609,0.894,-14.293,2.081,-16.798,-7.489
-5.17,6.182,-7.11,1.057,-11.368,1.536,-15.217,-7.384
-3.987,5.392,-6.912,-1.494,-10.942,-1.597,-12.423,-8.908
-6.515,5.913,-7.437,-2.107,-11.093,-2.406,-9.582,-8.532
-9.749,5.217,-6.131,0.579,-9.881,0.259,-7.949,-5.544
-11.615,1.957,-4.155,2.844,-8.282,2.328,-7.733,-2.918
-13.907,-2.603,-4.654,0.964,-8.723,0.233,-9.37,-3.94
-18.591,-9.222,-8.975,-4.871,-12.195,-5.616,-13.13,-8.389
-22.007,-17.147,-13.663,-9.903,-15.79,-10.524,-15.294,-11.07
-17.268,-18.796,-12.068,-7.279,-13.547,-7.68,-9.092,-5.822
-4.503,-9.644,-3.182,3.255,-4.514,2.832,3.603,5.13
3.291,-1.466,2.73,10.023,1.319,8.92,8.204,9.603
-4.136,-7.837,-1.791,5.038,-3.328,2.973,-1.109,2.505
-14.65,-19.428,-7.278,-1.078,-8.862,-3.65,-8.602,-3.865
-11.832,-18.37,-3.298,3.514,-4.682,1.104,-2.612,0.713
-3.588,-9.39,3.048,11.57,2.133,9.699,5.46,8.273
-5.325,-9.729,1.011,10.55,0.461,9.082,3.126,8.29
-11.72,-18.204,-4.631,4.356,-5.234,2.823,-2.72,5.042
-10.144,-19.494,-3.753,4.948,-4.489,3.319,-1.317,7.331
-4.99,-13.477,0.332,9.955,-0.341,8.877,2.43,11.332
-7.579,-15.369,-1.329,7.772,-2.01,7.539,0.364,9.114
-14.392,-26.434,-5.767,0.022,-6.44,0.26,-1.564,5.136
-14.601,-31.261,-5.266,-2.572,-5.478,-1.743,3.254,6.676
-9.477,-25.36,-2.561,-0.39,-2.024,1.681,7.357,9.357
-7.827,-20.035,-4.164,-1.234,-3.154,1.989,3.288,6.946
-10.564,-21.312,-8.273,-4.546,-7.288,-1.067,-2.98,3.241
-12.435,-24.095,-10.615,-5.329,-9.907,-2.286,-3.105,3.1
-12.618,-24.655,-13.11,-5.504,-12.576,-2.896,-0.756,2.586
-12.506,-24.097,-16.658,-7.631,-16.039,-5.096,-3.627,-0.839
-9.08,-21.766,-14.802,-6.333,-13.76,-3.917,-6.32,0.285
-2.964,-18.279,-6.374,0.353,-4.846,2.146,-0.095,8.312
-3.221,-19.91,-2.176,3.093,-0.784,4.169,7.598,11.804
-11.824,-28.081,-7.364,-2.867,-6.742,-2.106,5.828,4.99
-16.749,-33.727,-11.635,-8.054,-11.559,-7.476,0.09,-1.387
-9.531,-29.699,-5.142,-3.48,-4.904,-3.255,3.063,2.749
2.049,-20.327,6.738,6.091,7.512,5.974,14.851,12.608
6.415,-14.678,11.233,9.772,12.299,9.572,21.77,16.838
4.439,-14.985,5.952,5.637,6.831,5.524,15.599,12.765
3.117,-17.528,-0.594,-0.057,-0.144,-0.337,4.99,6.768
2.415,-20.857,-3.681,-4.705,-3.732,-5.485,-0.311,2.313
0.795,-23.958,-4.87,-8.635,-5.235,-9.856,-2.526,-2.068
2.085,-23.076,-3.984,-8.878,-4.003,-10.5,-4.549,-5.422
6.433,-18.705,-0.74,-5.191,0.029,-7.486,-3.325,-6.036
6.851,-17.741,0.478,-3.912,1.646,-6.959,-0.653,-6.858
0.38,-24.109,-4.285,-8.807,-3.347,-12.275,-3.849,-11.543
-6.45,-32.453,-10.915,-14.749,-10.277,-18.183,-10.44,-16.999
-5.853,-34.491,-11.054,-14.581,-10.353,-17.624,-9.496,-16.238
0.927,-30.275,-4.644,-9.535,-3.755,-12.095,-2.441,-9.883
4.253,-28.494,-1.342,-8.293,-0.42,-10.746,-2.024,-7.448
-1.117,-33.996,-6.758,-14.879,-5.611,-17.861,-11.127,-14.097
-7.564,-39.663,-13.746,-21.931,-11.792,-25.407,-19.678,-22.17
-5.384,-35.564,-12.492,-20.414,-9.644,-23.301,-18.486,-21.126
3.572,-22.315,-3.841,-11.547,-1.046,-13.029,-7.899,-11.329
12.821,-7.937,6.165,-1.406,7.823,-2.029,5.714,0.118
20.106,1.29,15.254,7.516,15.764,6.871,15.577,9.332
22.766,2.457,20.884,13.135,20.983,12.536,17.02,14.736
21.297,-1.005,21.077,13.939,21.182,13.755,12.589,15.951
22.167,-3.127,17.776,10.65,18.145,10.597,8.36,13.124
24.818,-5.881,12.262,3.491,13.453,3.148,4.995,5.831
22.269,-13.241,6.334,-4.612,8.572,-5.242,2.719,-1.948
16.144,-20.96,3.856,-8.256,6.694,-8.933,3.583,-4.758
13.963,-23.547,4.77,-7.205,7.711,-7.558,4.293,-4.376
15.209,-24.377,4.951,-6.548,7.677,-6.715,0.502,-5.488
12.526,-31.041,1.106,-10.974,3.407,-11.943,-5.836,-9.331
5.21,-42.155,-6.526,-20.019,-4.529,-22.096,-10.669,-14.985
1.684,-47.192,-12.81,-27.079,-10.791,-29.361,-12.185,-19.234
6.555,-41.997,-12.215,-26.596,-10.101,-28.794,-9.773,-17.894
13.395,-35.084,-6.533,-21.208,-4.581,-23.885,-4.324,-11.774
13.382,-34.876,-3.248,-18.027,-1.677,-20.937,-0.687,-7.587
5.775,-39.732,-6.074,-20.308,-4.679,-22.41,-3.792,-10.189
-2.613,-44.034,-11.329,-25.052,-9.655,-26.062,-9.377,-16.168
-5.557,-45.623,-14.066,-27.489,-12.003,-28.202,-11.027,-19.203
-2.878,-44.535,-13.208,-26.123,-10.999,-27.059,-12.109,-18.305
0.639,-41.511,-10.13,-22.688,-7.91,-23.417,-13.733,-15.486
-0.219,-40.02,-8.175,-20.608,-6.092,-20.825,-11.643,-12.968
-6.303,-43.871,-11.451,-23.46,-9.621,-23.776,-11.226,-14.59
-12.57,-50.505,-17.992,-29.528,-15.94,-30.742,-16.403,-19.872
-13.794,-53.021,-20.581,-32.119,-17.727,-34.132,-18.044,-22.004
-11.831,-51.225,-18.232,-30.281,-14.878,-32.139,-13.415,-19.159
-11.87,-51.578,-17.077,-30.292,-13.872,-31.244,-11.576,-17.435
-11.722,-52.938,-17.102,-31.974,-14.075,-32.06,-12.513,-17.375
-4.355,-45.503,-10.316,-25.96,-7.239,-25.733,-4.79,-9.973
7.64,-29.993,2.808,-11.782,5.793,-11.979,11.771,4.824
13.263,-21.054,9.713,-3.289,12.334,-4.441,20.887,11.231
9.911,-24.709,4.912,-6.975,7.048,-8.965,14.427,2.387
4.823,-30.719,-2.316,-12.212,-0.74,-14.399,4.2,-6.986
2.116,-31.151,-3.26,-9.579,-2.125,-11.19,2.454,-3.875
0.458,-29.76,-0.323,-3.546,0.801,-4.069,6.893,5.394
0.495,-29.929,1.092,-1.479,2.502,-1.126,10.207,9.66
5.55,-27.182,2.227,-1.145,3.812,-0.576,11.535,10.651
12.83,-20.942,4.785,0.831,6.379,1.113,11.518,13.047
12.739,-20.319,4.131,-0.792,5.69,-1.135,7.824,10.905
4.256,-27.257,-0.173,-7.109,1.282,-8.135,4.207,2.816
-1.374,-30.534,-1.029,-9.543,0.29,-10.67,5.686,-0.448
1.275,-25.33,1.895,-6.797,2.994,-7.08,3.98,2.633
6.3,-19.573,3.51,-5.691,4.323,-4.64,-3.765,4.08
9.895,-18.009,5.869,-5.718,6.894,-3.564,-0.852,5.798
12.883,-17.39,10.477,-3.746,12.4,-1.247,14.337,9.664
13.286,-16.283,10.082,-4.892,12.761,-3.323,17.487,5.206
9.035,-17.558,2.808,-11.598,5.483,-11.918,2.247,-8.747
4.601,-21.192,-1.421,-15.537,0.868,-17.322,-8.918,-16.282
5.629,-22.425,1.9,-12.355,3.937,-14.528,-6.068,-12.302
9.551,-20.092,4.829,-9.048,6.6,-10.948,-3.267,-8.513
10.727,-18.349,3.061,-9.732,4.238,-11.147,-6.141,-8.979
10.438,-17.536,2.333,-9.854,2.965,-10.882,-3.045,-6.989
11.958,-14.69,4.901,-8.027,5.501,-8.855,7.519,-3.571
13.313,-11.808,5.882,-8.42,6.559,-9.275,10.864,-6.363
11.918,-12.688,3.57,-11.463,3.96,-12.859,1.801,-13.286
9.019,-15.819,0.522,-14.171,0.435,-16.484,-9.411,-16.213
7.67,-16.727,-1.386,-15.319,-2.02,-18.145,-14.434,-14.98
10.259,-12.422,-0.167,-13.535,-1.395,-16.191,-12.03,-12.978
16.647,-3.068,5.542,-7.029,3.98,-9.533,-4.907,-8.42
23.174,6.008,12.456,0.964,11.016,-1.805,1.676,-0.922
26.438,9.592,16.009,4.591,15.146,1.837,6.302,4.391
27.011,10.049,16.306,3.968,16.424,1.962,11.503,4.833
23.934,8.038,12.754,0.342,13.876,-0.913,13.574,0.895
13.057,-3.128,1.73,-9.792,3.336,-10.883,5.885,-7.942
-1.941,-20.443,-12.066,-23.057,-10.567,-23.852,-6.489,-17.316
-9.407,-28.489,-16.641,-26.99,-15.269,-26.716,-10.074,-17.504
-5.719,-22.591,-9.883,-18.818,-8.205,-17.76,-0.697,-8.004
0.438,-14.651,-1.833,-10.218,0.062,-9.821,11.681,-1.113
2.497,-12.481,0.991,-8.794,2.268,-9.58,16.888,-3.613
4.453,-10.648,1.804,-8.956,1.99,-9.877,15.474,-7.599
11.993,-2.791,4.683,-3.792,4.02,-4.132,11.97,-5.22
23.815,10.197,10,5.929,8.636,5.186,8.958,1.682
32.22,20.834,14.553,13.472,12.486,10.978,7.045,6.557
29.122,20.156,11.76,11.175,9.344,7.356,1.016,2.534
17.543,10.711,2.332,1.514,0.172,-1.835,-10.91,-8.334
11.345,6.037,-1.805,-2.12,-3.26,-4.173,-16.98,-11.983
15.502,10.479,4.363,5.024,3.567,3.335,-9.117,-2.682
20.863,15.912,11.984,13.225,11.299,10.763,3.503,7.785
21.672,18.152,14.381,15.704,13.212,12.661,8.693,10.391
21.043,19.201,13.764,14.832,11.849,12.073,5.708,8.351
21.6,18.861,13.573,13.593,11.171,11.154,3.627,6.196
22.45,16.18,14.105,12.696,11.9,10.137,8.256,5.38
21.227,13.472,12.781,11.687,11.171,9.33,11.857,5.56
20.109,16.341,10.805,12.322,9.346,10.665,8.251,7.464
26.307,27.654,15.42,18.873,13.367,17.324,7.195,14.602
35.748,37.354,24.345,26.927,21.547,24.64,14.075,23.099
34.541,33.283,24.356,25.584,21.346,22.828,17.525,21.956
23.728,21.84,13.9,16.196,11.179,13.611,9.918,11.058
15.652,15.686,4.232,9.013,1.816,6.476,-1.824,1.118
9.923,11.775,-1.299,4.833,-3.625,2.061,-9.108,-3.763
-1.496,2.135,-8.009,-1.842,-10.38,-4.529,-11.771,-8.196
-13.291,-7.786,-14.345,-8.51,-16.669,-10.875,-12.498,-12.572
-12.571,-7.742,-12.946,-8.185,-15.056,-10.673,-9.776,-11.283
-0.421,0.725,-4.834,-2.178,-6.726,-5.29,-3.016,-5.065
9.77,7.698,0.738,1.357,-0.818,-2.437,2.908,-2.667
11.078,8.699,0.196,-0.112,-0.863,-4.2,4.57,-5.746
8.585,7.915,-0.042,-0.117,-1.131,-3.658,4.796,-4.878
8.761,9.53,4.197,4.449,2.227,1.944,6.104,2.279
9.679,11.309,6.798,6.256,4.041,3.995,5.515,4.832
6.4,10.288,3.13,1.139,0.486,-2.079,1.871,-1.396
2.341,8.987,0.146,-2.842,-2.02,-7.302,1.457,-6.014
4.045,10.17,4.396,1.019,2.291,-4.189,6.849,-1.529
9.571,12.351,11.194,8.429,8.765,3.074,10.828,7.143
12.917,13.504,13.79,13.096,11.021,7.871,8.828,11.515
12.414,13.327,12.004,13.596,9.082,8.384,2.415,8.313
9.939,13.097,9.466,11.6,6.767,6.263,-5.091,1.987
7.539,13.747,8.658,9.327,6.631,3.846,-7.562,-0.976
4.953,12.338,7.506,6.529,6.136,0.941,-4.634,-1.503
2.669,7.562,4.119,3.113,2.874,-2.278,-3.039,-2.807
6.032,6.685,3.825,4.177,2.458,-0.555,-0.578,-0.176
16.209,14.605,10.281,12.036,8.958,7.997,8.635,8.734
23.42,22.776,15.993,18.044,14.71,14.218,16.487,13.733
19.88,21.755,13.85,14.82,12.673,10.961,13.201,8.846
9.658,14.22,7.659,7.464,6.923,3.87,4.956,2.762
0.796,7.191,3.837,3.288,3.554,-0.075,1.864,1.443
-3.419,3.482,2.797,2.469,2.585,-1.203,3.366,0.925
-4.517,3.09,1.84,2.219,1.395,-1.731,3.661,-1.073
-5.637,3.111,-0.372,0.273,-1.212,-3.463,-0.34,-3.745
-8.128,-0.074,-3.02,-3.378,-4.403,-6.852,-6.229,-6.461
-9.141,-3.26,-2.695,-4.323,-4.512,-7.566,-5.511,-5.695
-5.765,0.177,2.373,0.172,0.53,-2.545,3.67,-0.737
-0.009,9.13,7.728,5.621,5.976,3.377,8.009,1.799
5.156,16.869,9.726,8.228,7.813,5.758,1.309,0.937
9.235,20.76,11.301,10.74,9.325,7.64,-2.736,3.939
11.518,21.935,14.484,14.438,12.905,11.133,3.934,10.143
10.621,19.708,15.269,14.545,14.046,11.407,9.929,10.763
7.938,15.007,11.982,10.153,10.525,7.018,7.053,5.957
7.814,14.463,11.319,9.377,9.508,6.291,4.734,6.153
10.376,20.095,16.441,15.45,14.934,12.873,9.599,13.334
9.603,22.671,18.013,17.748,17.167,15.591,10.338,14.536
4.041,16.079,9.005,7.744,8.342,5.327,-0.493,2.589
0.78,8.346,-2.086,-5.788,-2.911,-8.312,-9.548,-9.773
3.923,8.821,-4.198,-9.598,-4.711,-11.138,-4.435,-9.212
8.295,13.74,-0.315,-5.572,-0.054,-5.79,5.509,-1.879
9.217,15.119,0.763,-3.287,1.426,-3.189,6.191,0.659
9.618,14.463,-0.131,-2.643,0.381,-3.242,1.348,0.676
12.125,15.548,1.416,0.22,1.826,-1.127,1.374,3.814
13.528,15.594,2.845,2,3.367,0.186,4.541,5.684
11.495,13.116,1.058,-0.228,1.563,-2.449,4.403,2.22
8.41,12.184,-1.387,-2.513,-1.195,-5.02,1.3,-1.781
6.101,13.456,-2.25,-1.841,-2.38,-4.362,-2.194,-2.556
2.799,10.325,-3.499,-1.836,-3.377,-4.11,-5.183,-3.655
-1.696,0.722,-6.272,-5.474,-5.29,-7.243,-5.743,-7.016
-3.187,-5.478,-7.22,-8.221,-5.506,-9.183,-1.944,-7.103
-0.492,-2.104,-3.623,-5.669,-1.71,-5.805,5.51,0.041
2.398,4,2.606,-0.167,4.506,-0.227,14.379,9.93
4.74,8.098,8.773,5.195,10.532,4.21,20.462,15.897
7.248,11.186,11.574,7.623,12.66,5.579,15.72,13.692
5.182,9.565,6.038,2.443,6.068,0.039,-3.194,1.956
-2.287,2.709,-4.265,-6.546,-4.714,-8.677,-21.838,-10.333
-4.578,2.336,-5.115,-5.11,-4.945,-6.692,-19.169,-6.558
4.03,14.24,6.779,8.798,7.932,7.669,2.141,11.856
14.1,26.308,16.764,19.086,18.137,17.852,17.718,23.301
19.257,29.51,18.131,19.75,18.798,18,18.323,21.871
23.733,28.564,19.148,20.53,18.945,18.561,16.235,21.225
25.576,26.026,20.415,22.133,19.648,20.476,15.811,22.971
18.581,20.319,15.471,18.181,14.345,17.223,11.514,19.622
8.977,15.732,8.989,13.233,7.846,13.296,8.586,16.004
7.761,17.769,10.323,15.142,9.759,16.002,15.819,19.823
13.5,24.528,17.373,21.195,17.565,22.043,26.866,26.757
15.474,27.701,19.759,22.657,20.329,23.369,27.972,27.586
9.717,22.661,14.427,17.689,15.164,19.056,19.048,21.724
5.808,17.889,11.123,15.019,12.151,17.234,14.8,18.592
12.496,24.24,17.209,21.018,18.497,23.339,22.62,24.457
21.949,35.353,23.837,27.559,25.035,29.564,29.812,31.611
23.079,37.554,20.603,24.671,21.294,26.617,23.184,29.7
21.739,33.79,15.412,19.522,15.405,21.796,12.322,24.401
26.894,33.371,20.169,23.486,19.8,26.123,15.196,27.4
32.378,32.658,28.882,30.613,28.878,33.03,29.57,34.622
31.131,27.623,29.911,29.988,30.438,31.807,37.676,35.093
26.924,25.013,24.741,24.415,25.003,26.21,30.557,28.946
24.071,29.324,21.423,22.643,20.835,24.848,18.332,24.362
21.277,33.909,21.951,25.753,21.074,28.027,18.006,26.915
15.108,30.411,22.368,27.674,22.151,29.842,30.387,32.173
4.674,20.196,19.516,23.528,20.062,25.53,38.187,28.479
-5.951,10.949,14.016,14.843,14.427,16.235,29.292,14.564
-9.191,8.574,11.133,10.42,10.699,11.304,16.459,9.178
0.07,17.083,19.158,19.911,18.157,21.098,25.026,27.321
14.059,31.848,33.636,36.434,32.047,37.959,45.248,49.198
17.135,36.931,36.34,40.676,33.382,41.765,41.346,46.695
9.398,28.116,26.6,31.87,22.884,32.135,23.989,29.96
1.798,17.374,18.357,21.645,15.478,20.802,21.865,16.358
-7.661,8.387,9.234,8.384,6.582,6.595,14.049,-2.166
-19.978,-0.132,-3.902,-7.121,-8.297,-8.463,-13.405,-23.087
-22.247,-1.995,-8.255,-12.735,-14.13,-12.657,-27.169,-29.798
-11.427,4.504,0.267,-5.369,-5.312,-3.721,-14.792,-21.653
0.727,14.182,10.084,6.832,4.735,10.357,-6.064,-8.845
6.623,22.662,13.084,15.022,6.757,19.671,-14.095,-0.64
5.647,24.835,10.137,14.745,3.415,19.167,-19.796,-0.479
1.414,20.321,6.507,10.97,0.91,15.658,-11.93,-0.269
-0.454,17.059,7.002,11.841,2.577,18.091,0.774,7.455
-1.288,17.476,9.721,15.422,5.505,22.842,8.928,15.059
-5.613,15.982,9.58,15.026,5.018,22.394,10.739,12.932
-9.894,12.851,7.366,12.231,2.382,19.653,9.187,7.102
-8.481,13.236,7.271,12.368,1.892,20.635,8.704,8.312
-3.838,16.222,9.215,14.487,3.673,23.148,10.688,14.008
-2.991,15.861,8.843,13.125,3.907,21.022,11.657,13.622
-8.64,9.972,2.971,5.859,-0.672,12.886,7.06,4.116
-15.977,4.352,-4.872,-1.954,-7.739,4.869,-1.173,-5.996
-18.146,5.465,-6.658,-2.149,-10.013,4.549,-3.76,-6.618
-14.217,10.533,-1.364,4.081,-5.923,10.411,1.231,0.588
-9.099,12.465,3.422,7.336,-2.134,13.541,3.846,4.563
-7.024,11.107,3.598,4.345,-1.956,10.662,0.737,1.147
-8.034,11.108,1.889,0.4,-2.725,6.831,-2.162,-3.217
-8.861,13.974,1.158,-0.17,-2.92,6.534,-4.006,-3.273
-6.576,18.113,2.077,2.302,-2.74,9.191,-5.19,-0.331
-2.832,21.122,3.546,5.134,-2.36,11.889,-1.619,2.727
-1.565,21.037,3.76,6.053,-2.276,12.691,4.933,4.545
-2.912,18.701,2.675,4.772,-2.563,11.243,6.502,3.821
-3.846,16.855,1.933,2.562,-2.471,8.54,1.821,0.569
-3.391,17.12,3.199,2.082,-0.592,7.564,-2.194,-1.247
-2.37,20.175,7.903,6.522,4.7,11.789,0.57,2.927
0.705,26.23,15.5,15.236,12.538,20.491,9.279,12.23
6.177,31.924,20,20.836,16.676,26.272,15.157,19.092
9.533,31.923,16.275,17.809,12.674,23.525,12.233,17.736
7.167,25.712,8.684,10.879,5.707,16.636,6.936,11.975
-1.472,15.151,0.852,3.94,-0.995,9.501,2.808,5.133
-13.807,1.873,-9.483,-5.238,-10.789,0.364,-6.455,-4.786
-20.664,-6.497,-15.784,-10.563,-17.167,-4.668,-15.036,-10.439
-15.969,-3.143,-8.787,-3.13,-9.784,2.584,-8.419,-1.378
-8.629,4.205,2.509,8.024,2.666,12.923,7.13,12.969
-10.583,2.791,2.055,6.596,3.22,10.961,11.028,13.733
-20.788,-8.002,-9.502,-6.744,-8.033,-2.293,-1.563,-0.516
-31.644,-20.649,-20.667,-19.634,-19.154,-15.368,-18.214,-16.209
-40.212,-30.79,-26.793,-26.742,-24.899,-23.412,-28.057,-24.687
-45.312,-36.965,-29.791,-30.626,-27.03,-28.278,-29.801,-27.766
-45.135,-38.302,-30.235,-32.516,-26.418,-30.436,-27.753,-28.66
-42.85,-37.516,-28.771,-32.108,-24.109,-29.745,-26.298,-27.78
-44.021,-38.841,-28.744,-31.484,-23.557,-28.886,-27.085,-26.659
-48.068,-42.176,-31.765,-32.703,-26.403,-30.052,-29.297,-27.59
-52.246,-46.453,-36.573,-36.629,-31.461,-33.855,-32.056,-31.452
-58.685,-53.974,-43.402,-44.958,-38.504,-41.764,-36.05,-38.771
-67.511,-63.602,-51.457,-55.63,-45.924,-51.854,-40.025,-46.797
-72.36,-68.446,-54.91,-60.554,-47.883,-56.766,-38.878,-48.698
-69.887,-65.921,-50.576,-56.207,-42.195,-53.569,-32.616,-43.754
-62.979,-59.789,-43.249,-48.558,-34.577,-47.804,-28.44,-39.406
-54.288,-52.278,-37.483,-42.541,-29.42,-43.258,-26.276,-37.501
-46.253,-44.008,-33.29,-37.217,-25.976,-38.261,-20.628,-33.208
-41.931,-37.179,-30.466,-31.631,-23.979,-32.328,-16.966,-27.008
-40.247,-32.25,-28.639,-26.304,-23.233,-26.928,-21.982,-22.858
-36.669,-26.734,-25.584,-20.937,-20.902,-21.956,-27.217,-20.017
-30.182,-20.883,-20.376,-15.451,-15.547,-17.039,-22.8,-16.026
-25.824,-19.659,-16.595,-12.438,-11.163,-14.879,-15.448,-13.401
-27.226,-23.953,-17.562,-13.793,-11.735,-17.351,-16.596,-15.572
-29.559,-26.252,-19.589,-15.39,-13.703,-19.761,-21.942,-18.458
-27.09,-22.017,-17.689,-12.574,-11.756,-17.308,-20.821,-16.178
-21.727,-15.788,-13.413,-6.882,-7.406,-12.062,-15.378,-10.135
-17.729,-12.302,-10.54,-2.217,-4.773,-8.207,-12.52,-4.84
-16.194,-11.504,-9.835,-0.901,-4.59,-7.666,-10.546,-2.807
-16.758,-11.908,-10.533,-3.374,-5.776,-10.398,-7.32,-5.145
-18.966,-12.935,-12.446,-7.529,-8.055,-14.451,-7.843,-10.373
-22.023,-15.211,-15.244,-10.531,-10.978,-17.656,-13.952,-14.69
-23.833,-18.283,-15.987,-10.252,-11.427,-18.034,-17.397,-14.261
-22.246,-19.084,-11.446,-5.206,-6.373,-13.085,-11.759,-6.785
-20.382,-17.966,-5.611,0.905,-0.211,-5.832,-2.716,2.631
-23.708,-19.514,-6.217,0.775,-0.749,-4.795,0.751,3.045
-29.247,-22.744,-11.967,-4.857,-6.408,-10.539,-3.129,-6.656
-29.195,-22.218,-14.873,-8.504,-9.186,-14.931,-10.546,-15.586
-24.06,-18.611,-13.726,-9.123,-8.21,-15.611,-17.562,-18.145
-20.896,-17.473,-14.017,-11.813,-8.758,-17.549,-23.47,-19.365
-22.008,-20.073,-17.74,-16.844,-12.205,-21.784,-29.05,-21.845
-22.732,-20.941,-20.505,-17.729,-14.512,-22.162,-29.742,-19.81
-18.515,-14.801,-17.086,-10.301,-11.178,-14.441,-17.032,-9.84
-9.965,-3.401,-7.593,1.217,-1.831,-3.207,6.581,1.508
-0.634,7.57,1.911,9.775,8.02,4.612,22.438,6.682
5.882,14.47,4.858,12.136,11.063,7.12,14.425,4.888
8.929,17.919,2.281,10.267,7.665,6.621,-9.945,-0.458
14.022,22.847,3.66,11.042,7.779,8.116,-23.728,-2.545
25.084,32.132,12.71,17.998,15.946,13.849,-13.515,2.286
35.929,41.028,19.996,24.541,23.168,18.503,1.778,6.817
40.028,44.76,19.522,25.381,23.03,18.375,2.856,5.386
40.51,45.864,18.29,25.065,21.546,17.607,-0.89,3.638
41.906,47.319,20.683,26.711,22.981,18.589,2.728,5.271
42.092,46.656,21.111,26.284,22.782,18.008,6.221,5.781
38.391,42.149,17.359,22.548,19.327,14.994,3.481,3.202
33.255,36.609,14.021,19.24,16.605,12.278,-0.743,0.263
30.706,33.174,12.776,17.78,15.745,10.774,-5.586,-1.936
31.505,32.684,11.521,16.934,14.752,9.853,-13.973,-3.978
32.366,33.242,9.305,15.697,12.732,9.023,-22.339,-5.703
31.258,32.624,8.374,14.736,11.959,9.022,-20.58,-4.201
32.23,33.043,12.838,17.535,16.705,12.978,-3.665,4.431
39.041,38.624,22.797,25.954,26.835,21.982,18.449,17.424
46.934,47.186,31.38,34.795,35.14,30.719,28.208,25.274
46.902,49.037,30.634,35.366,33.829,31.29,18.167,21.692
37.648,38.893,21.008,26.215,23.618,22.454,-0.631,10.568
29.239,27.009,13.305,17.541,15.317,13.823,-9.36,3.398
30.821,27.403,16.115,19.444,17.776,15.35,-1.088,7.922
38.049,37.301,23.574,27.843,25.416,23.348,11.448,17.734
41.48,43.792,24.823,31.408,26.913,26.752,12.197,20.435
43.007,46.584,22.536,30.705,24.352,26.099,6.649,18.068
49.605,54.135,27.018,35.022,28.159,30.606,12.706,23.219
57.282,63.158,35.893,42.586,36.32,38.549,26.78,34.3
57.522,63.433,37.525,42.485,37.588,38.81,29.155,36.441
51.994,56.36,29.968,33.311,30.337,29.525,18.302,25.618
49.045,52.227,22.894,25.596,23.774,21.336,10.903,14.543
50.127,53.388,22.243,25.371,23.056,20.826,13.799,13.002
48.022,51.798,22.196,25.559,22.688,21.164,17.011,14.773
40.165,44.263,17.196,20.334,18.034,16.519,13.298,11.963
34.659,39.347,12.511,16.805,14.161,13.892,8.96,9.643
36.699,42.534,13.458,21.073,15.602,18.916,11.239,13.713
39.496,45.805,14.854,25.412,17.212,23.375,14.627,16.935
37.65,42.768,12.117,22.675,14.585,20.179,10.357,12.391
36.6,40.221,10.517,19.242,12.557,16.22,4,7.96
40.733,43.939,14.556,22.658,15.5,19.415,6.231,12.415
46.553,49.726,21.187,30.703,21.129,27.364,14.613,21.391
49.916,52.869,25.95,37.089,25.765,33.516,20.48,26.69
49.095,51.997,26.423,38.079,26.868,34.545,21.814,26.915
42.317,45.198,21.463,32.922,22.675,30.244,19.769,23.838
30.188,32.758,12.621,23.434,14.421,21.898,14.05,17.837
20.509,22.51,6.489,16.039,8.573,14.81,8.302,12.431
21.977,23.834,9.957,18.208,11.927,16.591,10.199,14.307
32.068,34.852,20.573,28.014,22.383,26.371,20.4,22.685
39.162,42.801,27.643,34.441,29.618,33.187,28.386,27.868
37.05,40.113,25.483,31.822,27.56,30.851,25.328,25.275
30.276,32.376,19.28,25.685,20.921,25.084,16.396,20.746
25.366,27.796,15.88,23.16,16.95,23.184,12.606,19.74
25.506,29.085,17.607,26.838,18.572,27.363,17.22,23.194
30.83,34.198,23.602,34.72,24.803,35.611,25.921,30.502
35.927,37.098,28.666,39.929,30.053,41.466,31.398,36.537
33.998,33.966,26.953,37.465,28.342,39.712,28.317,34.748
25.377,27.77,18.749,29.794,19.972,32.168,18.774,25.912
15.964,22.116,8.746,21.711,9.756,23.752,9.736,16.376
11.937,19.482,3.416,18,4.324,19.943,8.383,12.817
15.462,22.245,7.019,21.709,8.007,23.974,16.999,17.672
19.7,25.698,12.392,25.828,13.558,28.42,23.935,22.432
15.902,21.078,7.611,19.695,8.889,22.454,14.328,16.347
8.011,11.3,-3.726,8.019,-2.36,11.062,-3.916,5.043
7.423,8.965,-6.372,5.572,-4.834,8.769,-8.995,3.254
14.023,16.139,1.879,13.409,3.595,15.957,1.243,11.165
17.075,21.364,8.247,18.767,10.229,20.075,10.638,16.027
13.403,18.525,6.955,16.478,9.395,16.924,11.896,13.712
11.684,15.678,6.276,14.869,8.925,15.287,12.001,13.659
16.92,20.905,11.898,19.85,14.114,20.594,17.214,21.623
21.155,28.012,16.488,24.592,18.111,25.338,23.186,28.51
17.154,26.012,12.573,20.921,14.024,21.418,22.017,24.283
10.42,17.138,5.295,12.877,6.608,13.534,16.119,14.659
7.511,11.275,2.224,8.761,2.863,10.148,13.252,10.87
6.219,10.23,1.644,7.933,1.582,10.019,10.597,11.924
5.251,11.49,0.813,7.045,0.75,9.251,2.162,11.362
7.676,14.754,2.431,7.902,2.766,9.559,-4.604,10.042
10.794,16.157,5.817,10.06,6.327,10.823,-1.416,10.188
9.226,12.763,6.924,10.648,7.312,10.604,6.032,10.23
6.683,11.363,8.41,13.273,8.58,12.426,12.358,11.811
8.928,16.398,13.395,20.226,13.509,18.551,17.537,16.978
13.427,21.134,16.935,24.078,17.371,22.38,17.608,20.965
15.368,20.306,15.695,20.083,16.808,19.428,12.403,19.45
12.715,15.412,12.552,12.846,14.474,13.172,8.591,13.947
7.421,9.936,10.934,8.747,13.347,9.334,10.032,9.326
6.565,9.556,14.034,12.175,16.332,12.832,17.925,12.296
11.391,15.129,20.113,20.161,22.181,21.146,28.827,21.725
11.553,16.44,19.978,21.058,22.277,22.416,31.127,24.38
1.294,5.702,9.516,9.196,12.266,10.589,18.768,12.515
-12.294,-11.021,-4.16,-7.535,-1.155,-6.504,1.115,-5.531
-20.397,-21.747,-11.582,-17.692,-8.63,-17.157,-7.784,-16.203
-18.824,-19.206,-7.805,-14.895,-5.43,-14.58,-1.443,-12.01
-9.227,-6.197,3.91,-2.124,5.304,-1.466,14.305,2.628
-1.702,3.74,11.787,7.417,12.808,8.822,24.905,12.633
-4.92,0.1,8.026,3.932,9.987,6.173,23.01,9.349
-14.051,-10.728,-1.334,-6.011,1.784,-3.209,14.137,0.94
-20.891,-17.757,-7.796,-11.426,-5.049,-8.796,2.225,-4.071
-25.766,-20.634,-10.923,-11.878,-9.836,-9.789,-10.484,-6.844
-29.567,-21.832,-12.275,-11.274,-12.335,-9.156,-15.202,-7.543
-30.134,-21.056,-12.307,-10.554,-12.55,-8.116,-9.942,-5.07
-30.486,-22.296,-13.496,-11.472,-14.002,-9.391,-5.256,-3.813
-34.657,-28.969,-16.285,-14.862,-17.44,-13.546,-4.918,-5.78
-37.474,-33.218,-15.38,-14.775,-16.897,-13.816,-0.224,-4.479
-32.889,-27.057,-8.754,-6.953,-10.321,-6.034,9.228,2.753
-26.209,-18.413,-3.855,0.984,-5.82,1.77,10.023,7.421
-25.345,-18.523,-5.554,1.089,-8.071,1.767,0.315,5.032
-29.268,-24.024,-8.43,-2.444,-10.913,-1.53,-4.498,2.726
-33.652,-26.402,-8.347,-3.125,-10.284,-1.677,0.15,4.47
-37.74,-26.381,-9.079,-3.118,-10.44,-1.317,1.676,4.852
-41.156,-28.666,-12.696,-7.097,-13.767,-5.432,-4.812,0.589
-40.975,-30.728,-13.761,-12.017,-15.086,-10.549,-8.004,-3.052
-35.586,-26.24,-8.16,-10.841,-10.038,-9.024,0.125,0.131
-28.804,-18.276,-1.117,-5.242,-3.172,-2.791,11.51,7.518
-27.627,-18.211,-1.451,-5.422,-2.955,-2.814,14.239,9.399
-33.796,-27.951,-9.646,-14.583,-10.032,-12.193,8.137,1.993
-38.902,-34.787,-16.369,-22.241,-15.886,-19.642,1.388,-5.617
-36.637,-31.504,-16.894,-20.856,-16.607,-17.582,-3.581,-5.711
-33.028,-26.758,-17.185,-17.649,-17.666,-14.187,-11.033,-4.585
-33.733,-27.289,-20.924,-19.636,-21.935,-16.793,-21.019,-9.224
-36.277,-29.084,-25.481,-23.131,-27.126,-20.484,-28.602,-15.427
-36.839,-27.863,-27.781,-22.141,-30.255,-18.454,-29.203,-15.775
-32.657,-23.282,-24.942,-15.16,-27.518,-10.338,-21.388,-8.843
-27.118,-19.599,-20.174,-8.331,-22.058,-3.391,-13.322,-2.43
-27.307,-21.072,-20.179,-8.214,-21.871,-3.807,-14.005,-3.458
-29.198,-21.678,-20.21,-9.076,-22.684,-5.276,-15.538,-4.81
-25.549,-15.566,-13.557,-4.461,-16.619,-1.151,-8.77,0.091
-21.146,-9.904,-6.906,-0.86,-9.684,2.052,-1.432,3.054
-21.014,-10.165,-6.253,-2.952,-8.641,-0.55,-0.475,-0.022
-21.39,-11.311,-6.797,-4.682,-9.215,-2.494,-2.279,-0.417
-21.859,-13.095,-6.338,-4.477,-8.717,-1.731,-4.637,2.887
-27.649,-21.781,-9.764,-8.784,-11.496,-5.341,-8.16,0.517
-36.613,-33.408,-16.754,-17.014,-17.48,-13.385,-10.928,-7.427
-40.463,-37.01,-20.436,-21.601,-20.586,-18.216,-10.736,-12.074
-36.779,-31.06,-17.446,-19.546,-17.912,-16.747,-7.943,-10.043
-27.966,-20.675,-8.744,-11.422,-10.099,-9.062,-2.218,-1.958
-18.286,-10.201,1.624,-0.596,-0.134,2.259,7.858,9.157
-14.513,-4.87,6.201,4.842,5.125,8.75,17.801,15.005
-17.724,-6.705,2.918,2.252,2.519,6.702,18.534,12.128
-21.645,-11.718,-2.198,-1.973,-3.11,2.435,9.103,6.667
-23.372,-16.448,-5.14,-3.675,-6.997,0.735,0.869,3.432
-24.879,-20.117,-6.618,-3.841,-8.469,0.712,3.403,2.86
-26.785,-22.313,-7.211,-3.877,-8.203,0.49,11.494,4.823
-29.892,-25.079,-8.364,-6.199,-8.525,-2.416,14.253,6.253
-36.847,-31.929,-12.926,-12.577,-12.245,-9.013,10.777,3.398
-44.286,-39.008,-17.921,-17.941,-15.965,-13.738,9.626,0.169
-44.517,-38.979,-16.651,-16.408,-13.745,-11.406,15.061,2.051
-40.108,-36.223,-12.178,-13.373,-9.907,-8.241,18.742,3.919
-39.061,-38.362,-12.101,-15.566,-11.59,-10.719,13.473,0.489
-38.935,-39.82,-13.297,-17.312,-13.875,-12.553,7.475,-1.89
-34.06,-33.696,-9.887,-12.907,-10.457,-8.122,9.814,1.181
-26.731,-24.301,-4.937,-6.843,-5.518,-2.132,14.466,4.439
-20.876,-17.8,-2.639,-3.117,-3.526,1.703,13.443,5.803
-17.526,-15.099,-1.725,-0.465,-2.372,4.78,10.942,8.978
-16.777,-14.454,-0.653,1.089,-0.539,6.712,12.051,12.917
-16.762,-14.273,-0.641,-0.424,-0.424,5.288,12.348,12.057
-16.123,-15.279,-3.102,-4.955,-3.807,0.581,7.49,5.6
-16.526,-18.626,-7.084,-9.99,-8.73,-4.848,0.209,-1.044
-17.626,-21.462,-8.858,-12.183,-10.712,-7.48,-3.174,-2.74
-17.285,-20.377,-6.632,-10.756,-8.186,-6.491,0.602,-0.632
-16.74,-17.676,-4.571,-9.303,-5.852,-5.836,5.43,-0.545
-17.469,-17.061,-5.909,-9.786,-7.361,-7.24,4.026,-3.08
-18.985,-18.404,-8.43,-10.248,-10.337,-7.785,-0.899,-4.076
-20.773,-20.345,-9.895,-9.756,-11.735,-6.933,-2.833,-4.374
-21.385,-21.467,-9.533,-8.268,-10.507,-5.917,0.16,-5.603
-21.992,-22.252,-8.969,-7.603,-9.183,-6.218,3.38,-6.161
-25.6,-24.659,-11.722,-10.647,-12.227,-9.605,0.263,-6.936
-26.884,-24.034,-13.955,-12.141,-15.576,-10.823,-5.575,-6.952
-18.055,-14.031,-7.337,-3.853,-9.76,-2.222,-3.09,-0.778
-4.159,-0.072,5.74,10.349,3.487,12.112,9.165,11.036
2.946,7.35,14.528,19.593,12.932,21.267,20.712,20.342
-0.607,5.271,13.826,19.131,12.841,20.39,22.811,20.897
-10.118,-3.708,5.93,10.499,5.482,11.243,16.357,12.565
-17.926,-13.81,-3.297,-0.487,-3.606,0.299,7.207,1.202
-18.513,-17.38,-6.829,-5.201,-7.64,-3.573,1.071,-3.575
-15.394,-14.462,-3.838,-2.326,-5.163,0.108,0.458,0.396
-17.395,-13.33,-1.769,-0.608,-3.002,1.52,1.317,2.833
-23.428,-15.724,-3.096,-3.065,-3.793,-2.078,0.679,-0.879
-23.619,-14.872,-1.177,-2.14,-1.57,-1.627,3.329,-1.098
-16.944,-10.043,4.696,3.556,3.662,4.825,10.43,5.735
-12.575,-8.582,6.177,4.893,3.944,7.1,14.241,9.315
-15.572,-13.48,0.156,-2.531,-2.358,-0.051,9.224,3.306
-22.55,-20.409,-7.808,-12.679,-9.312,-10.549,-1.394,-6.859
-27.634,-24.937,-12.326,-17.981,-12.913,-16.655,-8.451,-13.136
-26.424,-24.177,-11.184,-14.867,-11.829,-14.292,-4.24,-10.836
-19.835,-18.147,-5.762,-5.702,-6.582,-4.918,7.819,-1.357
-15.238,-13.449,-2.697,0.856,-3.051,2.936,14.091,6.079
-16.427,-15.023,-6.039,0.019,-5.923,3.335,8.694,4.76
-18.968,-19.079,-10.972,-3.218,-10.868,0.046,1.205,-0.458
-19.9,-21.899,-12.584,-4.743,-12.483,-2.786,-0.074,-2.8
-20.196,-24.054,-11.501,-5.758,-11.405,-5.147,2.626,-2.121
-20.814,-25.956,-9.964,-6.73,-10.645,-6.52,4.898,-0.732
-24.18,-28.669,-10.423,-8.319,-12.26,-7.767,5.46,-0.812
-30.376,-32.941,-13.425,-11.983,-15.243,-10.953,5.762,-3.326
-34.092,-36.285,-16.399,-16.327,-16.97,-14.691,5.208,-6.604
-33.86,-37.812,-18.861,-19.784,-18.539,-17.228,-1.753,-9.87
-33.742,-39.589,-21.335,-21.876,-20.85,-18.398,-13.182,-12.851
-35.195,-42.18,-21.373,-21.426,-20.46,-17.318,-16.267,-12.904
-39.338,-46.656,-20.291,-20.812,-18.611,-16.02,-9.428,-10.716
-47.172,-53.492,-22.587,-23.882,-20.66,-18.187,-4.982,-10.896
-51.758,-56.656,-24.71,-26.693,-23.152,-20.522,-4.336,-12.04
-46.498,-51.007,-20.58,-22.991,-19.193,-17.135,1.497,-8.373
-38.517,-42.784,-15.081,-17.015,-13.498,-11.808,9.029,-2.651
-38.014,-40.65,-16.544,-17.239,-15.296,-12.502,6.285,-3.301
-42.483,-42.806,-22.35,-21.764,-22.184,-17.052,-5.106,-8.812
-44.24,-44.09,-24.942,-23.631,-25.438,-18.599,-12.55,-10.886
-42.326,-44.738,-23.42,-22.488,-23.564,-17.308,-11.103,-8.856
-38.312,-43.914,-20.042,-20.056,-19.88,-15.149,-5.151,-5.953
-33.766,-39.879,-16.639,-16.943,-17.12,-12.311,-0.133,-2.982
-32.948,-37.074,-16.655,-16.655,-18.135,-11.904,-0.123,-3.199
-36.982,-40.094,-20.771,-20.81,-22.771,-15.983,-4.939,-8.926
-41.657,-46.691,-25.435,-25.708,-27.492,-21.46,-10.117,-15.594
-43.219,-50.628,-27.987,-27.403,-30.011,-23.998,-13.322,-17.629
-40.667,-48.124,-28.242,-25.442,-30.3,-22.474,-15.394,-15.654
-35.52,-42.003,-27.106,-22.134,-29.164,-19.525,-16.29,-14.162
-29.888,-36.278,-24.055,-18.146,-25.979,-16.33,-13.821,-13.171
-26.043,-32.074,-19.83,-14.203,-21.542,-13.096,-8.993,-10.847
-26.525,-31.067,-19.503,-14.908,-21.132,-13.686,-9.183,-11.238
-28.998,-32.804,-23.414,-20.088,-25.236,-18.17,-16.025,-15.811
-28.03,-32.987,-24.525,-21.926,-26.548,-19.482,-19.129,-17.822
-25.018,-30.895,-21.18,-18.392,-23.05,-15.894,-13.651,-14.919
-25.344,-30.523,-18.738,-15.764,-20.3,-13.547,-9.039,-12.355
-26.764,-32.152,-17.39,-15.403,-18.97,-13.453,-9.977,-10.55
-24.478,-32.281,-13.423,-13.297,-15.215,-11.242,-8.82,-6.11
-23.434,-32.521,-10.886,-12.168,-12.414,-9.896,-5.482,-3.956
-30.136,-37.263,-16.685,-17.974,-17.459,-15.955,-9.965,-11.045
-39.104,-43.444,-27.231,-26.862,-27.559,-25.206,-20.936,-22.245
-39.893,-43.188,-31.475,-28.984,-31.968,-26.979,-24.733,-26.045
-32.015,-35.631,-25.503,-22.978,-26.321,-20.319,-16.605,-20.043
-25.055,-29.1,-18.263,-18.331,-19.392,-15.645,-8.281,-14.124
-24.62,-29.684,-19.288,-22.11,-20.678,-19.717,-10.277,-16.806
-25.108,-32.021,-24.183,-28.23,-25.376,-25.662,-15.895,-21.95
-20.133,-27.525,-22.284,-26.517,-22.869,-23.404,-13.554,-19.111
-13.242,-18.945,-15.139,-19.19,-15.346,-15.665,-6.389,-12.124
-11.671,-16.478,-12.673,-16.751,-12.912,-13.059,-4.764,-11.432
-14.815,-21.162,-15.401,-20.277,-15.767,-16.506,-8.834,-15.484
-17,-24.678,-16.417,-21.939,-16.94,-18.255,-12.378,-16.516
-16.434,-23.333,-14.228,-18.875,-15.007,-15.574,-12.328,-14.313
-15.679,-21.837,-12.562,-15.946,-13.46,-12.877,-9.432,-13.366
-17.982,-25.062,-15.058,-18.777,-15.834,-15.425,-9.864,-16.873
-22.484,-30.185,-20.931,-25.691,-21.755,-22.087,-17.082,-23.311
-23.283,-29.388,-23.818,-28.297,-24.933,-24.852,-22.837,-25.728
-17.987,-21.33,-20.958,-24.235,-22.036,-20.862,-21.324,-21.519
-11.869,-13.578,-17.645,-20.365,-18.247,-16.802,-17.235,-16.702
-9.199,-11.149,-16.995,-19.92,-17.131,-16.406,-13.65,-15.162
-6.88,-10.091,-14.845,-18.002,-14.797,-14.832,-9.868,-13.487
-1.662,-6.545,-9.069,-12.395,-9.33,-9.442,-6.945,-9.387
3.087,-3.85,-4.239,-8.158,-5.231,-5.305,-5.245,-5.886
4.654,-4.008,-2.698,-7.788,-4.179,-5.157,-2.617,-4.505
5.957,-2.707,-1.37,-7.481,-2.926,-5.113,0.878,-3.644
7.478,0.395,-0.257,-6.636,-1.888,-4.462,1.612,-4.241
5.671,-0.655,-2.887,-9.924,-4.396,-7.773,-1.956,-8.48
1.729,-6.114,-8.021,-17.391,-8.87,-14.955,-7.675,-14.628
0.405,-9.496,-10.732,-22.805,-10.766,-19.895,-12.902,-18.397
2.355,-7.813,-9.309,-22.113,-8.836,-18.855,-14.08,-16.761
6.531,-2.409,-4.637,-16.005,-4.062,-12.811,-7.898,-9.025
11.483,3.389,0.627,-9.091,0.945,-6.409,1.159,-0.252
12.131,4.233,1.598,-8.139,1.497,-6.015,3.164,0.48
7.192,0.132,-1.924,-13.041,-2.369,-11.155,-2.026,-6.175
2.958,-2.699,-5.001,-16.777,-5.681,-14.93,-6.208,-10.453
2.397,-3.019,-6.943,-17.874,-7.823,-16.029,-8.665,-11.009
2.688,-4.398,-10.145,-20.067,-11.121,-17.915,-13.346,-13.714
3.124,-6.316,-13.432,-22.746,-14.289,-20.047,-18.908,-18.426
5.402,-5.443,-14.093,-22.22,-14.822,-19.707,-22.465,-20.743
10.383,-0.61,-10.342,-17.161,-11.353,-15.882,-21.796,-18.339
17.361,6.827,-2.273,-9.615,-3.809,-9.501,-14.631,-12.194
22.956,13.305,5.444,-4.125,3.747,-4.407,-4.347,-6.793
23.46,14.859,6.851,-4.688,5.421,-5.161,0.357,-6.542
19.893,11.581,2.376,-10.403,1.354,-11.227,-3.469,-10.697
17.406,8.319,-1.69,-15.567,-2.344,-16.364,-9.71,-14.544
18.035,7.7,-2.674,-17.023,-3.361,-17.198,-14.264,-16.352
19.034,7.347,-3.374,-17.118,-4.634,-16.867,-18.184,-17.988
20.381,7.216,-3.428,-16.183,-5.203,-16.118,-18.874,-17.881
24.78,9.914,0.25,-11.692,-1.327,-11.885,-13.068,-13.03
30.482,13.946,6.008,-5.608,5.128,-5.946,-5.459,-6.659
33.779,16.719,10.086,-2.077,9.553,-2.589,-1.839,-3.607
34.131,18.31,11.339,-1.505,10.589,-1.935,-0.856,-3.577
31.627,17.214,8.917,-3.213,8.073,-3.421,-0.82,-5.473
26.557,11.927,2.501,-7.268,1.954,-7.59,-4.827,-9.784
22.292,6.508,-4.485,-11.635,-4.888,-12.264,-12.846,-14.971
22.908,6.52,-7.076,-12.823,-7.735,-13.909,-17.454,-18.186
28.446,12.178,-3.66,-9.62,-4.759,-11.653,-13.258,-17.691
35.092,19.386,2.64,-4.687,0.804,-7.71,-6.262,-13.991
38.921,24.183,6.598,-2.693,3.818,-5.991,-6.864,-11.299
38.906,25.375,6.432,-4.854,3.468,-7.789,-12.852,-12.42
37.312,24.652,5.55,-7.02,3.715,-9.399,-12.524,-13.558
35.177,22.565,5.017,-7.889,4.701,-9.909,-8.156,-13.382
30.049,17.116,1.135,-11.699,1.577,-13.97,-13.231,-17.257
21.873,8.93,-5.973,-18.651,-5.636,-21.46,-26.208,-24.989
15.796,2.895,-11.014,-23.053,-11.054,-25.669,-33.322,-28.978
17.878,4.844,-9.03,-19.726,-9.156,-21.142,-28.694,-24.054
29.222,16.906,1.713,-7.162,2.019,-7.178,-14.939,-10.379
41.523,31.411,14.757,7.841,15.775,8.389,0.319,4.246
44.161,36.32,18.537,12.993,20.053,12.981,5.831,7.937
38.006,31.108,11.721,6.505,13.23,5.908,-1.217,0.46
32.281,25.655,4.296,-1.072,5.359,-1.345,-11.168,-6.608
30.125,24.126,1.859,-3.378,2.233,-3.405,-15.705,-7.838
28.542,22.934,1.672,-2.985,1.333,-3.885,-15.354,-7.466
27.584,20.765,1.864,-2.376,1.065,-4.32,-12.96,-8.116
29.561,20.34,3.85,-0.606,2.91,-2.69,-9.767,-7.433
33.406,22.966,7.754,3.25,6.745,1.338,-7.26,-3.768
35.983,26.175,11.17,7.293,9.955,5.357,-5.985,0.518
36.736,27.004,12.118,8.383,10.6,6.879,-4.317,2.244
37.751,26.66,11.894,7.308,10.184,6.693,-1.472,2.143
39.475,28.43,13.494,8.528,11.683,8.237,1.834,3.738
39.564,30.558,16.011,11.632,13.87,10.824,4.257,6.457
37.059,28.231,15.092,10.74,12.512,9.403,3.703,5.503
35.062,23.631,11.49,6.427,8.92,5.309,1.585,1.932
36.52,23.448,10.833,5.896,8.587,5.412,2.615,2.331
39.015,26.68,13.248,9.103,10.995,8.79,6.055,5.966
38.301,26.586,13.196,8.803,10.76,8.263,6.155,5.387
35.514,22.96,10.25,4.407,8.02,3.855,3.035,0.395
35.464,22.29,10.543,3.425,8.606,2.924,3.413,-0.854
38.251,25.869,14.941,7.607,12.928,6.88,7.404,3.228
38.524,26.862,16.172,9.231,14.091,8.16,6.473,4.097
34.107,21.87,11.566,4.77,9.633,3.331,-0.963,-1.369
29.206,16.011,7.123,0.342,5.136,-1.415,-6.523,-5.567
28.791,14.966,8.278,2.117,5.97,0.27,-4.518,-2.45
33.823,19.394,15.058,9.986,12.533,8.088,3.99,6.236
39.156,24.036,21.737,17.15,19.148,15.197,12.53,13.403
37.911,22.37,21.163,16.185,18.451,14.466,12.916,12.363
31.951,16.831,15.409,10.402,12.59,8.975,6.473,6.112
27.943,13.766,12.031,7.917,9.344,6.571,1.5,2.381
24.702,10.749,9.984,6.467,7.607,5.236,-1.76,-0.384
19.394,5.187,5.368,1.521,3.338,0.24,-6.916,-5.819
17.24,4.206,3.229,-0.844,1.62,-2.624,-9.604,-7.316
23.887,13.949,10.386,7.027,9.254,4.766,-3.346,2.065
36.315,29.343,24.072,21.655,23.153,19.114,9.697,16.802
45.053,38.951,33.683,31.104,32.55,28.06,19.886,24.595
44.231,36.98,32.391,28.554,31.081,24.817,20.474,20.792
36.339,26.817,22.952,17.772,21.79,13.621,11.821,10.27
25.938,14.216,11.649,5.173,10.566,0.993,-2.315,-1.747
18.612,6.567,5.339,-2.414,4.092,-6.47,-12.943,-9.132
21.517,11.297,10.928,2.787,9.61,-1.119,-8.34,-3.435
31.725,23.556,25.433,18.053,24.246,14.217,9.654,12.815
35.932,28.812,34.058,27.452,33.014,23.603,22.264,22.951
28.945,22.349,27.579,20.792,26.774,17.242,16.254,16.346
17.869,11.739,12.575,5.065,12.315,2.309,-0.199,0.627
9.5,3.481,0.907,-7.166,1.201,-9.056,-10.693,-10.483
5.242,-1.656,-2.766,-11.498,-2.357,-12.819,-10.111,-12.538
2.857,-6.02,-2.81,-12.614,-2.454,-13.668,-6.091,-11.711
-1.317,-12.064,-5.391,-16.149,-4.72,-17.232,-6.593,-14.407
-7.39,-18.32,-10.587,-21.579,-9.511,-22.974,-10.917,-18.981
-11.669,-20.601,-14.672,-25.038,-13.562,-26.694,-14.718,-21.13
-11.521,-17.199,-15.728,-24.859,-14.514,-26.487,-16.114,-20.455
-6.939,-10.337,-13.243,-21.457,-11.462,-23.09,-13.812,-17.575
-1.028,-4.741,-8.561,-17.003,-6.34,-19.007,-9.026,-13.515
1.856,-3.666,-5.101,-14.404,-2.97,-17.104,-6.808,-11.112
2.626,-3.847,-3.238,-12.859,-1.332,-16.139,-7.603,-10.057
6.907,1.012,0.82,-8.089,2.528,-11.145,-4.135,-5.279
15.183,10.202,8.313,0.601,9.607,-1.478,7.079,4.691
21.447,17.071,15.493,8.979,16.124,7.806,18.568,14.2
22.095,18.502,18.366,13.552,18.241,12.74,21.035,17.851
18.207,15.564,15.399,12.716,14.663,11.777,12.69,14.534
13.525,12.116,10.025,8.564,9.005,7.253,1.018,8.118
13.683,14.333,10.315,8.617,9.381,6.963,-1.93,6.915
19.249,21.621,17.491,14.875,17.278,13.211,6.343,13.221
23.051,25.199,22.254,18.645,23.239,17.52,14.877,18.58
21.45,22.116,20.284,15.665,21.615,15.189,15.777,17.573
19.718,19.437,18.796,13.592,18.918,13.043,13.412,15.534
21.909,21.998,22.576,18.012,21.238,16.539,14.091,17.275
25.461,26.402,26.967,23.738,25.25,21.182,17.107,19.653
28.437,29.16,28.598,25.795,27.144,22.627,18.803,20.079
31.077,30.331,29.343,26.088,27.756,22.898,17.627,20.134
30.289,28.284,28.203,25.028,26.31,22.116,13.778,18.259
24.816,22.759,23.793,21.304,22.243,18.413,9.61,13.013
21.312,19.864,21.627,18.948,20.637,15.554,8.776,9.951
24.477,23.55,26.167,21.281,25.046,17.481,12.813,12.889
29.332,28.72,32.204,24.023,30.824,20.556,19.293,16.574
29.916,29.004,32.479,22.318,31.644,19.253,21.849,14.679
26.297,24.521,26.892,16.907,26.641,13.446,15.807,7.587
20.651,18.925,19.898,10.723,19.082,6.702,4.706,-0.248
14.725,14.486,14.656,5.776,12.69,1.701,-3.645,-5.852
11.704,12.788,12.428,4.081,9.944,-0.187,-5.052,-7.892
14.959,15.979,14.255,7.828,11.883,2.921,-0.225,-4.378
22.858,23.231,19.85,16.206,17.543,10.938,7.515,4.343
27.649,28.404,24.626,22.875,22.042,17.953,13.056,11.4
23.554,25.562,22.532,21.254,19.525,16.932,11.997,9.311
13.706,15.805,14.12,12.698,10.954,8.579,5.366,-0.09
5.276,5.706,6.184,4.301,3.039,0.049,-2.732,-8.681
1.487,-0.025,2.167,-0.07,-1.298,-4.384,-10.912,-12.986
2.601,-0.287,0.958,-0.347,-3.075,-4.806,-16.458,-13.956
9.449,5.407,3.513,4.159,-0.742,-0.684,-13.585,-10.535
18.628,13.733,9.081,10.887,5.046,6.044,-5.763,-4.019
20.476,15.549,9.918,11.735,6.325,7.592,-5.727,-2.344
11.09,6.516,2.101,3.682,-0.95,0.199,-15.23,-9.225
0.644,-4.045,-5.391,-4.33,-8.107,-7.525,-20.816,-15.615
0.986,-3.541,-2.707,-2.245,-5.54,-4.944,-14.863,-11.566
9.579,6.658,6.516,7.38,3.254,5.416,-5.877,-0.984
15.895,14.707,12.718,14.507,9.062,12.805,-1.629,5.78
17.284,15.908,14.34,16.058,10.765,14.001,1.002,6.699
16.834,14.106,14.287,15.288,11.277,12.809,3.12,5.116
15.016,11.972,12.946,13.833,10.366,11.081,0.846,2.274
11.801,9.619,10.558,11.737,8.053,8.532,-3.878,-1.178
9.471,7.618,9.107,10.017,6.732,6.169,-5.717,-3.244
9.694,7.39,9.985,10.138,7.831,6.06,-4.961,-2.234
9.772,7.989,10.017,10.282,7.738,6.566,-6.257,-1.095
5.379,5.268,4.016,5.72,1.236,2.074,-12.349,-6.465
-1.051,-0.122,-4.425,-2.005,-7.648,-6.547,-20.087,-16.698
-1.368,-0.089,-4.839,-3.964,-8.2,-9.631,-21.629,-19.929
4.852,7.036,2.4,1.248,-0.885,-4.654,-15.096,-13.508
7.651,10.608,4.662,3.281,1.585,-1.946,-10.413,-10.13
4.267,6.31,-0.878,-1,-3.614,-5.543,-12.82,-14.149
4.67,4.935,-2.26,-1.139,-4.528,-5.517,-13.444,-13.634
10.864,11.105,3.204,5.239,1.367,1.018,-9.573,-5.517
13.143,15.407,4.806,7.937,2.958,4.334,-9.241,-0.893
11.418,15.222,2.698,6.727,0.477,3.651,-9.879,-1.12
13.546,17.416,6.685,10.847,4.598,7.677,-2.734,2.577
17.226,21.093,13.448,17.844,12.226,14.462,5.969,8.567
15.919,20.715,12.458,18.147,11.805,15.143,4.427,8.151
12.356,18.764,6.484,13.452,5.491,11.154,-2.972,3.131
11.742,19.618,4.978,11.384,3.299,9.167,-4.797,1.29
12.044,20.901,7.187,11.942,5.132,8.997,-2.64,2.316
9.889,19.337,6.921,11.584,4.867,8.081,-3.308,1.577
7.782,16.595,4.448,10.878,2.515,7.617,-4.728,-0.551
9.54,16.009,3.851,11.825,1.986,9.041,-3.129,-0.583
12.71,16.904,4.102,12.472,2.392,9.738,-2.616,0.602
10.607,14.73,0.105,8.068,-1.128,4.992,-8.477,-2.61
3.736,9.724,-6.448,0.024,-7.042,-3.475,-15.359,-9.723
1.844,9.191,-6.734,-2.747,-7.121,-6.586,-12.779,-11.81
8.695,15.18,0.118,2.364,-0.737,-1.674,-3.327,-6.708
15.671,19.966,4.678,7.21,3.36,3.064,0.4,-2.759
15.677,18.121,2.424,6.48,1.127,2.184,-3.058,-3.796
11.999,13.385,-1.494,4.084,-2.902,-0.314,-4.251,-5.087
9.766,10.758,-2.773,3.716,-4.719,-0.479,-2.639,-5.032
8.079,9.203,-3.17,3.254,-5.399,-0.516,-6.755,-7.227
5.499,6.926,-3.794,1.926,-5.72,-1.431,-14.394,-9.854
5.327,6.696,-1.884,3.346,-3.304,0.473,-13.914,-6.95
9.318,10.352,3.202,8.361,2.319,6.035,-3.73,0.596
12.411,13.902,7.381,12.471,7.238,10.406,7.381,6.392
9.372,11.697,6.816,11.216,7.354,8.881,11.903,6.138
2.777,4.238,2.52,5.315,3.086,2.464,7.789,0.073
-0.79,-1.405,-1.156,0.011,-1.013,-3.086,-0.578,-7.004
-0.399,-1.71,-2.639,-1.866,-2.538,-4.931,-7.483,-10.68
-0.164,-0.416,-4.387,-2.495,-3.924,-5.623,-11.901,-11.815
0.779,1.414,-5.747,-1.967,-5.193,-5.246,-12.159,-10.9
6.732,6.92,-2.764,2.645,-2.453,-0.551,-5.784,-5.878
13.645,13.307,2.245,8.778,2.318,5.948,1.164,-0.155
12.495,12.99,1.758,9.227,1.585,6.766,-0.365,-0.86
4.314,5.816,-4.628,3.43,-5.099,0.981,-8.018,-7.351
0.022,1.131,-8.528,-0.311,-9.159,-3.154,-11.23,-10.947
3.977,4.41,-5.728,2.607,-6.244,-0.518,-7.314,-7.774
8.489,9.615,-1.82,6.464,-2.265,3.472,-4.063,-3.736
7.295,9.817,-2.172,5.341,-2.959,2.467,-6.464,-4.317
3.886,6.96,-4.589,1.714,-5.636,-1.343,-10.109,-7.377
3.902,6.703,-4.376,1.378,-4.986,-1.823,-8.912,-8.005
6.488,9.052,-1.864,4.177,-1.896,1.202,-4.321,-5.971
6.898,9.017,-0.981,4.758,-1.055,2.18,-3.129,-5.416
3.979,5.064,-2.513,1.601,-2.881,-0.706,-6.933,-7.748
0.224,0.982,-4.256,-1.421,-4.459,-3.394,-10.385,-9.832
-1.505,0.601,-4.196,-0.797,-3.949,-2.235,-9.122,-8.659
1.11,4.59,-0.484,4.02,-0.048,2.952,-3.136,-3.525
6.532,9.398,5.324,9.753,5.85,8.731,3.803,2.896
9.537,10.496,7.5,11.661,8.384,10.588,6.187,5.422
9.573,9.91,5.77,11.121,6.834,9.902,4.044,3.889
11.346,13.04,7.139,13.832,7.65,12.294,3.553,4.463
14.013,17.328,12.133,18.365,11.846,16.572,6.383,8.615
12.146,16.777,13.215,18.767,12.694,17.08,8.651,10.978
9.01,15.008,10.806,17.457,10.49,16.196,10.45,10.902
12.32,18.897,12.542,20.606,12.284,19.869,12.87,13.145
17.939,23.931,16.152,24.308,15.945,23.972,11.044,15.98
16.416,21.822,13.547,21.361,13.884,20.877,4.07,13.289
10.699,16.606,7.624,15.84,8.574,14.723,-0.201,7.737
10.066,16.919,6.755,15.529,7.604,14.286,1.641,7.137
14.087,20.936,10.683,18.599,11.055,17.989,5.986,11.501
16.106,22.88,14.185,20.059,14.472,19.77,11.556,15.671
14.48,22.543,15.347,20.111,15.879,19.389,17.145,17.329
11.424,20.431,13.885,18.983,14.621,17.859,17.087,15.563
8.631,16.138,10.257,15.483,11.024,14.492,10.477,10.72
7.156,11.926,7.149,11.391,7.813,10.633,4.683,5.88
6.06,9.299,5.414,8.495,6.057,7.719,2.704,2.425
4.521,7.854,4.033,6.839,4.741,6.165,1.57,0.318
5.808,9.619,5.856,9.076,6.462,8.771,3.508,3.143
10.296,14.364,12.125,15.951,12.451,15.807,10.485,11.72
9.453,13.487,14.273,18.572,14.451,18.318,13.533,15.826
-1.148,1.958,5.468,9.435,5.93,9.192,5.806,7.122
-11.504,-10.05,-6.292,-3.236,-5.217,-3.18,-3.975,-5.136
-11.292,-11.169,-9.084,-6.443,-7.439,-5.887,-5.055,-7.051
-4.143,-5.156,-3.299,-0.908,-1.339,0.057,0.448,-0.36
-0.386,-2.984,1.033,2.381,2.967,3.399,4.008,3.293
-2.61,-6.795,-0.773,-0.824,0.894,-0.078,2.886,0.378
-4.07,-9.475,-2.836,-3.748,-1.524,-3.386,1.034,-2.461
-0.974,-7.984,-1.167,-2.377,-0.436,-2.19,0.305,-1.599
1.95,-7.338,-0.46,-1.536,-0.465,-1.235,-2.576,-1.137
1.141,-9.473,-2.908,-3.159,-3.225,-2.795,-7.183,-2.681
-1.093,-10.595,-3.992,-3.201,-4.053,-2.949,-7.126,-2.219
-2.677,-9.644,-2.305,-1.187,-1.96,-0.805,-0.425,1.48
-5.423,-9.911,-2.673,-1.725,-1.782,-0.63,5.714,3.426
-12.659,-15.023,-9.245,-8.594,-7.535,-6.507,2.137,-2.372
-24.304,-25.659,-20.018,-20.49,-17.621,-17.908,-11.293,-14.943
-35.649,-38.131,-28.985,-31.637,-26.316,-29.48,-24.566,-26.023
-40.788,-46.053,-31.625,-35.865,-28.893,-34.564,-29.344,-28.475
-35.803,-43.537,-26.19,-29.531,-23.414,-28.67,-24.281,-20.335
-23.062,-31.036,-14.981,-15.583,-12.115,-14.704,-11.657,-5.727
-11.462,-17.693,-5.271,-3.606,-2.401,-2.808,2.04,6.015
-7.835,-12.4,-2.838,0.088,-0.141,0.701,8.82,9.117
-11.72,-15.576,-6.946,-2.763,-4.243,-2.054,6.337,5.738
-18.331,-21.601,-13.25,-7.984,-10.142,-6.955,-0.455,0.44
-22.708,-25.352,-17.59,-12.583,-14.035,-11.412,-4.229,-3.225
-22.882,-25.527,-18.03,-14.495,-14.383,-13.475,-2.357,-3.079
-20.571,-23.251,-15.538,-12.819,-12.233,-11.918,1.765,0.466
-18.428,-20.184,-12.246,-8.604,-9.576,-7.662,4.158,4.606
-17.962,-19.008,-10.236,-5.396,-8.148,-4.727,3.189,5.91
-20.511,-22.359,-12.131,-7.162,-10.02,-7.486,-1.312,2.497
-25.444,-27.771,-17.541,-12.384,-14.75,-13.884,-6.595,-3.026
-27.88,-28.891,-20.813,-14.764,-17.597,-16.602,-8.492,-5.748
-24.973,-25.094,-18.849,-13.067,-16.032,-14.249,-7.379,-5.367
-19.769,-21.145,-14.449,-11.379,-12.072,-11.882,-5.433,-4.564
-16.045,-19.228,-10.325,-11.299,-7.843,-11.787,-2.104,-4.174
-15.012,-18.257,-7.365,-11.333,-4.825,-11.792,1.141,-4.257
-14.082,-15.317,-4.9,-8.807,-2.602,-8.341,1.816,-3.001
-11.367,-10.595,-2.736,-4.688,-0.389,-2.96,0.269,-0.294
-12.164,-10.933,-4.671,-6.172,-1.854,-4.142,-4.626,-2.707
-18.704,-17.699,-11.048,-13.976,-7.771,-12.744,-12.061,-10.886
-21.136,-20.576,-12.957,-16.691,-9.452,-16.325,-13.914,-12.944
-13.346,-13.944,-5.355,-8.637,-1.823,-8.699,-6.226,-3.922
-5.474,-6.923,2.549,-0.615,5.982,-1.181,1.845,3.738
-8.176,-8.773,0.425,-3.222,3.741,-4.608,0.919,-0.39
-15.933,-14.985,-7.553,-10.613,-4.299,-12.74,-5.086,-8.972
-18.252,-17.106,-11.517,-12.624,-8.348,-15.24,-8.798,-11.917
-16.731,-16.215,-11.752,-11.357,-8.887,-14.293,-12.226,-12.488
-19.091,-17.607,-14.101,-13.408,-11.731,-16.357,-18.362,-16.707
-25.883,-22.154,-19.136,-18.303,-17.052,-20.871,-23.66,-22.477
-31.018,-27.316,-22.886,-21.731,-20.713,-23.805,-25.358,-25.429
-29.51,-29.342,-21.331,-20.228,-18.979,-22.007,-23.299,-22.965
-22.866,-26.43,-14.77,-13.901,-12.266,-15.481,-17.124,-15.345
-18.234,-22.525,-9.809,-8.509,-7.172,-9.713,-10.703,-8.571
-19.137,-22.056,-10.808,-8.142,-8.25,-8.934,-8.729,-7.032
-21.272,-23.609,-13.435,-9.732,-11.257,-10.374,-7.652,-6.937
-21.257,-24.338,-13.67,-10.543,-11.827,-11.102,-3.288,-5.33
-20.419,-24.466,-13.612,-11.615,-11.618,-11.888,-0.773,-4.484
-20.433,-25.707,-15.736,-13.829,-13.316,-13.991,-7.047,-6.238
-21.951,-28.48,-18.847,-16.523,-16.454,-16.982,-18.182,-9.648
-22.494,-28.69,-17.995,-15.907,-16.179,-16.338,-20.417,-9.555
-18.376,-22.556,-10.717,-9.363,-9.307,-8.95,-8.443,-1.91
-13.017,-15.95,-4.068,-3.551,-2.48,-2.206,4.779,6.405
-13.17,-16.503,-5.305,-6.082,-3.268,-4.442,6.796,6.033
-17.233,-20.129,-10.054,-12.245,-7.734,-10.705,2.234,0.343
-18.315,-18.897,-10.563,-12.787,-8.244,-11.229,0.531,-1.308
-15.101,-13.839,-6.943,-7.759,-4.766,-6.054,2.462,2.007
-11.258,-10.247,-3.089,-3.145,-1.006,-1.533,5.25,5.291
-8.658,-8.981,-0.425,-1.285,1.721,-0.042,7.604,6.813
-6.66,-7.801,1.394,-0.188,3.561,0.741,8.955,8.456
-6.288,-6.967,1.84,0.99,3.538,1.637,8.851,10.011
-11.703,-10.721,-2.131,-1.968,-1.226,-1.717,4.978,6.526
-22.511,-19.905,-10.621,-10.976,-9.95,-10.853,-1.629,-2.943
-28.686,-26.339,-15.157,-17.072,-13.951,-16.578,-1.593,-8.067
-24.429,-24.693,-10.619,-13.781,-9.004,-12.962,7.68,-2.669
-18.964,-22.31,-5.68,-10.185,-4.205,-9.396,13.472,3.12
-21.805,-25.977,-8.532,-14.886,-6.99,-13.904,8.87,0.89
-28.954,-31.223,-14.868,-22.148,-12.549,-20.546,3.666,-3.262
-32.067,-32.292,-18.054,-24.165,-14.891,-22.456,5.934,-3.347
-30.098,-30.353,-18.025,-21.691,-14.702,-20.791,10.342,-2.376
-25.813,-27.331,-16.149,-17.58,-13.365,-17.29,9.107,-2.166
-20.032,-22.139,-12.075,-12.013,-10.126,-11.382,3.537,0.312
-14.462,-16.507,-7.783,-7.125,-6.478,-6.036,-0.126,4.136
-11.423,-13.982,-5.549,-5.717,-4.297,-4.9,0.537,5.188
-8.288,-11.728,-2.451,-4.426,-0.85,-4.164,5.095,5.756
-2.632,-5.99,3.37,0.334,5.144,0.556,11.678,9.845
0.068,-2.055,6.042,3.62,7.604,4.128,13.95,12.546
-4.633,-5.313,1.49,0.54,2.603,0.963,7.262,7.941
-10.931,-10.436,-4.46,-4.536,-3.79,-4.333,-2.254,1.031
-11.099,-9.425,-4.505,-4.846,-3.851,-4.058,-3.455,0.774
-6.288,-3.703,0.027,-1.143,1.229,0.875,4.464,6.136
-4.335,-2.42,1.005,-0.787,2.816,1.781,8.919,7.139
-8.588,-8.92,-5.012,-6.074,-2.914,-3.973,2.733,0.836
-13.938,-15.345,-11.46,-9.739,-9.312,-7.965,-4.515,-3.65
-15.724,-15.179,-12.359,-7.205,-10.389,-4.909,-3.887,-0.544
-13.69,-10.458,-9.091,-1.64,-7.263,1.402,1.76,5.914
-7.231,-3.749,-2.961,5.134,-0.789,8.321,8.901,12.194
1.991,3.784,5.728,12.8,8.258,15.616,16.467,18.618
6.952,7.832,11.641,16.831,13.836,19.531,20.274,23.028
3.476,5.098,9.642,13.594,11.237,16.51,17.294,21.392
-4.172,-1.481,2.819,6.429,4.259,8.853,10.769,13.998
-9.222,-6.206,-1.696,1.428,-0.174,2.434,6.206,6.693
-9.674,-6.331,-1.63,0.669,-0.374,0.631,5.032,4.254
-8.977,-3.994,-0.738,1.053,-0.114,0.882,3.734,4.023
-9.743,-2.734,-1.685,-0.369,-1.661,-0.618,-0.285,1.272
-9.112,-1.9,-1.701,-1.213,-1.91,-1.967,-3.789,-1.546
-4.868,1.604,1.404,1.969,1.548,0.775,-1.746,0.836
-0.335,6.907,5.133,7.685,5.863,6.612,5.615,7.414
1.386,9.958,7.471,12.206,8.293,11.471,12.598,12.941
0.029,8.2,8.439,13.078,9.143,12.248,14.465,13.874
-4.582,2.222,7.214,9.738,8.542,8.609,12.835,10.712
-10.714,-3.891,3.926,4.864,6.258,3.994,11.237,7.219
-13.704,-5.77,1.372,2.453,3.911,2.308,8.926,6.041
-11.938,-4.551,1.174,2.662,3.341,3.03,5.195,5.811
-9.836,-4.898,0.705,1.899,3.008,2.516,1.85,3.918
-10.049,-6.257,-1.713,-0.194,0.962,0.687,-0.148,1.372
-8.714,-3.437,-2.19,0.824,0.004,1.739,0.538,2.441
-3.67,3.13,1.899,5.835,3.114,6.283,5.381,7.832
0.95,7.391,6.723,10.234,7.66,10.145,12.462,13.281
0.866,6.875,7.693,10.944,9.035,10.912,17.082,15.36
-4.143,3.118,4.024,7.891,5.611,8.538,15.383,13.239
-10.277,-1.772,-1.69,2.332,-0.435,3.726,8.123,7.849
-12.101,-4.152,-4.805,-1.96,-4.252,-0.192,1.369,2.932
-7.667,-1.208,-2.219,-0.919,-2.042,0.84,0.829,2.986
-0.997,4.043,3.451,3.933,3.857,5.605,4.807,7.316
1.61,5.569,5.951,6.328,6.484,8.167,6.565,10.001
-1.725,2.43,3.237,3.802,3.361,6.064,4.229,8.193
-5.989,-0.51,0.62,1.014,0.422,3.642,3.471,5.827
-5.14,0.757,3.777,3.255,3.783,5.99,8.377,7.734
0.371,5.298,10.846,9.972,10.977,12.601,14.437,13.624
5.313,9.317,15.98,16.595,15.671,18.99,16.441,19.38
5.801,9.652,16.516,19.422,15.742,21.676,15.4,21.392
-0.058,4.295,11.842,16.17,11.036,18.536,11.742,17.497
-9.81,-4.98,3.948,8.253,3.082,10.552,5.071,9.38
-13.594,-9.261,0.984,4.161,-0.21,5.945,2.075,5.475
-5.451,-2.513,8.283,9.83,7.173,11.302,9.188,11.434
4.098,5.876,16.839,16.445,16.666,18.215,18.518,18.528
1.769,3.493,14.475,12.111,15.434,14.251,16.778,15.083
-8.546,-6.086,3.85,0.419,5.236,2.641,5.584,4.35
-15.413,-11.999,-4.729,-7.281,-3.682,-4.896,-2.956,-2.491
-17.199,-12.755,-8.406,-8.068,-7.965,-5.166,-4.127,-1.734
-17.569,-12.777,-9.223,-5.888,-9.334,-2.471,-1.008,2.748
-17.859,-13.545,-9.086,-4.671,-9.423,-1.209,2.769,4.981
-18.995,-14.152,-10.626,-6.314,-10.767,-3.189,2.8,1.7
-19.767,-12.694,-12.716,-7.913,-12.668,-4.859,-2.221,-1.98
-16.474,-7.517,-10.182,-4.496,-10.113,-0.993,-5.348,1.277
-10.58,-1.453,-3.908,2.175,-3.632,5.964,-1.521,8.217
-6.658,2.421,0.691,7.281,1.151,10.72,4.805,11.999
-3.754,7.367,4.243,12.293,4.397,15.289,9.966,15.41
-0.37,14.254,8.426,18.232,8.149,21.138,14.263,21.09
0.278,16.304,8.916,19.702,8.632,22.592,15.042,22.69
-2.449,11.686,4.165,15.226,3.934,18.075,10.488,17.567
-4.238,7.551,0.174,11.309,-0.464,14.321,4.943,12.664
-4.065,7.141,0.395,11.253,-0.688,14.619,3.241,12.406
-6.307,5.171,0.169,9.98,-0.677,13.669,4.274,11.989
-11.72,-0.973,-3.776,4.145,-3.81,7.755,3.893,6.72
-14.334,-5.376,-6.53,-0.595,-5.871,2.401,1.512,1.356
-10.761,-3.665,-3.531,1.338,-2.571,3.889,0.459,3.165
-5.775,-0.609,1.392,5.863,2.605,8.77,3.034,9.713
-6.605,-2.79,1.254,4.75,2.79,8.195,5.639,11.054
-13.186,-8.735,-3.835,-2.422,-2.416,0.853,3.148,3.955
-15.834,-9.67,-5.236,-6.194,-4.569,-3.546,-0.174,-1.724
-7.841,-0.895,1.971,-0.033,1.969,2.166,3.385,2.962
3.35,10.421,9.925,9.469,9.834,11.355,9.973,11.761
6.893,15.008,9.576,12.699,9.497,14.37,11.194,13.942
3.588,13.419,4.186,10.241,3.895,12.148,8.355,10.255
0.083,10.217,1.331,7.814,1.078,10.316,6.64,7.454
-2.569,6.012,0.956,6.935,1.259,9.823,5.979,7.516
-6.814,0.493,-1.058,5.6,-0.191,8.422,3.844,7.664
-12.818,-5.399,-5.578,1.791,-4.631,4.363,-0.8,4.052
-18.814,-10.89,-10.385,-4.302,-9.59,-1.729,-6.216,-3.276
-23.688,-15.372,-13.877,-9.945,-12.956,-6.98,-9.443,-8.966
-25.427,-16.758,-14.471,-11.189,-13.146,-7.787,-8.495,-8.121
-20.324,-12.131,-9.034,-5.524,-7.429,-2.018,-1.879,-0.61
-10.206,-3.836,0.679,3.014,2.177,6.231,6.996,8.305
-3.146,1.424,6.645,7.036,7.76,9.754,10.097,12.619
-2.132,2.639,6.138,6.343,6.966,8.728,8.182,12.997
-3.125,3.414,4.513,5.699,5.453,8.119,10.519,13.388
-2.81,4.467,6.237,6.713,7.523,9.25,18.673,14.859
-0.769,5.297,10.635,8.756,11.881,11.173,23.629,17.33
0.506,4.845,12.452,9.207,13.027,11.379,17.777,18.281
-2.776,0.812,7.311,4.691,7.355,6.688,4.895,13.189
-8.444,-4.443,-0.247,-1.295,0.012,0.318,-3.14,4.619
-8.561,-4.772,-1.584,-0.936,-1.078,-0.025,-0.033,1.696
-1.267,0.636,3.611,5.532,3.674,6.208,9.206,6.786
6.166,6.474,8.411,10.024,7.906,11.308,16.355,12.126
8.037,8.513,8.79,8.661,8.2,10.506,17.223,11.488
5.671,7.118,5.866,4.866,5.25,6.59,11.388,6.78
2.41,4.433,1.858,1.594,0.994,2.871,2.332,2.068
0.366,2.354,-1.072,-0.685,-1.913,0.129,-2.669,-0.727
1.903,3.845,-0.086,0.167,-0.586,0.495,0.756,0.026
7.332,9.596,5.022,4.952,4.582,4.912,8.246,4.048
10.947,14.102,8.666,8.299,7.915,8.239,11.304,6.56
7.927,12.887,6.304,5.422,5.385,5.689,7.568,4.099
3.658,9.912,2.949,1.134,2.249,1.732,3.944,1.353
6.171,11.294,6.47,3.787,6.027,4.225,7.144,5.269
13.356,16.15,14.811,11.633,14.389,11.495,14.536,13.565
16.473,18.096,17.503,13.351,17.26,13.288,17.225,16.013
13.097,14.843,10.07,4.589,10.312,5.921,10.895,8.839
11.61,13.469,3.14,-2.438,3.354,0.408,4.554,3.036
19.958,20.951,9.021,4.481,8.456,7.523,10.761,9.87
32.298,31.775,20.984,16.977,20.006,19.452,23.853,21.819
37.491,35.637,23.383,19.26,22.745,21.603,26.622,23.819
35.819,32.832,16.674,12.817,16.206,15.29,18.199,16.428
34.387,30.44,11.964,9.122,11.365,11.389,12.383,10.722
34.693,30.583,11.186,9.88,10.661,11.84,12.754,9.836
34.663,31.362,9.466,9.438,8.691,11.324,10.489,8.746
36.376,33.652,8.155,8.153,6.27,9.885,4.428,6.628
42.635,39.031,11.274,10.752,8.207,12.031,3.034,7.677
48.662,43.513,14.423,14.409,11.395,15.526,6.647,10.315
49.258,42.847,11.902,12.618,10.388,14.462,8.45,9.162
49.466,41.329,8.612,8.838,8.576,11.772,8.881,6.782
55.944,45.853,12.299,11.741,12.058,15.22,12.157,10.156
65.499,55.058,21.245,20.711,19.706,24.092,16.933,18.628
70.14,61.796,27.283,27.882,25.224,30.722,19.873,25.042
68.198,63.512,26.888,30.353,25.484,32.216,21.564,26.405
65.234,63.456,23.927,30.532,23.23,31.446,23.597,25.32
65.128,63.421,22.348,28.832,21.572,29.537,23.025,22.44
66.097,62.683,22.587,25.655,21.123,26.652,17.468,17.698
65.41,61.208,23.999,24.334,21.83,25.245,11.865,14.956
62.898,58.977,25.362,25.597,22.795,26.096,10.905,16.317
61.418,57.365,26.784,28.01,24.078,28.359,14.139,19.982
64.322,59.318,30.798,32.598,28.17,32.736,21.347,24.924
68.773,62,35.49,37.088,33.28,36.6,28.535,27.917
68.393,59.32,34.998,35.633,33.332,34.733,26.887,24.168
65.264,54.496,31.159,30.468,29.588,29.629,17.724,17.012
64.646,53.39,29.604,27.881,27.766,27.003,12.086,13.282
63.17,52.163,28.666,26.467,27.03,25.479,13.287,12.582
58.942,48.446,26.767,24.333,26.026,23.874,16.991,13.399
57.058,46.929,26.42,23.652,26.315,24.208,19.952,16.009
56.777,46.729,26.031,22.896,25.518,23.876,19.686,16.564
52.928,43.59,23.548,20.313,22.29,21.021,16.661,13.614
47.841,39.946,22.427,19.486,21.207,20.225,14.988,12.808
46.958,39.225,24.686,22.174,24.033,23.239,15.888,16.465
48.405,38.774,26.516,23.871,26.071,24.702,16.449,19.005
46.768,35.17,24.017,20.284,23.494,20.644,13.918,15.968
41.583,29.659,18.012,13.14,17.659,13.568,8.617,9.845
35.927,25.152,12.901,7.774,12.853,8.225,5.041,5.236
31.918,22.958,12.204,6.997,12.29,6.575,7.206,3.255
29.768,22.584,14.148,8.31,14.299,6.669,11.285,2.02
28.488,21.834,13.703,7.597,13.754,5.498,9.806,-0.055
27.658,19.057,9.861,4.35,9.283,2.664,3.251,-2.526
28.179,15.983,7.001,1.57,5.615,0.263,-0.127,-3.599
31.201,16.478,8.862,2.365,7.309,0.785,4.44,-1.629
34.969,20.704,12.868,5.779,11.739,3.876,10.727,1.908
34.339,23.526,13.118,7.074,12.269,5.708,9.437,2.966
28.626,22.582,9.936,5.812,9.049,5.538,3.356,1.879
22.815,20.604,7.382,5.073,6.423,5.603,0.937,1.394
17.997,18.101,3.779,2.833,2.594,3.937,-0.335,-0.785
14.022,15.079,-1.148,-1.702,-2.81,-0.117,-4.313,-4.997
15.647,15.557,-0.297,-1.893,-2.04,-0.472,-4.074,-4.762
21.538,18.843,6.838,3.59,5.9,4.33,3.61,1.053
22.268,17.648,10.758,6.789,10.726,7.267,9.436,5.194
17.026,11.898,8.298,4.649,8.067,5.359,5.764,4.427
12.857,8.045,4.862,0.892,3.353,1.741,-3.42,0.841
10.566,6.388,2.793,-2.888,0.156,-2.033,-8.98,-4.671
8.637,5.318,2.578,-4.349,-0.132,-3.553,-6.224,-8.141
10.223,8.056,7.897,1.512,5.823,1.862,2.949,-2.605
15.028,13.944,17.726,12.232,16.127,11.831,13.173,9.379
16.101,15.551,22.702,17.271,21.299,16.455,18.687,16.075
10.139,9.422,17.451,12.101,16.408,11.362,16.661,12.376
1.574,0.305,7.688,3.012,7.053,2.47,9.985,4.653
-4.795,-5.901,1.08,-2.988,0.414,-3.235,4.65,0.422
-8.8,-8.177,-1.569,-4.962,-2.493,-4.769,2.822,0.449
-13.033,-9.863,-3.812,-5.314,-4.326,-4.962,1.56,0.997
-18.299,-13.684,-6.392,-5.837,-5.792,-5.905,-0.831,-0.063
-22.344,-18.35,-7.588,-7.683,-6.443,-8.447,-3.76,-2.678
-25.006,-22.334,-9.915,-13.058,-9.245,-14.257,-8.818,-8.652
-29.809,-27.391,-17.258,-22.259,-16.805,-23.393,-16.11,-18.763
-37.755,-34.219,-26.417,-30.417,-25.254,-31.194,-20.715,-27.668
-45.616,-39.908,-31.657,-33.248,-29.759,-33.604,-21.124,-30.449
-50.689,-42.357,-33.078,-32.227,-31.03,-32.073,-21.976,-29.161
-53.376,-42.975,-33.733,-30.797,-31.734,-30.076,-24.46,-27.659
-55.929,-44.656,-35.186,-31.343,-33.018,-30.061,-26.039,-27.602
-59.613,-49.033,-37.757,-35.072,-35.309,-33.109,-27.532,-29.873
-62.253,-53.542,-38.804,-38.442,-36.382,-35.962,-29.037,-31.984
-60.349,-52.371,-34.391,-35.048,-32.485,-32.867,-26.736,-28.66
-56.548,-46.391,-28.167,-27.439,-26.934,-26.2,-22.464,-22.218
-59.01,-45.265,-28.917,-26.077,-28.162,-25.527,-24.192,-22.165
-68.349,-51.928,-36.053,-32.258,-35.735,-31.898,-31.857,-29.655
-74.94,-56.811,-39.624,-35.83,-39.781,-35.548,-35.613,-34.661
-73.58,-53.363,-34.948,-30.944,-35.019,-30.478,-29.823,-30.324
-71.43,-48.968,-29.131,-24.617,-28.342,-23.219,-20.815,-22.633
-77.059,-54.332,-31.583,-27.131,-29.891,-24.534,-18.087,-22.296
-87.703,-66.877,-40.389,-36.773,-38.229,-33.868,-21.157,-28.799
-93.706,-74.323,-44.61,-42.04,-42.444,-39.959,-22.59,-31.792
-91.86,-72.573,-39.782,-38.19,-38.06,-37.206,-19.357,-27.155
-87.912,-69.159,-32.867,-31.905,-31.564,-31.756,-15.156,-21.613
-86.607,-68.857,-30.784,-29.389,-29.765,-29.975,-16.207,-21.739
-84.486,-65.775,-30.721,-27.501,-30.492,-28.485,-21.468,-23.997
-78.014,-56.259,-27.661,-22.204,-28.293,-22.745,-22.014,-21.734
-72.474,-48.928,-24.739,-18.152,-25.273,-17.874,-17.913,-17.958
-73.579,-51.241,-26.875,-19.976,-26.816,-19.315,-18.723,-19.06
-77.844,-57.537,-31.064,-23.023,-30.662,-22.111,-23.907,-21.7
-78.498,-58.981,-31.085,-21.36,-30.135,-19.863,-23.324,-18.855
-75.451,-56.25,-27.252,-17.051,-25.379,-15.421,-16.116,-12.904
-75.041,-56.291,-25.836,-16.329,-23.321,-15.6,-12.112,-12.139
-80.195,-60.771,-29.489,-20.601,-26.626,-20.689,-14.973,-17.647
-84.186,-62.909,-31.709,-23.555,-28.322,-23.349,-15.797,-20.749
-80.543,-58.455,-26.38,-20.032,-22.612,-19.209,-8.964,-15.98
-74.8,-54.055,-19.862,-15.823,-16.471,-15.121,-4.211,-11.135
-74.668,-55.73,-20.91,-18.078,-18.438,-17.878,-9.704,-14.191
-76.463,-58.211,-25.041,-21.804,-23.256,-21.853,-16.833,-18.951
-74.15,-55.703,-23.997,-19.477,-22.297,-19.744,-16.145,-17.118
-70.966,-51.601,-20.169,-14.181,-18.157,-14.792,-11.228,-11.907
-72.472,-51.585,-20.444,-13.358,-17.843,-14.056,-9.035,-10.328
-77.44,-55.667,-25.34,-18.164,-21.915,-18.508,-10.645,-13.506
-79.276,-57.988,-28.278,-22.225,-24.283,-21.804,-11.309,-16.163
-72.177,-51.863,-21.727,-17.585,-17.934,-15.944,-3.84,-10.223
-58.572,-38.73,-7.337,-5.03,-4.5,-2.048,11.006,4.437
-49.3,-29.694,2.46,3.762,4.051,7.674,20.643,14.958
-50.452,-31.412,0.237,1.398,0.971,5.653,17.849,12.443
-56.119,-37.992,-6.832,-6.028,-6.225,-2.405,11.059,3.699
-59.361,-42.294,-10.42,-11.399,-9.592,-9.491,6.758,-3.199
-60.18,-43.342,-12.151,-15.065,-11.121,-14.26,-0.31,-8.432
-59.726,-41.441,-14.779,-17.652,-13.431,-15.78,-9.613,-11.661
-57.993,-38.345,-16.169,-18.335,-14.36,-14.497,-12.201,-11.183
-57.606,-39.388,-16.692,-19.748,-14.506,-15.141,-10.058,-10.642
-59.035,-44.414,-17.825,-22.151,-15.337,-18.015,-9.905,-11.724
-56.953,-44.709,-15.646,-19.493,-13.033,-16.036,-6.916,-8.931
-50.835,-38.288,-10.015,-12.346,-7.869,-9.586,0.449,-3.552
-46.327,-32.106,-7.123,-8.566,-5.859,-6.648,3.061,-3.196
-42.138,-26.175,-5.477,-6.21,-4.756,-4.769,1.358,-3.411
-34.657,-17.973,-0.641,0.072,0.079,1.732,3.318,2.69
-30.596,-15.396,1.144,2.673,1.863,4.639,5.402,6.055
-35.358,-23.408,-4.839,-4.409,-4.621,-2.744,1.57,-0.915
-40.723,-31.769,-10.589,-11.35,-11.12,-10.309,-3.689,-8.402
-38.612,-30.812,-9.814,-9.684,-10.734,-8.818,-6.586,-7.663
-34.128,-25.887,-7.87,-5.702,-8.688,-4.615,-9.751,-4.892
-35.473,-27.026,-10.652,-7.457,-11.187,-6.507,-12.978,-7.308
-39.839,-32.375,-14.214,-11.132,-14.668,-10.694,-12.723,-10.362
-38.443,-31.848,-11.509,-8.549,-12.111,-8.288,-8.68,-6.942
-31.407,-24.729,-4.543,-1.768,-5.014,-1.264,-3.872,-0.413
-26.537,-20.448,-1.095,0.575,-1.083,1.131,-1.163,1.034
-26.369,-22.633,-2.3,-2.56,-2.204,-2.305,-1.285,-2.732
-28.184,-26.964,-4.523,-6.313,-4.825,-6.268,-3.763,-6.645
-31.629,-31.26,-7.881,-9.662,-8.238,-9.543,-8.305,-10
-36.125,-34.636,-12.513,-13.012,-12.711,-12.669,-12.744,-13.615
-37.694,-33.968,-15.125,-14.357,-15.757,-13.716,-13.562,-15.209
-34.01,-28.488,-13.726,-12.279,-14.878,-11.279,-9.976,-12.809
-27.535,-21.61,-9.697,-7.566,-10.469,-6.115,-4.703,-7.869
-23.772,-18.716,-8.032,-4.819,-7.989,-2.901,-3.76,-5.925
-25.855,-22.463,-13.188,-8.911,-12.996,-6.802,-11.649,-11.039
-28.848,-26.89,-19.863,-14.84,-20.177,-12.994,-21.358,-17.094
-25.389,-23.666,-17.794,-12.361,-18.347,-11.001,-19.884,-13.995
-16.454,-14.19,-7.157,-1.881,-7.41,-0.781,-6.819,-2.171
-9.407,-6.973,2.027,6.189,1.912,7.409,5.25,8.194
-7.39,-5.471,4.465,6.258,4.117,7.59,8.72,10.443
-6.97,-5.393,4.031,2.726,3.826,3.805,7.781,7.644
-6.174,-4.027,4.159,0.343,4.851,1.123,7.125,4.957
-6.811,-4.255,3.407,-1.741,5.072,-0.882,5.764,2.796
-8.495,-7.143,1.144,-4.531,2.91,-3.428,3.301,0.507
-10.402,-10.402,-1.89,-7.548,-0.957,-6.359,0.612,-2.098
-14.272,-13.31,-5.934,-11.05,-5.842,-9.873,-3.16,-6.031
-18.428,-15.52,-8.643,-12.909,-8.767,-11.849,-6.766,-9.25
-18.621,-15.782,-6.365,-9.972,-6.362,-9.214,-6.442,-8.24
-15.556,-14.074,-1.289,-4.466,-1.16,-3.895,-1.502,-4.327
-13.679,-12.34,-0.684,-2.975,-0.357,-2.149,2.813,-3.05
-14.801,-13.043,-7.042,-7.795,-6.454,-6.579,0.175,-7.273
-15.411,-13.87,-12.956,-11.728,-12.287,-10.339,-6.591,-10.878
-11.145,-8.367,-11.221,-7.515,-10.615,-5.911,-7.47,-6.197
-3.718,2.984,-4.793,1.143,-4.119,3.176,-0.47,3.237
1.003,11.722,0.263,6.953,0.927,9.376,6.373,9.102
1.153,14.179,3.334,9.631,3.512,12.25,8.468,10.56
0.792,15.556,6.005,12.326,5.542,14.936,9.331,11.442
3.497,19.894,7.886,14.97,7.179,17.398,11.203,13.041
7.322,23.834,8.724,15.766,8.154,17.859,10.878,14.02
8.858,23.36,10.384,15.344,9.949,16.678,7.898,13.91
8.84,21.074,13.547,15.37,12.859,15.6,6.898,13.613
9.303,21.716,15.179,15.355,13.965,15.066,8.672,13.387
8.959,24.124,12.055,13.279,10.787,13.443,8.278,12.048
6.731,24.613,5.924,8.962,5.225,9.718,4.584,8.867
6.484,25.539,3.762,7.117,3.392,7.935,4.635,7.314
11.994,31.195,9.3,11.988,8.638,12.648,12.747,11.807
20.483,38.769,16.521,18.952,15.362,19.775,20.932,19.092
27.329,43.668,19.518,22.151,17.908,23.315,21.765,23.219
31.355,46.583,20.965,23.836,19.125,24.865,20.84,24.888
30.855,47.088,21.66,24.635,20.04,24.944,21.892,24.068
24.98,42.886,17.432,20.833,16.314,20.641,19.103,17.97
19.329,37.875,11.164,16.241,10.539,16.249,13.027,11.579
18.433,36.778,9.174,16.936,8.968,16.997,9.797,10.681
19.149,37.166,9.402,19.245,9.33,18.574,8.126,10.839
19.065,36.504,7.673,18.165,7.316,16.863,5.435,8.316
20.804,36.577,6.427,16.888,5.859,15.721,4.552,7.939
25.451,37.902,9.283,19.355,9.009,18.52,6.95,12.71
30.46,39.195,14.766,23.089,14.783,22.534,10.79,18.551
33.044,40.071,18.323,23.562,18.041,23.548,14.525,21.158
32.771,40.493,18.412,21.267,17.666,21.695,17.559,21.453
31.656,40.018,17.437,20.062,16.714,20.029,18.496,22.124
29.931,36.846,15.167,18.636,14.535,17.29,13.386,20.298
26.187,30.384,10.293,13.335,9.044,10.577,2.518,12.263
23.042,24.945,7.473,8.178,5.078,4.249,-4.591,3.59
24.004,24.318,10.29,9.044,6.912,4.301,-2.565,1.92
26.204,24.862,12.786,11.921,8.998,6.982,0.478,4.17
24.146,20.615,8.363,8.38,4.753,3.622,-3.707,1.715
19.242,13.853,1.398,0.175,-1.806,-4.431,-9.864,-4.764
18.508,12.857,1.109,-1.942,-1.867,-6.123,-7.599,-5.343
22.929,18.083,6.85,4.705,3.854,1.433,1.241,2.529
26.034,21.541,10.559,10.978,7.575,8.538,6.18,9.618
23.906,18.983,9.453,10.107,6.824,8,4.839,9.139
17.505,11.448,4.404,3.01,2.313,0.972,0.238,2.321
10.731,2.467,-3.566,-5.636,-5.314,-7.496,-7.334,-6.043
11.151,-0.071,-7.53,-7.89,-9.001,-9.227,-12.439,-8.173
22.249,8.8,-0.907,0.969,-1.859,0.533,-5.964,0.569
34.531,20.914,9.039,12.55,8.597,13.077,7.259,11.916
36.079,23.515,9.876,13.794,9.668,14.901,11.362,13.232
29.803,17.017,3.738,5.942,4.049,7.128,5.352,6.287
27.257,12.013,2.294,0.592,3.764,1.622,4.095,2.576
29.144,10.786,5.815,-0.856,7.978,-0.048,8.695,2.539
26.67,6.567,4.242,-6.392,5.669,-5.995,3.675,-2.829
18.983,-1.244,-3.709,-15.79,-3.39,-15.987,-11.653,-13.636
14.867,-4.907,-8.668,-20.24,-8.553,-21.033,-20.49,-20.471
17.81,-0.969,-6.742,-16.961,-6.478,-18.261,-18.146,-19.517
21.619,4.702,-3.454,-12.085,-3.559,-13.703,-14.601,-16.422
21.052,5.929,-2.874,-10.538,-3.378,-12.208,-13.616,-16.023
17.759,3.496,-3.89,-11.315,-3.93,-12.799,-12.007,-16.785
16.128,1.425,-4.568,-11.731,-3.537,-12.828,-10.42,-15.798
17.342,0.544,-4.362,-11.593,-2.906,-12.418,-11.514,-14.262
18.235,-1.131,-4.11,-12.482,-3.288,-13.642,-13.342,-15.153
16.764,-3.468,-4.477,-14.035,-4.253,-15.886,-11.513,-17.223
15.431,-3.659,-4.963,-13.645,-4.517,-15.595,-7.886,-16.633
16.752,-0.472,-5.423,-10.463,-4.479,-11.634,-9.478,-13.309
18.966,3.167,-6.858,-7.452,-5.762,-7.735,-16.175,-11.079
18.583,2.763,-10.17,-8.324,-9.28,-8.181,-20.947,-12.9
16.175,-1.409,-13.521,-11.875,-13.083,-11.562,-21.322,-16.753
16.063,-3.86,-13.153,-12.672,-13.306,-12.334,-19.837,-17.629
19.608,-1.658,-8.956,-8.928,-9.606,-9.046,-17.971,-14.586
24.883,3.534,-3.648,-3.083,-4.421,-4.184,-14.516,-10.091
31.084,9.797,1.95,3.381,1.45,1.377,-8.153,-4.823
36.361,14.513,5.871,7.825,5.634,5.6,-2.259,-0.802
36.647,13.644,4.103,5.908,3.756,3.874,-2.341,-2.52
31.576,6.971,-2.284,-1.179,-3.008,-3.321,-7.966,-9.224
26.477,0.903,-6.609,-6.061,-7.671,-8.567,-13.764,-13.764
27.654,2.908,-3.295,-2.726,-4.514,-5.362,-13.437,-9.911
36.392,13.055,7.168,7.622,6.037,5.113,-3.598,1.481
45.032,21.462,16.522,15.773,15.611,13.332,7.361,10.359
44.031,18.622,16.176,13.43,15.26,10.61,6.788,7.012
35.228,8.33,8.132,3.876,6.984,0.289,-3.174,-4.358
30.339,3.053,2.384,-2.419,1.178,-6.4,-10.695,-10.994
35.355,7.955,4.493,-0.492,3.398,-4.293,-10.562,-8.463
43.999,16.353,10.565,5.669,9.491,1.882,-5.073,-2.797
48.452,19.949,14.248,9.923,13.239,5.86,1.204,1.142
47.404,17.032,12.683,8.987,12.03,5.138,3.426,2.44
41.694,9.994,5.01,1.858,4.925,-1.296,-1.77,-2.08
34.013,3.252,-5.688,-7.998,-5.363,-10.92,-11.865,-12.643
31.819,3.607,-10.299,-11.493,-10.076,-14.704,-17.067,-18.745
37.868,11.812,-4.786,-4.972,-5.013,-8.168,-11.591,-12.429
42.303,16.909,1.077,1.271,0.612,-1.424,-4.126,-3.264
35.979,10.313,-2.452,-3.099,-2.766,-5.307,-6.086,-4.79
24.519,-1.417,-10.493,-13.152,-10.687,-15.216,-14.302,-14.317
19.574,-6.332,-12.784,-17.495,-13.352,-19.515,-16.979,-19.171
23.953,-1.431,-8.011,-13.437,-9.188,-15.218,-12.073,-15.339
30.916,6.398,-2.131,-7.19,-3.335,-8.915,-8.311,-9.985
32.557,8.89,-0.071,-5.493,-0.718,-7.665,-10.681,-9.969
27.668,5.249,-2.016,-8.851,-2.455,-11.541,-15.091,-14.289
23.065,1.963,-3.541,-11.199,-4.418,-14.028,-15.122,-16.15
24.403,3.235,-0.665,-8.219,-2.044,-10.699,-8.722,-11.629
28.024,5.415,4.002,-4.174,2.479,-6.033,-0.406,-5.908
27.337,3.098,5.015,-5.306,3.816,-6.888,3.201,-5.998
22.86,-2.332,2.464,-10.083,1.852,-11.949,-0.282,-10.225
20.211,-4.535,0.56,-12.697,0.086,-14.865,-7.648,-12.59
21.632,-1.537,0.987,-11.808,-0.028,-13.902,-12.758,-12.19
24.152,2.318,2.253,-9.902,0.862,-11.835,-12.301,-11.573
24.663,3.172,2.309,-8.737,1.321,-10.882,-10.035,-11.767
23.012,1.189,-0.245,-9.249,-0.438,-11.885,-11.57,-12.772
20.23,-1.921,-4.906,-11.682,-4.483,-14.61,-15.766,-14.419
16.189,-5.543,-9.589,-14.811,-9.017,-17.908,-17.801,-16.415
9.831,-10.454,-13.94,-18.444,-13.588,-21.879,-18.979,-19.817
3.652,-14.935,-17.62,-22.146,-17.276,-25.644,-21.953,-23.704
4.278,-13.37,-16.422,-21.301,-15.586,-24.305,-21.144,-22.454
11.601,-5.719,-9.64,-14.623,-8.262,-17.215,-13.316,-15.421
16.674,0.063,-4.002,-8.861,-2.431,-11.378,-6.107,-10.09
15.939,0.559,-2.668,-7.863,-1.224,-10.044,-5.021,-9.628
14.521,-0.48,-1.72,-8.288,-0.603,-9.644,-6.364,-9.61
15.92,-1.186,1.537,-7.026,2.507,-7.659,-4.875,-6.609
18.101,-2.54,5.099,-4.801,6.575,-5.629,-0.382,-2.988
17.299,-4.052,5.075,-4.717,7.339,-6.517,1.502,-3.666
12.208,-5.531,-0.464,-9.404,1.801,-11.772,-4.075,-10.089
5.066,-8.736,-9.24,-17.557,-8.045,-19.81,-14.626,-19.218
-0.679,-13.214,-15.986,-23.629,-15.814,-25.934,-22.138,-25.672
-1.7,-14.772,-15.599,-22.383,-15.452,-25.145,-19.743,-24.15
4.02,-10.128,-7.472,-14.14,-6.926,-17.43,-10.081,-15.148
12.163,-2.843,1.167,-6.186,1.522,-9.928,-4.888,-7.65
15.154,-0.205,3.024,-4.865,2.67,-8.801,-7.982,-8.189
13.167,-2.358,0.869,-7.126,0.002,-10.941,-10.734,-11.405
10.027,-5.172,-0.988,-8.962,-1.889,-12.623,-10.279,-11.746
4.081,-10.105,-5.802,-13.884,-6.393,-17.595,-12.071,-13.425
-4.723,-17.973,-14.861,-22.976,-14.917,-26.9,-16.524,-19.725
-10.904,-23.708,-22.767,-29.768,-22.154,-33.772,-19.654,-25.942
-13.106,-25.955,-27.185,-31.458,-26.052,-35.174,-21.068,-28.149
-15.291,-28.894,-30.989,-33.159,-29.858,-36.454,-23.624,-29.283
-16.781,-32.072,-33.5,-36.998,-32.834,-40.089,-26.64,-31.916
-11.98,-29.486,-29.74,-36.595,-29.53,-39.614,-24.186,-31.19
-0.535,-18.985,-19.315,-27.373,-19.45,-30.298,-14.563,-22.63
10.179,-6.741,-9.56,-15.977,-10.26,-18.878,-6.597,-12.711
13.33,-1.3,-7.753,-12.642,-9.178,-15.519,-8.962,-11.358
9.845,-4.035,-12.216,-17.295,-13.873,-19.973,-17.011,-17.424
5.892,-8.716,-15.507,-21.707,-16.601,-24.174,-20.559,-22.648
4.951,-10.032,-14.628,-22.091,-15.128,-24.593,-19.213,-23.905
6.447,-7.256,-11.152,-20.088,-11.861,-22.707,-17.844,-22.216
10.117,-1.553,-5.488,-15.849,-6.811,-18.421,-15.378,-17.644
15.727,4.626,1.563,-8.775,0.098,-11.332,-8.566,-10.799
19.774,6.911,5.568,-2.829,4.334,-5.447,-0.855,-5.353
19.056,3.899,3.836,-2.73,2.466,-5.076,1.201,-4.76
15.552,0.193,-0.247,-6.326,-2.105,-8.145,-2.471,-7.395
11.781,-1.83,-4.472,-9.929,-6.444,-11.391,-9.053,-10.77
7.846,-4.87,-10.562,-14.388,-12.12,-15.522,-18.608,-15.447
5.642,-8.103,-16.512,-18.944,-17.641,-19.866,-27.336,-19.997
8.157,-6.826,-16.928,-19.07,-17.906,-20.598,-27.222,-20.094
15.602,0.584,-10.125,-12.403,-11.208,-15.067,-16.076,-13.426
22.978,8.598,-1.537,-3.928,-2.842,-7.003,-2.657,-5.035
22.73,8.459,0.392,-2.743,-0.901,-5.272,0.286,-4.597
16.627,2.338,-3.113,-7.654,-3.958,-9.595,-6.057,-10.034
14.788,1.349,-2.475,-8.081,-2.837,-10.048,-8.426,-9.184
17.873,5.524,2.325,-3.705,1.988,-6.001,-5.554,-2.95
17.921,6.563,3.412,-2.658,2.831,-4.934,-5.248,-1.618
14.438,4.758,1.343,-4.381,0.703,-6.445,-5.047,-3.605
13.019,5.079,2.564,-3.06,1.975,-5.24,0.096,-1.019
13.766,6.314,6.336,-0.422,5.66,-2.858,4.354,3.145
12.423,4.768,6.555,-2.153,5.759,-4.807,1.114,0.181
9.694,2.483,3.796,-5.959,2.888,-9.182,-4.428,-7.463
10.628,4.728,4.814,-3.912,3.533,-8.026,-4.036,-8.896
15.445,11.124,10.74,4.525,8.906,-0.124,1.439,-2.02
19.269,15.722,15.825,11.92,13.872,7.417,6.53,5.029
19.679,15.315,16.853,13.836,15.268,9.798,8.456,6.895
17.795,12.011,15.991,12.162,14.597,8.605,7.415,5.654
14.288,8.335,14.836,9.292,13.361,6.254,5.239,4.174
9.213,4.64,11.685,5.361,10.248,2.677,3.006,1.512
4.274,1.592,5.851,0.988,4.517,-1.721,-0.242,-3.342
2.575,1.38,0.498,-1.468,-0.689,-4.231,-4.744,-7.233
7.07,5.985,0.653,0.673,-0.091,-1.844,-6.543,-5.455
17.585,14.857,7.95,7.905,7.641,5.724,-1.054,2.199
27.4,22.602,16.389,15.719,16.017,13.685,8.504,9.932
28.456,22.291,18.467,17.695,17.74,15.632,13.488,11.817
21.289,13.963,14.128,12.753,13.051,10.727,10.586,7.414
13.377,4.791,8.729,5.859,7.223,4.008,4.087,1.113
8.991,0.229,6.383,2.092,4.652,0.284,0.126,-2.23
7.177,0.757,6.518,1.484,5.096,-0.453,0.144,-2.469
8.7,6.077,6.538,1.443,5.35,-0.52,1.077,-2.705
16.295,15.725,7.782,2.949,6.15,1.034,2.495,-1.885
26.005,25.105,12.088,7.179,9.832,5.101,5.51,2.152
29.602,28.674,16.141,10.64,13.69,8.109,7.705,5.774
27.354,28.129,17.371,11.491,15.01,8.623,8.13,6.102
26.498,29.189,18.371,12.927,16.139,10.327,10.504,6.735
29.287,32.815,21.589,17.124,19.537,15.191,16.836,11.005
32.53,36.648,25.304,22.227,23.35,20.759,22.607,16.468
34.805,39.422,26.035,24.944,23.534,23.581,20.333,18.089
37.789,41.521,24.644,25.445,20.739,24.106,11.141,16.107
42.608,45.031,27.318,29.116,22.271,27.695,8.86,18.034
47.108,49.824,34.181,36.426,29.474,34.418,19.572,25.764
47.685,51.103,34.866,37.674,31.443,34.994,27.676,28.916
44.696,47.274,25.996,29.639,23.495,27.296,21.623,22.5
41.673,42.922,17.96,22.064,15.86,20.786,12.231,15.152
38.805,40.267,16.076,19.67,14.178,18.791,8.632,12.13
34.655,37.721,15.127,18.02,12.972,16.863,6.31,10.646
31.876,35.575,14.131,16.45,11.407,15.289,5.559,10.984
33.61,35.596,17.121,17.849,14.259,16.707,11.306,14.891
36.668,36.299,21.428,19.679,18.982,17.874,17.495,18.081
34.033,32.575,19.892,16.249,17.99,13.72,14.711,15.196
24.61,23.017,13.122,8.514,11.651,6.339,7.031,8.885
15.68,14.235,9.069,3.829,7.923,2.876,5.919,6.462
13.223,12.51,10.953,5.277,10.136,5.185,12.704,9.444
14.493,14.905,13.976,8.299,13.535,8.37,18.248,13.215
13.08,13.755,13.535,8.238,13.577,8.518,16.863,14.253
6.493,6.774,9.144,4.667,9.9,5.555,11.143,11.751
-2.998,-1.388,2.011,-0.559,3.366,0.929,5.133,6.283
-10.565,-5.903,-4.444,-4.223,-3.214,-2.515,1.202,1.491
-12.596,-7.238,-5.835,-3.585,-5.218,-1.974,1.316,1.928
-10.474,-8.618,-2.944,0.057,-2.665,1.523,4.578,6.646
-8.975,-10.668,-0.929,2.914,-0.738,4.211,6.376,10.035
-11.003,-12.316,-1.928,3.245,-2.007,4.08,4.598,8.964
-14.438,-13.203,-3.66,2.662,-3.745,2.89,2.783,6.096
-14.975,-12.784,-4.301,3.474,-3.461,3.809,4.093,6.38
-12.285,-11.208,-5.17,4.94,-3.153,6.298,6.548,10.01
-9.748,-10.074,-7.617,4.821,-5.303,6.931,6.37,11.927
-9.172,-10.409,-9.896,3.268,-7.901,5.216,3.77,9.707
-10.275,-12.012,-10.36,1.105,-8.412,3.034,2.508,6.158
-11.196,-12.581,-9.335,-0.804,-7.223,2.118,3.355,4.799
-7.721,-7.671,-5.14,0.974,-3.107,5.282,4.679,7.642
0.668,2.111,3.408,7.343,5.374,12.503,7.766,13.601
6.643,8.234,10.799,11.666,12.971,16.999,11.97,17.207
5.037,6.226,11.576,9.127,13.663,14.335,13.157,15.063
1.503,2.83,9.904,5.335,11.412,10.439,13.518,12.037
4.061,5.442,12.953,7.535,14.147,12.482,18.667,14.049
10.838,11.616,18.991,13.684,20.394,18.124,24.642,18.84
13.507,13.95,20.695,16.805,22.22,20.5,23.247,20.246
10.311,11.67,17.014,15.413,18.299,18.39,15.757,16.512
6.562,10.342,13.339,13.676,14.359,15.833,9.539,10.781
4.315,10.999,12.471,13.812,13.463,15.046,7.364,7.324
1.288,8.785,11.749,13.19,12.938,13.765,5.928,6.019
-1.75,3.315,9.022,9.841,10.53,10.193,2.612,2.828
-1.922,-0.144,6.459,6.385,8.182,6.907,0.168,-1.331
-2.424,-1.671,4.256,3.945,6.023,4.807,-0.277,-3.186
-8.441,-5.65,-1.498,-0.694,0.415,0.291,-4.238,-6.052
-14.845,-9.105,-9.108,-6.424,-7.027,-5.478,-11.876,-11.57
-11.313,-5.403,-10.194,-5.97,-8.217,-4.853,-12.123,-11.641
1.986,4.421,-1.896,3.351,-0.061,4.797,-0.492,-0.956
13.856,13.066,7.739,13.999,9.613,15.717,10.104,11.832
15.163,14.997,9.2,16.062,10.997,17.974,7.412,14.193
8.722,11.552,3.656,9.369,5.168,11.195,-2.578,6.491
4.395,8.581,0.185,3.505,1.64,4.799,-6.841,0.615
5.348,8.096,1.621,3.315,3.188,3.986,-4.798,1.619
6.58,7.229,2.977,3.519,4.127,3.79,-3.965,2.487
5.965,5.511,3.346,1.618,3.635,1.677,-3.818,0.176
6.15,5.468,6.825,2.301,6.841,2.524,1.127,0.699
6.669,6.493,11.893,5.776,12.546,6.706,7.45,4.981
4.727,5.871,12.575,6.638,13.835,8.403,7.533,6.761
1.596,3.923,8.724,4.189,9.866,6.388,3.282,4.652
0.231,2.261,5.336,2.549,6.181,4.575,2.15,2.926
0.723,1.584,5.402,3.947,6.339,5.402,5.531,3.84
1.596,2.531,8.034,7.117,8.968,8.21,9.053,5.96
1.117,3.508,9.892,8.944,10.393,10.133,9.673,6.708
-1.835,1.21,8.572,7.296,8.948,8.573,8.297,4.973
-5.23,-3.401,6.002,3.9,6.864,5.048,7.108,2.602
-6.214,-5.618,5.186,2.485,6.39,3.617,7.183,2.344
-5.689,-3.706,5.433,4.373,6.536,5.59,8.244,4.423
-5.03,0.545,5.156,8.18,5.982,9.238,8.518,7.105
-3.395,4.139,4.55,11.32,4.919,12.131,6.241,8.839
-1.965,3.749,3.124,11.415,3.172,12.459,3.163,8.931
-3.515,-0.258,0.014,8.6,0.265,10.214,2.417,7.721
-7.401,-3.377,-3.363,5.056,-2.668,6.809,3.102,5.874
-9.702,-2.886,-3.928,3.105,-2.82,4.681,3.598,4.746
-7.761,0.231,-0.663,3.904,0.745,5.75,5.16,5.667
-3.424,3.312,3.092,5.238,4.333,7.738,7.371,6.744
-0.791,3.942,3.867,3.845,4.3,6.773,7.347,5.263
-1.547,1.999,2.638,0.581,2.146,3.492,4.248,2.633
-5.929,-1.941,0.907,-2.301,0.248,0.173,0.175,0.926
-13.73,-7.582,-1.983,-4.977,-1.807,-3.256,-2.153,-0.809
-20.558,-11.698,-4.338,-6.698,-3.187,-5.629,-1.819,-2.461
-20.836,-10.868,-2.814,-5.407,-1.505,-4.536,-0.202,-1.929
-15.691,-7.336,1.699,-1.917,2.488,-0.905,1.485,0.458
-12.571,-6.801,3.918,-0.421,4.266,0.781,2.422,1.135
-15.892,-10.914,1.067,-3.3,1.16,-2.199,0.82,-2.046
-19.534,-13.615,-1.626,-5.517,-1.898,-5.017,-2.029,-5.159
-15.51,-9.076,2.069,-0.762,1.626,-0.922,-0.514,-2.478
-8.124,-2.005,8.613,7.07,8.639,6.659,6.241,4.186
-7.049,-0.925,10.068,9.239,10.867,8.776,11.093,7.691
-10.512,-3.511,7.463,7.173,8.634,6.71,10.707,7.435
-9.454,-1.202,7.954,9.277,8.917,9.023,10.658,9.264
-3.992,4.666,10.756,14.781,11.355,14.797,12.365,13.162
-2.202,6.099,8.538,14.953,9.133,15.165,8.66,12.371
-6.195,2.327,0.728,7.748,1.704,8.136,-1.795,4.416
-10.213,-1.447,-5.84,-0.01,-4.597,0.2,-8.715,-4.56
-9.884,-1.433,-6.39,-1.671,-5.284,-2.07,-4.464,-6.05
-6.68,2.601,-2.241,2.6,-1.273,2.094,3.874,0.659
-4.455,6.446,2.046,6.684,3.285,6.936,5.664,7.077
-5.36,5.038,3.484,5.96,5.104,6.723,2.777,6.795
-9.203,-1.544,2.444,1.795,4.204,2.194,2.251,2.154
-15.199,-9.571,-0.311,-2.805,1.635,-3.03,3.308,-2.406
-21.513,-15.817,-4.392,-6.706,-2.091,-7.393,2.465,-5.763
-23.32,-17.205,-6.809,-8.038,-4.613,-9.049,0.678,-7.014
-17.857,-12.466,-5.119,-5.163,-3.689,-6.116,-0.826,-4.959
-9.881,-5.264,-1.706,-0.237,-0.91,-0.606,-2.311,-1.032
-5.701,-0.601,0.514,3.305,1.217,3.563,-2.428,1.963
-6.705,-0.512,0.234,3.043,0.833,3.544,-1.533,1.436
-10.967,-4.466,-3.633,-1.787,-3.398,-1.268,-2.787,-3.177
-14.923,-8.893,-8.112,-6.745,-7.964,-6.127,-4.839,-7.082
-15.306,-9.36,-7.828,-6.072,-7.138,-4.95,-2.891,-5.311
-13.283,-7.287,-4.151,-2.223,-2.738,-0.257,1.344,-1.448
-12.752,-7.785,-3.724,-1.771,-2.154,0.516,1.111,-1.874
-13.516,-9.765,-7.494,-3.729,-6.403,-1.956,-3.488,-4.07
-11.708,-7.691,-9.705,-2.639,-9.115,-1.178,-5.092,-1.563
-7.003,-1.933,-7.832,0.645,-7.592,2.469,-1.628,3.133
-3.092,2.392,-5.42,1.435,-5.616,3.338,1.5,2.952
-2.268,3.61,-4.485,0.276,-5.025,1.607,2.116,-0.446
-4.564,2.976,-3.113,0.776,-3.776,1.675,2.429,-0.971
-9.569,-0.228,-2.126,1.103,-2.84,1.922,0.798,-0.828
-15.717,-7.355,-6.215,-4.213,-6.758,-3.369,-6.602,-6.14
-20.148,-16.004,-14.846,-13.708,-15.09,-12.441,-16.818,-14.513
-21.691,-22.008,-20.335,-19.041,-20.735,-17.041,-21.762,-18.272
-21.059,-23.652,-17.867,-16.074,-18.886,-13.668,-17.657,-15.044
-16.347,-18.948,-8.282,-6.187,-9.89,-3.689,-6.449,-5.82
-6.161,-6.974,5.432,7.951,3.34,10.549,6.864,8.229
1.287,3.202,15.238,18.338,12.898,20.958,14.393,19.427
-3.92,-0.42,11.924,15.149,10.21,17.658,11.061,17.333
-17.394,-15.258,-1.841,0.553,-2.211,3.063,1.107,3.513
-27.519,-28.358,-13.467,-12.509,-13.129,-9.54,-6.812,-9.179
-32.081,-33.937,-16.425,-16.483,-16.473,-12.655,-7.986,-12.391
-35.546,-35.967,-14.998,-15.622,-15.336,-11.255,-3.743,-9.251
-39.519,-39.116,-15.844,-17.532,-15.599,-13.326,-1.218,-7.897
-43.951,-44.501,-21.321,-24.521,-20.284,-20.629,-6.478,-12.317
-49.485,-50.657,-28.431,-32.495,-26.964,-28.688,-12.803,-18.133
-54.625,-54.406,-32.585,-35.968,-30.789,-32.299,-10.656,-19.134
-55.04,-52.592,-32.41,-33.385,-30.416,-30.014,-6.816,-15.806
-49.122,-45.503,-29.567,-27.056,-27.782,-23.955,-10.679,-11.879
-42.369,-38.194,-26.784,-21.304,-25.274,-18.41,-15.615,-8.973
-40.115,-35.069,-26.108,-19.612,-24.739,-16.854,-14.661,-8.191
-39.59,-34.174,-26.731,-20.477,-25.727,-17.69,-13.381,-9.577
-36.115,-31.301,-25.905,-19.341,-25.376,-16.453,-14.569,-9.912
-30.691,-26.642,-22.208,-14.861,-21.848,-12.086,-11.976,-6.517
-26.962,-23.274,-17.498,-10.026,-17.085,-7.64,-5.003,-1.924
-25.541,-21.94,-14.401,-7.288,-14.021,-5.569,-1.424,-0.101
-24.211,-20.649,-12.393,-5.568,-12.191,-4.969,-4.215,-0.439
-21.712,-17.63,-9.255,-2.588,-9.168,-3.126,-7.043,1.145
-19.067,-13.402,-5.206,1.681,-5.238,0.827,-4.081,6.39
-18.797,-11.547,-3.698,3.871,-4.118,3.356,0.256,10.516
-20.867,-13.323,-5.872,2.398,-6.68,2.081,-1.031,8.927
-18.47,-11.513,-4.915,3.654,-5.874,3.262,-2.295,8.345
-7.042,-0.15,5.178,13.75,3.981,13.27,6.983,17.687
4.919,13.18,17.254,26.277,15.668,25.796,21.471,30.172
7.733,18.479,21.118,31.552,19.329,31.081,26.523,33.571
5.341,18.518,18.946,31.3,17.23,30.584,21.321,30.231
4.732,18.903,16.751,30.298,15.23,29.201,15.599,27.775
3.809,16.753,13.849,26.708,12.495,25.711,12.443,24.864
1.041,11.735,10.573,21.385,9.329,20.963,10.781,20.433
2.657,11.831,11.439,20.761,10.434,20.714,12.403,19.608
10.648,18.944,15.924,25.179,15.246,25.053,16.533,22.896
15.595,23.169,17.192,26.935,16.393,26.635,17.233,23.371
10.855,18.314,12.854,22.161,11.357,21.891,12.176,17.823
3.528,11.746,8.636,15.809,6.59,15.525,7.275,10.963
2.804,12.203,8.434,13.024,6.594,12.41,6.891,7.599
7.017,16.784,8.891,12.743,7.741,11.741,6.817,6.893
8.176,16.339,5.703,10.472,4.985,9.261,2.033,3.926
3.511,8.876,-0.37,3.96,-1.237,2.55,-5.944,-3.838
-1.829,1.96,-4.625,-3.01,-5.708,-4.824,-11.415,-11.604
-2.211,2.529,-3.567,-4.024,-4.359,-6.288,-10.244,-12.197
2.349,9.025,1.895,1.794,1.658,-0.521,-4.166,-4.996
7.135,14.519,7.445,8.497,7.381,6.507,0.782,3.401
7.787,14.522,9.045,10.496,8.563,8.678,1.45,6.768
4.833,10.443,6.945,8.297,5.822,6.484,0.675,5.526
2.617,7.12,5.667,7.156,4.055,5.458,3.027,4.912
3.551,7.599,8.111,10.118,6.074,8.25,8.785,7.454
4.834,9.53,10.457,13.249,8.071,10.762,11.766,9.349
3.37,9.345,7.611,11.996,5.381,9.309,6.489,7.032
2.546,9.307,3.018,9.702,1.367,7.658,-1.438,4.424
6.705,12.99,3.996,11.906,2.562,10.569,-1.03,7.18
10.557,16.228,8.24,15.736,6.374,14.64,6.343,12.219
5.876,12.878,7.52,14.714,5.079,13.7,8.934,12.024
-4.494,5.054,1.866,9.699,-0.914,8.703,3.349,6.287
-11.125,-0.886,-1.455,6.824,-4.41,5.423,-2.833,1.309
-10.029,-1.512,2.275,10.028,-0.808,7.859,-1.747,2.837
-4.139,2.79,9.776,16.729,6.648,14.196,5.958,9.952
0.247,7.578,11.699,18.721,8.685,16.729,10.086,13.93
-0.567,8.567,5.889,14.094,3.176,13.002,6.286,11.353
-3.851,7.27,1.507,11.046,-0.886,10.407,3.393,9.809
-6.162,6.878,2.731,12.455,0.448,11.813,5.506,11.456
-8.594,6.711,3.091,11.727,1.067,11.168,5.926,9.238
-13.011,5.462,-1.158,6.68,-2.388,6.319,2.111,2.535
-17.355,4.668,-5.629,2.557,-6.238,2.21,-1.069,-1.83
-18.365,5.704,-5.891,2.456,-6.782,2.394,-0.309,-1.083
-17.438,6.618,-3.711,3.656,-5.237,4.57,1.845,1.297
-19.122,4.006,-4.622,1.127,-6.294,2.937,-1.532,-0.417
-23.046,-1.156,-9.329,-5.299,-10.594,-3.619,-11.269,-7.023
-22.755,-1.514,-10.519,-7.541,-11.34,-6.684,-14.619,-9.415
-16.295,5.876,-4.706,-1.505,-5.397,-0.899,-3.629,-1.532
-12.164,11.192,-0.351,3.396,-0.934,4.7,8.455,6.891
-17.322,5.798,-4.693,-1.167,-4.983,0.767,6.78,5.101
-25.59,-3.642,-12.049,-8.925,-12.277,-7.117,-3.922,-1.894
-27.554,-6.316,-13.927,-10.175,-14.421,-8.744,-10.646,-3.931
-24.12,-2.303,-11.038,-5.506,-11.797,-3.992,-10.4,-0.757
-20.39,2.343,-8.029,-0.604,-9.047,1.443,-7.576,2.946
-16.235,5.509,-4.949,3.452,-6.226,5.808,-2.873,7.042
-11.016,7.567,-0.125,8.2,-1.384,10.327,5.587,13.094
-7.779,7.922,4.245,12.176,3.332,14.19,13.65,18.233
-9.093,6.071,3.515,11.516,3.03,13.985,12.345,16.77
-12.971,3.062,-1.926,6.202,-2.124,8.967,1.528,8.953
-13.943,1.891,-4.234,3.05,-4.341,5.239,-5.491,4.092
-10.518,3.891,0.314,6.113,0.249,7.342,-0.208,7.654
-7.741,5.519,4.531,9.51,4.696,10.161,7.988,12.608
-8.959,4.006,2.472,7.763,3.056,8.189,7.215,11.774
-11.571,2.302,-1.558,4.764,-0.775,4.946,0.619,8.479
-11.785,3.549,-0.657,6.824,-0.236,6.76,-0.063,9.928
-9.625,5.328,4.776,12.954,4.604,12.805,7.544,16.337
-8.956,3.064,7.525,15.396,7.041,15.133,12.395,19.371
-11.865,-2.43,3.525,10.297,2.92,9.742,6.043,13.423
-14.92,-4.635,-2.093,4.435,-2.963,3.879,-4.032,5.43
-13.622,-0.296,-2.328,5.792,-3.407,6.086,-4.628,5.548
-8.228,6.324,2.441,12.104,1.635,13.802,4.494,12.18
-2.204,10.892,6.966,16.255,6.675,19.009,12.952,16.935
2.234,13.624,8.595,16.667,8.638,19.883,16.172,18.351
2.389,13.454,6.652,14.172,7.227,17.838,15.244,17.963
-3.478,8.253,1.299,7.781,2.924,11.965,9.906,13.062
-9.549,2.201,-3.218,-0.319,-0.643,3.899,3.081,4.285
-9.658,0.695,-3.613,-5.824,-0.672,-2.007,-0.512,-2.487
-7.287,1.177,-3.327,-8.53,-0.357,-5.099,-1.683,-5.167
-6.759,-0.364,-4.922,-9.607,-2.131,-6.618,-2.767,-5.421
-4.326,0.242,-4.031,-6.781,-1.722,-4.495,-1.185,-2.791
2.045,7.018,1.219,-0.08,3.186,1.625,4.144,1.759
5.721,13.384,4.275,3.714,6.582,5.272,6.731,2.62
3.395,12.974,1.916,1.389,4.916,2.479,3.287,-1.484
0.896,9.437,-0.657,-1.809,2.521,-2.085,-0.587,-4.888
1.722,7.537,-0.985,-2.447,1.611,-3.693,-1.445,-5.033
3.02,7.583,-1.373,-1.643,0.435,-2.206,-1.383,-3.691
3.214,8.75,-1.102,0.712,0.217,1.279,-1.453,-1.201
3.409,9.629,1.722,4.553,2.936,5.021,-0.585,2.009
3.493,8.746,4.504,6.917,5.882,6.478,1.199,3.601
2.427,6.42,3.73,5.588,5.253,4.767,2.315,2.678
0.003,3.974,0.167,1.916,1.474,1.581,1.643,0.764
-2.603,2.627,-3.003,-0.94,-2.256,-0.495,-0.513,-0.377
-4.211,2.206,-4.751,-2.13,-4.462,-1.079,-3.393,-0.871
-6.572,-0.341,-7.429,-5.035,-7.261,-3.515,-7.64,-3.787
-11.108,-6.165,-11.712,-10.587,-11.413,-8.688,-12.901,-9.632
-12.986,-8.883,-11.813,-11.594,-11.016,-9.518,-12.022,-10.923
-7.253,-2.698,-3.051,-3.003,-1.374,-1.013,1.13,-2.181
-0.185,4.776,6.182,5.45,8.45,7.141,14.191,6.682
-2.99,1.088,2.627,0.288,4.666,1.652,8.408,1.469
-14.375,-11.173,-11.182,-14.481,-9.447,-13.409,-10.44,-13.665
-22.169,-18.607,-19.979,-22.899,-17.806,-22.259,-21.245,-21.973
-19.269,-15.139,-15.761,-17.932,-13.102,-17.606,-16.666,-16.314
-8.861,-5.214,-3.378,-5.35,-1.098,-4.482,-2.76,-2.29
1.062,3.147,7.099,4.817,8.578,7.058,10.876,10.25
5.54,5.748,9.957,6.707,11.054,10.026,16.12,14.094
4.901,3.699,6.627,1.182,7.778,4.578,12.159,8.582
0.305,-1.498,0.069,-8.119,1.358,-5.048,3.335,-2.191
-6.362,-7.239,-6.993,-16.402,-5.471,-13.235,-5.004,-11.694
-10.724,-8.819,-10.767,-19.049,-8.71,-15.472,-7.648,-14.177
-10.151,-5.604,-9.254,-15.952,-6.645,-12.161,-2.658,-9.735
-6.384,-1.51,-4.03,-10.589,-1.435,-6.799,8.068,-2.618
-2.845,0.644,0.606,-6.122,2.656,-2.633,17.221,2.445
-3.235,-0.56,-0.688,-5.798,0.778,-3.018,12.603,0.325
-9.373,-5.838,-8.397,-11.232,-7.219,-8.849,-5.376,-9.075
-17.198,-12.561,-15.515,-18.305,-14.188,-15.773,-17.783,-17.563
-20.455,-16.283,-16.475,-21.328,-14.827,-19.181,-14.993,-19.273
-18.011,-15.613,-13.677,-20.074,-12.109,-19.201,-9.105,-17.908
-11.876,-11.147,-10.423,-16.537,-9.435,-16.735,-8.653,-16.967
-2.757,-2.269,-5.027,-9.597,-4.615,-9.831,-6.317,-12.389
6.196,8.504,1.533,-0.651,1.716,-0.292,0.438,-3.54
8.61,13.818,2.347,3.111,2.441,3.812,1.511,0.701
4.683,11.614,-2.837,-0.408,-2.808,0.08,-4.75,-2.977
4.444,10.486,-3.329,-2.303,-3.252,-2.199,-5.522,-4.568
16.906,20.913,8.652,7.118,8.548,7.199,7.651,5.962
39.021,42.901,27.779,26.236,26.956,26.83,28.689,26.126
55.298,61.167,39.567,40.676,37.889,41.817,41.802,40.999
53.438,60.459,34.658,37.982,32.734,39.141,36.591,38.254
40.624,46.687,20.184,23.615,19.067,24.542,22.803,24.223
32.331,36.807,9.827,12.033,10.1,13.013,16.206,13.604
30.802,34.128,6.164,7.246,7.147,8.494,14.309,8.968
29.421,31.873,3.702,4.786,4.216,6.209,7.714,5.352
28.31,29.732,2.051,4.135,1.865,5.525,2.309,4.222
31.528,31.368,4.215,7.045,3.919,8.033,7.355,8.164
38.02,35.736,9.237,11.639,9.022,11.747,17.22,13.306
45.121,41.11,15.27,16.769,14.616,15.939,22.13,17.321
52.508,48.286,21.91,23.335,20.418,22.12,22.15,22.389
58.205,54.371,26.406,28.111,24.468,26.971,21.759,26.634
59.374,54.063,26.358,26.861,24.613,25.472,22.509,25.561
56.936,48.181,23.946,21.774,22.483,19.366,22.821,20.177
53.045,41.483,21.163,17.035,19.714,13.513,19.291,14.39
49.311,36.9,18.101,14.019,16.651,10.407,12.37,10.572
48.93,36.468,17.337,14.609,16.097,11.968,9.363,11.304
52.931,40.159,20.966,19.781,19.725,17.848,14.373,16.826
57.745,44.792,26.12,25.809,24.196,23.321,21.276,21.729
60.084,46.983,28.334,27.489,25.691,23.917,22.394,20.832
59.15,44.679,26.114,23.258,23.589,19.213,17.962,15.451
55.864,39.358,22.157,17.053,20.081,12.943,13.937,10.98
52.572,35.816,20.019,14.151,17.798,9.764,13.36,10.203
50.363,35.393,19.288,14.474,16.393,9.748,12.927,10.576
48.115,34.235,17.568,14.234,14.002,9.303,9.202,8.785
45.551,30.377,15.102,12.368,11.344,7.322,4.555,5.919
44.116,27.675,13.983,11.443,10.687,6.703,3.903,6.063
44.541,29.85,15.278,13.594,12.515,9.704,7.878,10.284
44.71,32.818,17.373,16.28,14.665,13.008,11.993,13.383
42.214,30.202,17.57,15.412,14.746,11.73,12.538,10.389
39.288,24.532,15.787,12.328,12.903,7.589,9.243,4.069
39.196,22.483,13.788,10.783,10.539,5.569,2.756,-0.011
39.849,23.886,12.728,11.014,8.934,6.317,-3.311,-0.182
38.468,24.547,13.626,12.027,9.852,7.825,-3.257,2.413
36.985,23.539,16.119,13.347,13.134,8.7,1.293,4.827
37.424,22.142,17.077,13.06,15.061,7.369,3.048,3.807
38.279,20.521,14.708,9.716,13.295,3.296,1.146,-0.571
37.197,17.919,11.393,5.181,10.173,-1.197,-0.661,-5.551
33.732,14.146,9.654,2.097,8.494,-3.681,-3.172,-8.758
30.701,11.454,10.235,1.747,9.37,-3.464,-5.744,-8.091
31.491,12.754,13.283,4.43,12.884,-0.458,-2.486,-3.01
34.354,16.17,16.272,7.689,15.944,3.325,4.898,2.509
34.658,17.529,15.814,8.107,15.253,4.543,8.288,4.321
31.732,16.781,12.679,6.151,12.268,3.164,7.186,3.111
28.178,15.611,9.828,4.497,9.765,1.753,4.672,1.112
26.021,14.171,8.635,3.975,8.419,1.292,0.647,-0.745
25.102,12.053,8.241,3.093,7.578,0.117,-3.484,-2.821
23.371,8.444,6.546,0.292,5.921,-3.34,-5.243,-5.792
19.333,2.706,2.489,-3.961,2.591,-8.127,-5.177,-8.668
12.719,-5.236,-3.615,-8.986,-2.69,-13.125,-5.652,-11.147
5.094,-13.387,-9.437,-14.011,-8.337,-17.682,-6.842,-14.094
0.756,-17.185,-10.355,-16.025,-9.776,-19.491,-5.923,-15.691
1.168,-16.252,-5.691,-14.002,-5.593,-17.962,-2.142,-14.386
1.244,-16.758,-1.488,-12.031,-1.388,-16.525,1.747,-12.175
-2.871,-21.415,-2.592,-13.476,-2.513,-17.745,2.854,-11.057
-8.061,-25.367,-7.694,-17.335,-8.068,-21.019,-2.242,-12.778
-10.32,-25.562,-12.852,-21.29,-13.513,-24.973,-13.623,-18.813
-9.785,-24.555,-14.798,-23.148,-15.103,-27.442,-22.696,-25.234
-6.456,-22.026,-11.097,-19.881,-10.969,-24.681,-20.965,-24.426
2.618,-12.033,0.126,-8.653,0.251,-13.62,-7.832,-12.979
16.485,5.318,16.599,8.172,16.574,3.131,12.213,4.766
25.778,17.356,28.425,20.213,28.41,15.216,27.962,17.792
23.764,14.545,27.35,19.487,27.255,14.915,27.191,17.964
16.571,4.658,18.431,11.429,17.901,7.544,14.614,10.378
12.501,-1.09,11.755,5.578,10.912,2.043,6.07,4.59
9.654,-3.924,8.289,2.608,7.954,-1.098,3.965,1.434
3.843,-8.447,4.452,-0.47,5.251,-4.091,1.084,-1.139
-1.654,-12.058,1.29,-2.472,3.04,-5.12,-1.296,-1.104
-3.251,-12.486,-0.26,-2.739,1.818,-3.973,-0.747,0.892
-4.3,-13.797,-3.094,-4.334,-1.136,-4.566,-2.09,0.31
-8.248,-18.726,-7.158,-7.763,-5.386,-7.619,-5.448,-2.639
-12.439,-23.731,-8.609,-9.67,-6.938,-9.254,-4.504,-3.816
-13.416,-25.166,-7.445,-9.723,-5.748,-8.797,-0.171,-3.647
-13.461,-25.096,-8.137,-11.599,-6.156,-10.231,-0.932,-6.182
-17.544,-28.417,-12.807,-16.663,-10.351,-15.065,-9.188,-11.636
-25.232,-35.363,-18.618,-21.916,-15.81,-19.964,-16.746,-16.215
-30.453,-40.139,-21.412,-23.741,-18.702,-21.432,-16.154,-17.453
-29.995,-39.105,-19.805,-21.215,-17.88,-19.141,-10.792,-15.674
-27.26,-35.602,-16.3,-17.235,-15.598,-15.864,-9.221,-12.815
-26.671,-34.225,-14.769,-16.408,-14.672,-15.375,-13.413,-11.947
-28.904,-35.888,-16.008,-19.71,-15.205,-18.208,-17.329,-13.947
-32.718,-39.733,-17.163,-23.372,-15.281,-20.956,-16.029,-15.462
-37.65,-44.548,-16.952,-24.825,-14.713,-21.672,-11.898,-14.674
-42.524,-48.163,-17.525,-25.621,-15.151,-22.126,-9.486,-14.588
-45.496,-50.114,-20.16,-28.061,-17.281,-24.494,-9.677,-17.792
-47.608,-52.616,-23.572,-32.001,-20.411,-28.523,-11.418,-22.343
-50.536,-55.414,-25.565,-33.977,-22.654,-30.534,-13.07,-23.577
-52.464,-55.563,-25.201,-30.976,-22.482,-27.25,-13.583,-20.056
-52.513,-54.078,-25.265,-26.343,-22.466,-22.386,-15.063,-16.785
-53.771,-55.049,-29.298,-25.982,-26.623,-22.615,-18.905,-18.463
-57.916,-58.81,-35.47,-29.009,-33.425,-26.842,-22.943,-22.724
-62.87,-62.726,-38.652,-30.27,-37.467,-28.843,-26.019,-24.716
-66.883,-65.769,-37.803,-29.499,-37.168,-27.981,-28.16,-23.675
-70.668,-68.729,-36.777,-30.5,-36.18,-28.46,-28.619,-22.335
-74.929,-72.282,-38.141,-34.38,-37.433,-31.6,-28.24,-23.174
-78.142,-75.323,-39.477,-37.974,-38.713,-34.465,-27.823,-25.567
-77.982,-75.691,-36.862,-37.615,-35.708,-34.084,-24.782,-26.395
-74.683,-73.662,-30.623,-34.028,-28.602,-31.473,-17.918,-24.893
-71.645,-72.177,-25.691,-31.796,-22.986,-30.453,-13.002,-24.352
-70.691,-71.573,-24.41,-31.63,-22.012,-31.052,-15.279,-26.016
-69.067,-68.165,-23.177,-28.922,-22.094,-28.931,-20.533,-26.115
-65.61,-61.813,-20.579,-23.496,-20.846,-24.153,-23.272,-23.362
-64.166,-57.974,-19.959,-20.559,-20.675,-21.367,-24.1,-21.134
-64.868,-57.714,-19.497,-18.684,-19.834,-18.756,-21.168,-17.843
-62.225,-56.004,-12.952,-10.96,-12.717,-10.041,-9.423,-7.882
-56.23,-51.687,-2.412,0.696,-1.796,2.224,7.377,5.995
-53.768,-49.369,2.109,6.204,2.8,8.12,16.752,13.67
-58.134,-52.705,-4.368,0.765,-3.894,3.031,10.272,9.604
-64.836,-59.678,-16.104,-10.393,-15.855,-8.128,-6.721,-2.114
-66.726,-62.847,-23.017,-18.108,-22.773,-16.523,-18.511,-11.836
-61.098,-56.25,-20.638,-17.22,-20.335,-16.706,-16.831,-12.96
-52.621,-44.254,-13.815,-10.832,-13.619,-11.189,-10.088,-8.237
-47.324,-37.344,-9.267,-5.906,-9.442,-7.059,-7.668,-4.914
-45.255,-37.58,-6.74,-4.022,-7.487,-6.077,-5.973,-4.166
-44.911,-40.256,-3.983,-2.976,-4.968,-5.166,-0.183,-2.926
-48.947,-45.765,-4.66,-4.111,-5.083,-5.055,3.41,-2.198
-56.59,-53.939,-10.774,-7.618,-10.413,-6.592,0.146,-2.39
-60.416,-57.754,-15.401,-8.086,-14.818,-5.37,-1.673,1.348
-58.302,-54.707,-13.041,-3.227,-12.639,0.221,4.315,9.603
-56.431,-51.144,-8.657,1.422,-8.527,4.887,9.512,14.778
-56.756,-50.82,-8.304,1.092,-8.52,4.669,4.715,12.156
-53.981,-49.874,-8.814,-1.152,-9.175,2.379,-3.292,6.904
-46.668,-44.418,-4.998,0.291,-5.112,3.077,-2.463,6.753
