EEG 1,EEG 2,EEG 3,EEG 4,EEG 5,EEG 6,EEG 7,EEG 8
49.633,49.194,35.25,149.566,30.326,32.983,28.325,5.835
45.402,43.864,33.951,146.69,29.174,32.786,27.525,5.284
46.238,44.027,35.84,148.905,34.207,35.239,27.174,6.552
49.164,49.254,37.683,154.286,39.481,41.497,27.826,7.854
48.594,52.083,35.532,157.122,37.341,45.802,27.048,7.34
46.126,50.873,31.598,155.041,30.643,42.156,24.792,7.324
44.759,48.107,29.294,150.164,26.861,34.829,23.254,8.763
44.558,44.757,28.685,145.665,26.889,31.761,23.064,8.941
46.322,43.618,29.28,143.56,28.057,32.962,23.366,8.006
51.638,48.75,31.948,144.618,31.111,34.948,24.439,9.29
57.364,56.258,35.863,145.906,36.729,35.727,26.609,11.467
57.2,57.392,37.355,142.824,40.302,33.726,28.149,10.469
51.778,52.446,35.213,137.481,37.741,30.98,27.371,7.721
47.668,47.481,32.692,135.297,32.761,30.451,24.553,6.167
46.786,43.746,32.302,135.962,31.759,30.655,21.743,5.523
46.998,41.582,33.918,137.686,34.641,31.159,21.852,7.117
47.423,42.642,36.57,141.305,36.552,35.192,24.797,11.414
47.144,44.895,38.561,144.645,36.498,40.78,26.393,13.882
45.874,45.556,38.826,143.661,37.133,40.846,25.334,13.189
45.576,45.773,38.101,140.066,37.044,36.284,25.516,13.037
47.345,47.157,37.595,137.768,33.827,33.731,27.965,13.932
50.134,48.055,38.278,135.711,32.03,32.145,28.94,14.064
52.924,46.927,40.126,132.205,35.606,28.453,27.386,13.617
56.105,45.952,42.418,129.482,40.433,27.125,26.01,12.754
60.056,46.198,44.782,128.472,42.401,30.078,25.363,10.856
61.655,43.853,44.852,125.627,41.075,29.933,23.294,8.026
57.402,37.637,39.519,119.204,35.773,22.88,19.961,5.113
50.692,33.259,31.43,113.164,28.437,16.038,17.845,3.096
47.494,34.876,27.15,111.495,24.574,16.729,17.253,2.541
47.663,39.144,28.692,113.55,27.075,23.468,17.022,4.062
48.459,41.667,32.302,117.07,33.132,30.418,17.469,7.551
49.377,41.923,32.78,120.263,35.26,33.336,18.527,10.248
48.78,39.771,27.617,120.442,27.697,30.664,18.977,9.904
45.028,35.848,20.6,117.304,16.052,25.546,19.038,8.905
40.508,33.854,17.878,113.923,11.585,22.189,18.831,9.363
37.501,34.231,19.292,110.631,14.744,19.687,16.961,9.033
35.485,31.964,20.757,106.518,17.311,17.306,15.091,8.47
35.037,26.936,22.64,105.199,17.775,18.848,17.323,12.25
37.528,26.251,27.684,109.098,21.407,25.357,22.473,18.316
41.664,31.538,34.155,113.135,28.459,30.94,25.308,19.547
45.111,36.054,37.397,111.779,32.659,30.271,24.852,16.406
47.234,37.024,36.448,107.098,31.506,26.697,23.862,14.356
47.633,38.348,34.823,104.826,29.922,26.886,23.437,13.808
45.728,41.171,34.439,106.65,30.562,30.483,23.459,13.461
43.328,43.361,33.51,110.483,29.709,34.201,24.542,15.19
42.458,44.895,31.473,114.392,25.836,38.028,26.33,19.303
42.309,45.755,31.257,116.817,23.491,39.7,26.436,22.185
43.14,45.111,35.445,116.83,26.904,36.521,23.638,21.077
46.031,43.365,41.091,115.069,32.353,32.652,20.509,17.853
47.063,39.582,41.103,111.937,31.22,32.099,19.711,16.219
41.89,33.613,33.882,107.042,22.777,32.196,19.888,16.099
35.087,30.419,27.317,102.048,16.847,31.122,19.321,15.349
36.346,34.559,29.423,100.599,22,32.917,19.307,14.523
46.426,42.724,37.776,101.897,34.754,38.259,19.802,14.311
53.675,45.384,41.703,99.087,41.73,38.148,18.216,13.971
49.281,38.199,35.436,89.566,34.449,28.394,15.376,13.541
37.855,27.947,24.544,78.978,19.678,17.903,15.063,12.834
28.118,20.835,16.995,71.106,10.288,12.164,16.577,11.562
22.852,15.638,14.289,64.823,9.782,7.898,15.884,10.642
20.99,12.795,14.194,60.649,12.767,5.529,13.09,10.117
21.389,14.833,15.093,59.728,14.699,7.565,11.319,8.665
22.278,19.114,16.044,60.168,14.476,10.194,11.692,7.254
22.036,21.456,16.968,60.29,13.139,9.365,13.277,8.392
21.729,21.489,17.953,60.332,12.832,7.793,14.086,10.638
23.696,20.758,18.69,60.108,14.494,8.752,12.88,10.788
26.782,19.786,19.3,58.599,16.498,9.302,10.971,9.009
26.741,18.149,19.691,55.851,16.701,6.749,9.972,6.79
22.954,15.907,19.47,54.163,15.064,5.813,9.62,5.483
19.581,13.019,18.65,54.992,12.593,9.218,8.916,6.329
18.871,10.103,17.501,55.77,9.94,10.955,7.41,7.32
18.825,9.931,16.758,54.708,8.134,9.145,5.764,5.857
17.617,12.835,17.188,54.944,8.229,10.616,5.495,4.819
15.814,14.64,18.3,57.923,9.694,16.375,6.881,7.497
14.672,13.704,18.773,59.568,10.362,19.141,8.181,10.346
15.324,13.392,19.33,58.023,10.5,17.864,8.434,9.023
18.829,16.653,22.659,56.987,14.277,19.057,8.449,5.952
23.985,22.056,26.62,57.735,20.259,22.822,8.071,4.943
26.523,23.896,24.097,55.613,18.972,21.491,6.749,5.139
24.103,19.525,15.032,48.045,8.895,12.504,6.048,5.165
19.493,14.635,7.96,39.403,0.552,2.807,6.347,5.265
17.206,14.832,6.997,34.767,-0.144,-0.315,4.959,4.686
19.767,18.894,8.677,34.021,2.5,2.491,1.72,3.44
24.403,22.037,9.658,33.816,3.935,5.624,-0.139,2.909
24.582,21.072,9.931,32.513,4.531,6.641,0.546,2.856
19.919,18.133,11.187,31.929,6.37,8.182,2.335,2.832
17.105,16.521,13.712,33.182,8.794,11.694,3.744,4.175
17.132,14.48,14.557,32.658,8.777,12.548,3.761,6.567
12.873,9.015,10.48,25.851,4.969,6.102,1.525,6.006
3.45,2.14,2.43,14.747,-1.198,-3.869,-2.488,0.579
-1.128,0.471,-3.568,7.887,-5.467,-8.181,-5.094,-4.922
3.851,6.781,-2.365,9.909,-2.661,-3.434,-4.587,-6.125
9.05,12.474,2.086,13.729,4.001,2.443,-3.946,-5.841
5.044,8.087,1.064,10.355,3.822,0.338,-5.341,-7.466
-5.92,-2.586,-6.058,2.042,-4.576,-6.939,-6.972,-9.007
-15.942,-10.335,-12.666,-3.222,-12.271,-10.758,-6.924,-7.963
-20.452,-13.272,-14.832,-3.281,-14.309,-9.882,-5.297,-5.396
-19.26,-13.771,-12.527,-0.926,-10.952,-7.973,-3.602,-3.486
-14.663,-11.546,-6.944,1.93,-3.219,-5.326,-3.701,-2.864
-10.411,-6.272,-1.247,4.662,4.228,-1.291,-5.216,-2.506
-10.196,-3.305,-0.759,4.857,3.402,-0.306,-5.868,-2.308
-14.84,-7.759,-7.767,0.005,-7.361,-5.335,-5.836,-4.287
-19.891,-13.91,-15.649,-5.985,-17.857,-8.002,-6.689,-8.025
-19.396,-12.362,-16.124,-6.588,-18.056,-1.477,-7.294,-9.436
-13.764,-5.522,-11.336,-3.901,-11.224,4.257,-6.458,-6.549
-9.423,-3.412,-8.692,-4.946,-6.228,-0.659,-5.915,-2.024
-9.716,-7.275,-9.246,-9.802,-5.359,-9.186,-6.914,0.098
-10.771,-9.309,-10.052,-13.768,-7.032,-12.393,-7.936,-1.289
-8.772,-6.455,-10.404,-16.01,-10.135,-12.71,-7.877,-3.924
-5.711,-2.709,-9.687,-17.508,-11.495,-13.208,-7.335,-5.481
-4.138,0.096,-6.506,-16.646,-8.999,-10.353,-6.408,-4.874
-2.911,3.656,-2.628,-13.036,-6.675,-3.08,-5.233,-3.231
-0.58,7.688,-1.077,-9.553,-7.612,3.162,-4.627,-3.046
1.686,8.443,-1.674,-8.654,-8.461,3.665,-4.161,-2.701
1.48,4.327,-2.289,-9.501,-5.902,2.02,-3.563,0.4
-1.987,-0.163,-2.324,-9.771,-1.952,5.409,-4.626,1.927
-7.213,-2.026,-4.161,-10.929,-2.584,9.35,-7.211,-1.387
-11.871,-4.08,-9.102,-16.063,-9.209,2.846,-8.416,-3.762
-14.618,-7.14,-13.926,-23.129,-15.723,-10.416,-8.234,-2.434
-14.99,-8.089,-15.228,-27.465,-18.651,-16.824,-8.809,-3.305
-13.467,-7.491,-13.863,-28.739,-19.432,-15.157,-10.122,-7.652
-12.735,-9.588,-13.621,-30.618,-18.996,-15.473,-11.964,-10.227
-13.593,-13.505,-15.219,-33.699,-17.188,-19.025,-14.458,-10.414
-13.792,-14.587,-15.425,-34.709,-14.224,-17.901,-15.953,-11.847
-14.088,-13.493,-14.218,-33.921,-12.537,-12.599,-15.08,-14.285
-15.926,-13.903,-14.754,-35.127,-14.673,-10.882,-12.026,-14.383
-17.852,-17.069,-17.764,-39.797,-19.117,-14.231,-8.89,-12.806
-21.28,-24.114,-22.193,-47.247,-22.78,-20.09,-9.237,-13.283
-28.82,-34.115,-26.966,-55.736,-25.809,-27.605,-12.678,-16.144
-35.786,-40.381,-30.093,-61.602,-29.503,-34.482,-15.171,-18.582
-34.863,-38.002,-29.003,-61.675,-31.11,-37.429,-15.192,-17.8
-25.94,-29.516,-21.86,-55.522,-24.641,-33.666,-13.211,-12.544
-13.374,-18.181,-9.729,-44.918,-9.039,-21.13,-9.812,-4.937
-1.658,-6.362,0.931,-34.848,4.951,-5.317,-6.689,0.322
2.313,-0.455,2.486,-32.616,4.039,0.479,-5.51,0.257
-4.106,-4.453,-3.97,-40.011,-8.576,-8.827,-6.352,-3.089
-12.67,-12.361,-9.538,-49.428,-17.141,-21.644,-8.064,-5.469
-17.225,-16.869,-10.673,-52.919,-17.525,-25.06,-9.644,-5.97
-20.771,-18.076,-11.91,-50.634,-18.7,-20.173,-11.177,-6.572
-23.135,-18.424,-15.17,-47.101,-23.099,-15.122,-13.145,-8.266
-20.18,-17.906,-16.702,-44.649,-24.096,-12.304,-14.958,-9.626
-14.603,-16.278,-14.564,-43.43,-19.577,-9.974,-15.77,-8.88
-13.181,-15.113,-11.672,-44.055,-15.317,-9.13,-16.464,-7.416
-16.212,-15.735,-10.538,-46.544,-14.912,-11.114,-17.964,-7.81
-16.917,-15.586,-9.632,-48.944,-14.485,-12.653,-19.14,-9.791
-12.536,-12.376,-7.178,-50.976,-10.329,-11.819,-18.572,-12.286
-10.152,-10.972,-5.456,-55.96,-6.057,-14.31,-16.826,-15.06
-14.613,-16.148,-8.044,-65.131,-8.065,-23.669,-16.631,-17.718
-19.164,-22.706,-13.927,-74.146,-14.6,-33.315,-19.879,-20.656
-16.611,-22.765,-17.766,-77.652,-15.616,-36.265,-24.623,-23.739
-10.521,-16.847,-17.095,-74.325,-9.228,-32.336,-26.853,-24.1
-8.684,-11.854,-15.452,-67.952,-6.257,-24.871,-24.673,-19.955
-12.502,-11.55,-16.283,-64.219,-11.697,-19.311,-20.273,-14.683
-16.059,-11.628,-17.952,-64.591,-17.667,-19.395,-16.735,-12.46
-14.022,-6.867,-17.378,-65.719,-17.285,-21.387,-14.893,-12.588
-9.218,0.309,-15.78,-65.314,-13.762,-20.07,-15.368,-12.735
-8.331,3.107,-17.81,-65.685,-15.383,-19.03,-18.262,-13.646
-13.716,-3.246,-25.324,-71.405,-24.834,-25.902,-22.014,-17.124
-22.039,-15.679,-33.704,-81.161,-34.724,-37.235,-25.944,-22.012
-26.593,-23.172,-36.32,-85.901,-36.456,-40.458,-29.11,-24.048
-25.32,-22.122,-33.085,-82.607,-31.833,-34.072,-29.504,-21.403
-23.924,-21.258,-29.996,-78.995,-29.264,-28.661,-27.55,-17.819
-25.278,-24.324,-29.675,-79.389,-30.23,-28.201,-25.998,-17.135
-26.446,-25.568,-29.588,-80.635,-29.992,-28.944,-26.438,-18.851
-26.736,-23.507,-28.776,-81.361,-28.806,-30.325,-28.249,-20.559
-28.06,-23.812,-28.147,-83.426,-28.859,-33.556,-30.832,-21.881
-30.167,-28.018,-26.319,-86.356,-26.273,-36.652,-33.375,-23.625
-30.56,-29.067,-22.028,-86.398,-19.591,-35.821,-32.807,-24.285
-29.084,-24.077,-18.036,-82.064,-16.698,-30.06,-27.594,-21.483
-30.173,-23.218,-18.466,-78.301,-22.879,-25.029,-21.54,-16.19
-35.806,-33.213,-23.316,-79.737,-31.115,-26.353,-20.026,-13.015
-40.886,-43.079,-28.457,-82.698,-33.187,-29.131,-23.712,-15.371
-41.946,-41.895,-32.078,-82.529,-33.086,-26.399,-28.172,-20.615
-42.554,-36.162,-36.021,-81.711,-37.801,-22.466,-30.464,-22.847
-45.191,-35.064,-39.795,-82.817,-43.438,-23.734,-31.593,-21.125
-46.108,-35.427,-40.22,-83.435,-43.332,-27.033,-31.944,-19.537
-41.142,-31.574,-36.011,-81.942,-37.815,-26.69,-30.626,-19.206
-32.325,-25.254,-29.1,-80.251,-29.56,-22.126,-28.898,-18.613
-26.64,-21.304,-23.718,-80.611,-22.779,-17.692,-28.091,-18.249
-27.915,-21.873,-23.679,-83.949,-24.068,-20.226,-26.449,-18.125
-33.074,-25.803,-28.952,-89.605,-33.238,-29.684,-24.418,-18.108
-37.743,-30.638,-35.866,-94.875,-41.366,-36.689,-26.111,-20.19
-40.157,-34.372,-40.16,-97.623,-42.012,-37.63,-30.795,-23.951
-38.541,-35.335,-39.347,-98.319,-35.434,-37.796,-33.546,-25.932
-32.039,-32.855,-34.889,-97.975,-25.602,-37.802,-33.788,-25.55
-26.624,-30.447,-33.262,-98.479,-22.092,-36.633,-34.236,-25.896
-30.681,-33.62,-39.796,-102.752,-32.991,-39.745,-35.767,-28.777
-40.829,-40.879,-49.25,-108.244,-48.453,-46.565,-37.161,-31.714
-45.018,-44.235,-50.879,-107.355,-50.591,-46.365,-36.491,-31.173
-41.14,-41.199,-44.282,-100.117,-40.54,-37.536,-33.279,-27.448
-37.793,-37.983,-39.485,-95.686,-34.105,-32.296,-29.893,-23.659
-39.955,-40.516,-41.772,-98.527,-36.917,-37.244,-29.169,-22.18
-43.842,-47.524,-46.33,-103.921,-41.202,-45.165,-30.651,-23.207
-43.768,-52.322,-47.825,-106.468,-41.196,-47.02,-30.801,-24.31
-40.466,-50.723,-47.245,-105.237,-39.085,-41.159,-28.425,-23.241
-37.468,-44.67,-46.685,-102.167,-36.959,-32.785,-26.489,-21.423
-34.607,-38.145,-45.069,-99.607,-33.975,-28.768,-26.557,-20.945
-32.604,-34.059,-42.308,-98.573,-31.391,-30.423,-26.694,-20.962
-32.927,-32.97,-39.657,-98.226,-29.888,-33.365,-26.285,-20.664
-32.668,-32.477,-35.83,-97.079,-25.933,-34.019,-27.544,-21.518
-30.203,-30.329,-30.933,-94.126,-20.831,-31.18,-30.209,-23.769
-27.912,-26.559,-29.479,-89.78,-22.562,-26.128,-30.163,-24.583
-25.358,-22.065,-32.623,-86.017,-30.583,-23.117,-26.969,-22.002
-20.902,-18.811,-36.248,-83.851,-36.164,-23.194,-25.141,-17.528
-18.354,-19.861,-39.5,-83.049,-39.168,-23.936,-25.743,-14.108
-21.594,-24.282,-43.183,-83.696,-43.228,-25.459,-26.134,-13.31
-25.226,-24.693,-42.069,-83.453,-41.927,-26.104,-25.266,-13.28
-21.33,-17.032,-32.279,-79.22,-30.498,-21.478,-23.248,-11.571
-13.922,-8.925,-20.873,-74.55,-19.037,-14.096,-21.161,-10.576
-13.387,-9.175,-16.244,-75.907,-17.423,-12.747,-20.582,-13.445
-17.949,-14.25,-14.887,-81.169,-18.164,-18.245,-20.338,-16.25
-16.65,-14.838,-8.566,-82.191,-8.723,-20.335,-18.905,-13.897
-9.228,-10.728,0.241,-78.302,5.633,-15.969,-17.612,-9.201
-6.312,-8.961,2.123,-76.197,7.714,-14.371,-16.828,-7.15
-11.948,-11.641,-3.82,-78.332,-4.068,-18.223,-16.034,-8.284
-20.186,-15.862,-10.04,-81.347,-13.587,-20.439,-16.526,-11.075
-25.129,-19.544,-11.98,-81.818,-12.665,-18.139,-17.241,-12.753
-25.018,-20.099,-10.401,-78.622,-7.857,-14.304,-15.435,-10.925
-21.295,-16.284,-7.638,-73.99,-5.097,-11.343,-13.062,-8.016
-18.111,-13.074,-6.672,-71.778,-4.636,-9.506,-14.479,-8.93
-18.294,-15.295,-8.893,-72.622,-5.877,-7.891,-19.037,-13.455
-19.586,-19.35,-11.897,-73.613,-8.891,-6.096,-20.976,-15.415
-19.298,-19.2,-12.283,-72.113,-12.378,-4.501,-17.475,-11.269
-19.914,-17.101,-10.39,-69.09,-13.571,-4.247,-12.906,-5.27
-24.024,-19.289,-10.205,-68.642,-12.639,-6.754,-12.135,-3.107
-28.14,-23.531,-12.572,-71.83,-11.881,-10.41,-13.957,-4.867
-28.4,-23.638,-13.709,-75.032,-11.12,-12.98,-14.747,-7.113
-27.022,-22.063,-12.661,-76.1,-9.739,-15.352,-14.364,-8.235
-28.004,-24.794,-12.696,-76.474,-9.342,-17.3,-14.635,-9.209
-30.62,-29.617,-14.378,-77.389,-11.051,-17.729,-14.907,-9.995
-30.736,-30.132,-13.478,-77.215,-12.102,-17.971,-13.163,-8.705
-27.811,-26.859,-7.814,-73.75,-9.306,-17.604,-10.025,-6.167
-26.271,-25.565,-1.94,-68.915,-5.544,-14.987,-8.699,-5.998
-28.342,-27.803,-1.264,-67.545,-5.893,-12.987,-11.153,-8.549
-30.665,-30.52,-4.782,-70.361,-9.104,-14.313,-14.961,-10.548
-30.654,-31.838,-8.06,-73.684,-10.433,-16.374,-16.88,-10.692
-30.469,-31.723,-10.033,-75.714,-9.742,-17.158,-18.174,-10.859
-32.386,-30.216,-12.565,-76.771,-10.598,-17.753,-20.066,-11.94
-35.994,-29.252,-16.41,-76.766,-14.134,-18.386,-19.335,-12.112
-39.531,-31.302,-19.854,-76.221,-17.393,-18.109,-15.155,-10.186
-41.102,-34.177,-21.436,-75.967,-18.363,-16.421,-12.245,-8.117
-42.24,-35.145,-24.373,-77.008,-21.128,-15.389,-13.303,-8.698
-47.307,-36.946,-32.623,-81.118,-29.671,-19.506,-16.511,-12.387
-54.288,-40.344,-41.394,-86.264,-37.877,-26.982,-20.174,-16.536
-55.123,-39.678,-41.832,-86.084,-37.14,-28.115,-22.529,-16.804
-49.419,-33.683,-35.605,-80.154,-31.369,-20.853,-21.097,-12.302
-44.507,-28.74,-31.7,-75.363,-29.799,-14.56,-17.22,-7.883
-41.858,-27.357,-31.031,-73.638,-30.513,-13.177,-15.159,-6.871
-37.869,-26.082,-28.565,-70.91,-26.756,-11.484,-15.605,-6.985
-32.592,-23.769,-24.599,-67.378,-20.348,-8.462,-15.75,-6.019
-28.542,-22.01,-22.797,-66.484,-17.23,-8.338,-14.488,-4.905
-28.687,-22.318,-24.485,-68.087,-19.786,-10.91,-13.553,-5.419
-33.342,-24.429,-27.806,-69.585,-25.163,-12.226,-14.164,-7.647
-35.088,-22.99,-27.704,-68.001,-26.017,-10.354,-14.794,-8.753
-27.62,-13.951,-21.049,-61.288,-19.884,-5.306,-12.842,-5.777
-16.046,-3.607,-11.712,-52.478,-13.347,0.824,-8.617,-0.2
-8.951,-0.664,-5.341,-48.363,-10.329,3.442,-6.427,2.798
-8.071,-4.548,-3.025,-50.902,-8.094,1.52,-7.885,1.384
-9.888,-8.565,-3.184,-55.37,-5.964,-0.548,-8.146,-0.013
-12.411,-9.603,-5.869,-58.822,-6.875,-1.873,-5.222,0.554
-16.072,-9.631,-11.214,-62.374,-10.606,-5.494,-4.202,-1.091
-19.508,-10.209,-16.546,-65.315,-13.363,-9.597,-7.074,-5.308
-21.697,-11.533,-20.346,-66.33,-15.174,-10.949,-9.578,-7.065
-24.187,-13.9,-23.282,-66.855,-18.07,-12.026,-9.24,-5.352
-26.58,-15.969,-23.429,-67.061,-18.993,-14.792,-7.455,-3.527
-27.071,-15.95,-19.486,-64.873,-16.385,-15.897,-5.525,-2.338
-25.322,-13.979,-14.958,-60.824,-14.803,-13.793,-3.914,-0.045
-21.754,-10.895,-12.785,-58.42,-15.803,-11.924,-3.791,2.131
-18.832,-8.195,-11.992,-59.5,-16.056,-12.778,-6.194,0.797
-18.74,-7.909,-11.078,-61.691,-14.553,-14.626,-9.356,-3.294
-20.2,-10.067,-11.041,-61.993,-13.689,-14.715,-10.014,-5.558
-22.067,-12.512,-13.651,-61.582,-15.294,-13.4,-8.375,-4.79
-23.204,-12.551,-16.72,-62.539,-17.546,-12.475,-7.342,-3.893
-21.679,-9.352,-16.236,-63.009,-16.146,-11.591,-7.531,-3.854
-19.872,-6.147,-13.514,-61.28,-11.002,-10.712,-7.566,-2.993
-21.205,-5.616,-12.827,-58.728,-8.232,-10.729,-6.675,-0.943
-22.24,-4.903,-13.629,-55.95,-10.91,-10.266,-4.87,0.418
-18.37,-1.204,-12.494,-52.683,-13.893,-8.224,-2.924,-0.164
-13.373,3.498,-10.257,-50.593,-13.128,-6.315,-1.844,-1.265
-13.856,6.632,-10.591,-50.927,-12.145,-5.8,-2.129,-1.684
-18.04,7.858,-13.102,-51.738,-13.898,-5.922,-3.694,-2.466
-19.063,8.079,-13.513,-50.311,-14.785,-5.546,-4.522,-2.644
-16.199,7.665,-10.754,-47.024,-12.329,-4.334,-2.493,0.408
-14.32,5.346,-8.652,-44.531,-10.09,-2.77,0.153,4.349
-15.24,1.992,-9.453,-43.222,-10.4,-1.182,0.481,5.144
-16.171,2.046,-11.108,-41.262,-10.738,0.854,-0.274,4.248
-13.902,6.645,-11.271,-38.713,-9.038,3.813,-0.637,4.438
-8.353,11.383,-10.312,-37.33,-6.858,6.756,-0.916,5.327
-4.794,11.656,-11.483,-38.253,-8.263,6.735,-0.715,5.906
-8.399,6.462,-16.815,-41.789,-14.703,2.23,-0.026,5.679
-15.307,0.619,-22.779,-45.934,-21.013,-2.849,-0.434,4.461
-18.213,-0.025,-25.56,-47.726,-23.221,-4.647,-2.814,2.603
-17.333,2.219,-25.854,-48.243,-23.75,-6.19,-5.506,0.642
-16.073,1.806,-23.573,-49.798,-23.075,-10.29,-6.231,-0.454
-14.447,-0.457,-17.639,-50.848,-19.403,-13.497,-5.409,-0.459
-13.325,-1.7,-11.239,-49.524,-15.29,-13.473,-4.834,-0.737
-13.838,-1.627,-6.545,-45.451,-11.425,-10.593,-3.798,-0.676
-12.154,0.19,-0.582,-38.242,-4.162,-3.67,-0.647,2.344
-6.826,3.186,5.732,-30.858,3.213,4.36,3.062,6.466
-4.076,4.568,6.325,-28.535,2.771,5.635,4.306,6.776
-7.409,2.747,0.831,-31.737,-4.099,-1.229,2.975,3.602
-12.517,-0.889,-5.181,-36.262,-9.377,-8.982,1.117,1.133
-14.615,-2.869,-8.911,-38.861,-10.509,-11.761,-0.166,0.146
-12.536,-0.368,-10.583,-39.308,-9.639,-9.531,-0.939,-1.301
-7.013,5.841,-8.491,-38.404,-5.493,-4.203,-1.028,-2.339
-1.818,10.271,-2.225,-37.069,2.869,0.581,0.044,-0.658
-3.402,6.167,1.907,-37.43,7.888,-0.603,1.939,1.486
-12.556,-5.786,-1.321,-40.58,3.454,-7.261,3.276,0.241
-22.222,-16.812,-7.602,-44.12,-4.226,-12.789,2.945,-2.217
-25.989,-20.723,-10.492,-44.892,-7.381,-14.225,1.321,-0.614
-21.703,-17.408,-8.023,-40.237,-4.867,-10.616,0.292,9.291
-10.893,-7.814,-0.308,-28.852,2.881,1.104,1.165,26.114
-0.216,4.209,8.741,-17.326,12.152,14.567,2.792,34.235
4.075,10.708,12.583,-16.129,15.594,14.494,4.902,22.638
5.085,9.928,10.95,-24.14,12.82,1.137,8.902,4.689
9.779,8.878,9.536,-31.148,11.797,-8.52,12.437,-5.325
15.675,10.48,10.377,-33.49,15.697,-8.703,11.502,-8.603
14.048,9.922,9.574,-33.563,16.697,-7.771,8.098,-8.209
5.255,5.725,5.756,-29.96,9.48,-6.24,7.565,-2.958
-1.254,3.239,3.75,-20.909,2.352,1.542,9.852,5.453
-1.827,4.956,5.517,-12.362,2.939,10.344,10.691,9.303
-1.854,5.899,6.838,-11.028,5.765,10.836,9.447,5.162
-4.78,2.175,5.969,-13.935,4.853,5.638,8.966,1.547
-8.211,-2.675,5.782,-13.712,3.307,3.976,9.668,5.999
-9.949,-4.195,7.729,-9.612,4.831,7.063,9.646,12.622
-9.997,-3.449,10.417,-6.863,7.837,8.69,9.259,12.649
-7.714,-2.511,12.963,-8.005,11.041,6.475,10.46,8.162
-2.871,-0.763,15.242,-10.394,15.782,3.942,11.812,6.107
1.033,1.174,14.96,-12.102,19.021,2.532,9.83,6.522
0.416,1.308,9.973,-14.538,14.616,-0.128,6.018,5.252
-3.235,-0.718,3.275,-18.054,5.005,-3.916,5.315,2.499
-7.263,-5.095,-0.742,-20.936,-1.303,-6.202,7.992,1.129
-10.668,-11.117,-1.932,-22.187,-2.167,-6.069,10.529,2.026
-10.383,-13.879,-1.077,-20.837,0.459,-2.994,11.118,5.092
-4.369,-8.675,2.769,-16.173,6.621,2.891,10.138,8.9
3.59,1.497,8.889,-10.126,14.203,8.35,9.492,10.604
10.277,9.945,15.278,-4.912,19.677,11.401,11.148,10.718
16.733,15.514,21.078,-0.32,23.297,14.329,14.282,12.695
21.042,19.122,23.823,2.537,24.628,16.94,15.749,15.349
18.435,17.529,19.834,-0.104,20.381,14.138,13.77,13.52
11.466,10.875,11.19,-7.333,12.414,6.511,10.431,7.762
7.89,6.827,4.896,-12.201,7.562,2.233,8.794,3.935
8.929,9.542,3.683,-11.501,8.581,3.424,8.458,3.449
11.971,15.048,5.832,-7.983,14.281,5.68,8.139,3.906
17.462,19.006,10.279,-3.57,22.13,9.33,9.063,5.9
23.199,19.838,14.378,0.566,24.934,15.471,11.597,9.464
23.444,17.414,14.775,2.054,18.884,18.465,13.629,10.49
18.494,13.831,13.213,0.956,12.573,13.972,13.582,8.524
14.654,10.894,12.783,-0.248,12.537,6.659,11.969,8.176
14.509,7.676,12.366,-0.088,13.32,3.169,10.669,9.696
15.036,4.428,10.379,1.582,10.759,3.83,10.573,9.651
14.321,4.209,7.519,4.162,6.934,5.969,11.022,8.668
14.422,8.685,5.369,7.002,3.636,9.551,12.065,9.509
17.075,15.782,6.031,10.601,3.139,15.687,13.931,12.078
20.69,21.369,9.716,15.707,6.856,23.565,15.246,14.807
22.618,22.406,12.261,20.445,10.41,29.286,14.647,16.626
21.04,18.851,9.191,20.583,8.566,27.561,12.788,16.653
15.425,12.341,2.065,15.148,2.844,18.839,11.094,14.556
8.552,5.872,-2.335,9.365,-0.634,11.115,9.586,11.09
5.808,4.63,0.755,9.089,2.202,10.321,8.267,8.317
8.712,9.823,8.547,13.388,9.016,13.714,8.506,7.673
12.835,14.762,14.131,16.449,13.404,15.316,10.188,7.57
15.243,14.9,16.009,17.705,14.213,15.416,11.621,6.913
16.961,13.171,17.132,21.453,14.399,18.584,12.967,7.968
17.157,11.47,16.481,25.914,12.427,23.144,15.315,11.777
14.034,8.832,12.791,25.479,8.56,23.601,17.605,15.489
9.555,6.465,9.794,20.605,8.469,20.181,17.587,16.049
6.282,5.181,9.273,14.975,11.501,16.161,15.026,13.082
3.821,3.474,8.534,9.807,11.693,12.384,11.695,8.03
2.605,2.115,8.145,6.231,10.794,9.298,9.058,3.329
5.572,3.795,12.336,6.642,15.222,8.925,8.316,2.167
11.927,7.709,20.018,11.204,22.881,12.22,10.539,5.67
15.98,10.734,24.383,16.41,25.617,16.283,14.093,10.411
15.407,12.087,22.527,18.561,22.048,17.111,15.112,11.28
12.825,11.525,17.641,16.885,17.167,14.116,12.726,7.429
9.94,7.972,12.818,13.4,13.148,9.972,10.055,3.033
7.335,3.479,9.23,11.185,9.293,7.702,9.226,1.443
6.481,1.607,7.867,11.472,6.794,8.356,9.346,2.177
8.068,2.178,8.944,13.012,7.606,10.764,9.525,3.936
10.379,2.634,10.475,14.478,10.223,12.584,10.026,6.132
10.423,1.73,9.376,15.355,10.165,12.33,10.109,7.248
8.49,0.922,6.388,16.744,7.294,12.08,8.853,6.269
8.929,2.32,6.382,21.021,7.047,14.99,7.856,5.372
12.282,4.411,9.783,27.235,9.677,19.31,9.062,6.666
12.928,3.491,11.187,30.488,9.244,20.191,11.572,8.476
7.682,-0.907,8.721,27.994,5.618,16.583,12.673,8.141
0.051,-5.432,6.12,22.098,4.066,11.91,10.549,5.314
-4.141,-6.559,6.158,17.27,5.507,9.502,6.834,2.178
-2.55,-4.319,8.216,15.874,7.448,9.512,5.676,1.972
1.694,-1.929,10.211,17.21,8.483,10.353,8.33,5.258
5.307,-0.035,10.73,20.486,8.201,12.09,11.344,8.891
9.233,3.924,10.966,25.438,7.917,15.319,12.08,10.43
14.66,9.418,13.268,30.077,9.834,18.752,12.763,10.942
20.284,14.313,17.591,32.763,14.113,22.019,15.552,11.859
24.695,19.332,21.595,34.693,19.107,26.383,17.352,11.866
27.224,22.984,23.346,36.6,23.052,29.985,15.34,10.492
27.328,20.847,22.375,36.672,24.765,29.163,12.917,10.718
24.446,13.467,18.735,33.805,22.773,24.605,13.225,12.456
19.049,6.233,13.32,29.414,16.021,19.34,13.441,10.744
14.545,3.535,9.618,26.032,8.825,15.121,11.339,5.347
13.968,5.341,10.648,25.359,7.648,13.632,9.127,2.98
15.531,7.063,14.317,26.429,11.137,14.573,8.419,6.813
17.303,7.015,17.171,26.852,14.148,15.133,8.778,10.34
20.159,8.379,18.574,25.024,16.234,12.93,9.646,6.558
22.178,9.685,18.122,20.426,18.189,7.283,9.866,-0.554
20.123,7.167,15.402,15.098,18.968,1.375,8.129,-3.258
16.39,4.577,11.231,12.887,17.675,0.038,4.718,-2.744
15.961,6.943,6.12,14.767,14.497,2.972,1.931,-3.096
19.697,11.763,2.005,18.552,12.579,6.304,1.915,-2.344
24.199,14.409,2.176,22.334,14.499,8.93,3.678,1.102
24.795,13.931,5.062,24.003,15.072,10.653,5.013,3.258
19.893,11.296,5.851,21.399,9.051,9.132,5.482,1.506
13.381,8.068,4.718,16.516,1.406,5.127,4.911,-1.244
9.993,6.087,5.58,14.583,-0.369,4.143,3.346,-1.68
10.313,6.012,9.136,17.043,4.071,7.395,2.408,-0.011
12.38,6.668,12.127,20.94,9.496,10.189,3.34,1.988
15.211,6.717,12.252,24.801,11.324,11.424,5.578,3.67
17.822,6.481,10.687,28.2,9.671,12.578,7.602,5.281
17.427,6.563,8.88,29.002,7.113,11.671,7.659,6.426
13.964,6.834,6.295,26.939,4.599,8.342,5.617,6.333
13.021,7.805,2.96,24.983,2.277,6.145,3.86,5.072
17.423,10.137,0.737,25.204,1.442,7.348,3.702,3.456
21.622,12.876,0.44,26.983,2.825,11.102,3.704,2.687
20.585,13.742,0.739,28.779,4.662,14.063,3.632,3.85
17.007,11.719,1.42,29.668,5.641,13.238,4.685,6.133
15.813,8.288,3.603,29.32,7.135,9.951,5.21,6.463
17.805,5.701,5.744,27.726,8.12,7.781,3.465,3.324
20.254,5.294,5.238,25.434,4.971,7.538,2.084,-0.036
21.014,6.693,3.708,23.554,0.036,7.333,3.444,0.612
21.181,8.849,4.695,23.137,-0.393,6.717,6.179,4.82
21.798,10.996,7.184,23.556,3.058,6.729,8.21,7.87
21.495,11.92,7.372,22.864,5.269,6.382,8.487,6.896
20.847,11.273,5.195,21.399,5.849,5.185,7.553,4.693
22.096,10.067,2.785,21.068,5.907,5.437,6.5,4.115
24.057,9.263,0.373,21.216,3.65,7.009,5.294,3.52
24.641,10.901,-0.697,21.131,0.772,7.651,4.908,2.599
24.215,15.476,2.289,22.419,2.535,7.736,6.839,3.985
21.697,16.999,6.934,24.018,7.261,6.895,8.733,6.174
15.621,10.563,7.021,22.828,7.052,3.3,6.755,4.696
10.109,1.869,2.108,20.52,0.994,-0.571,2.042,0.365
10.077,-0.998,-1.886,21.094,-3.162,-0.716,-1.261,-2.03
13.648,1.99,-1.325,24.772,-1.155,2.294,-1.55,-1.053
16.192,6.446,1.778,29.383,2.874,5.919,0.59,1.587
16.438,10.017,3.471,32.513,3.466,9.127,3.147,4.264
16.923,13.647,2.918,32.315,1.272,11.353,3.939,5.102
21.079,18.635,3.876,30.209,1.93,12.501,4.248,3.618
27.655,23.092,9.567,29.756,8.35,13.732,5.833,2.602
31.464,24.247,17.281,31.345,17.02,15.079,7.091,4.331
30.988,22.518,20.238,31.388,20.926,13.968,7.383,7.216
28.698,20.832,15.701,28.586,16.539,10.057,8.467,8.35
27.059,22.299,9.653,27.321,9.451,7.836,10.148,7.476
29.241,28.699,9.716,31.38,8.292,10.82,10.898,7.433
38.406,39.548,16.463,38.87,14.65,17.994,10.947,10.107
52.201,51.217,24.442,45.052,22.961,24.871,10.955,13.21
62.357,58.697,27.831,46.996,26.465,26.501,10.957,13.95
65.457,62.389,26.376,46.781,24.316,24.405,11.63,13.374
67.527,66.918,24.979,47.354,22.591,23.916,12.277,12.902
71.082,70.245,24.313,45.093,23.787,22.395,10.055,10.524
70.471,67.257,21.161,37.216,22.958,15.616,6.388,6.106
65.561,62.369,18.614,31.357,19.077,10.864,7.203,4.913
63.061,62.625,21.223,33.477,17.978,14.816,12.384,8.863
63.621,65.703,24.798,38.132,21.086,21.886,15.481,11.89
63.429,66.933,24.242,40.899,23.748,27.162,14.473,10.298
61.778,66.016,21.96,43.549,24.229,30.902,12.197,8.305
57.558,61.567,21.338,45.475,24.303,30.63,10.391,10.107
49.926,52.95,22.062,45.297,24.105,26.283,10.462,14.916
42.544,44.783,22.751,44.434,22.429,22.236,12.911,19.096
38.151,40.291,21.983,42.64,18.971,19.071,14.489,19.242
36.3,39.144,20.101,39.872,15.429,16.42,12.959,15.763
38.385,42.449,20.23,39.756,15.097,17.673,11.016,12.682
43.925,48.885,21.997,42.42,17.22,21.66,10.654,12.331
45.747,51.277,19.596,41.497,15.603,20.518,9.31,12.302
40.65,46.67,12.555,34.921,9.179,13.099,6.029,9.755
35.2,41.09,8.923,29.701,5.416,8.636,5.191,7.236
32.434,37.747,11.616,30.479,7.983,11.563,8.151,8.312
27.753,32.32,13.788,32.659,11.133,14.682,9.755,10.307
20.873,23.953,12.575,32.092,10.703,12.413,8.633,9.701
18.463,19.937,14.19,32.936,11.323,10.458,9.501,8.767
23.794,24.18,20.759,38.994,16.602,15.235,12.729,9.698
30.281,28.808,24.589,44.562,21.108,21.516,13.303,10.238
30.08,26.108,20.983,42.776,19.474,20.736,10.114,8.958
25.23,20.212,15.559,35.992,14.83,13.866,7.336,7.698
21.919,17.619,13.865,30.039,12.159,6.751,7.246,7.522
20.109,17.236,14.386,26.203,11.417,2.301,7.522,6.342
17.281,15.935,14.964,23.662,11.252,1.818,5.955,2.581
14.003,13.672,15.622,22.099,11.435,3.792,3.237,-1.099
10.763,10.353,14.914,20.646,10.693,3.092,0.788,-1.529
7.142,5.584,12.38,19.892,8.944,-0.029,0.083,0.446
3.844,1.1,9.95,21.316,7.655,0.462,1.468,1.431
1.455,-1.749,7.145,23.325,5.746,4.294,1.612,-1.061
-0.236,-3.891,2.452,24.486,1.631,6.535,-1.377,-4.789
-2.22,-6.463,-2.517,26.603,-3.313,7.687,-3.651,-4.532
-4.737,-8.855,-4.581,29.858,-6.033,10.178,-2.687,-0.468
-4.683,-8.06,-1.089,31.452,-3.609,11.708,-0.295,2.793
-0.017,-2.759,8.407,30.276,4.149,8.86,2.627,4.382
3.934,1.04,19.295,27.132,12.762,1.194,5.562,5.433
-0.46,-4.407,23.841,22.373,15.498,-8.57,6.489,4.219
-11.715,-16.479,20.342,18.484,10.874,-14.899,5.407,0.616
-19.813,-24.906,16.32,19.649,6.669,-14.137,4.809,-0.737
-19.575,-25.993,17.114,24.859,8.914,-8.515,5.587,1.714
-15.828,-24.418,18.476,28.21,12.527,-3.197,5.534,2.369
-13.978,-23.931,16.026,27.337,11.299,-0.987,3.031,-1.877
-14.069,-24.707,12.48,25.082,7.439,-0.643,0.831,-5.427
-14.621,-26.161,11.194,23.487,5.495,-0.78,1.831,-3.292
-14.924,-27.011,11.257,22.22,5.574,-1.693,3.283,0.624
-14.803,-25.694,11.194,21.373,5.822,-2.075,2.66,1.206
-15.213,-23.199,11.702,21.36,6.571,-0.225,2.935,0.761
-17.27,-22.865,13.173,21.059,9.185,0.844,5.009,2.173
-20.979,-26.411,13.026,18.463,11.158,-3.612,4.886,1.802
-24.16,-31.134,9.145,14.351,7.753,-10.676,1.645,-2.506
-23.943,-32.417,5.163,12.388,1.544,-12.253,-0.672,-5.938
-22.336,-30.862,5.475,12.388,-0.316,-9.408,-0.105,-5.954
-24.265,-31.827,7.991,10.496,1.649,-10.87,1.025,-6.167
-28.282,-34.67,10.021,8.285,3.977,-15.95,2.707,-8.087
-28.117,-33.001,13.614,10.659,9.097,-15.892,7.27,-8.977
-22.838,-27.407,17.768,16.14,15.533,-9.6,10.964,-6.354
-17.669,-24.286,16.844,20.321,14.699,-2.07,8.632,-0.132
-16.718,-24.048,11.492,23.526,7.39,4.904,3.941,5.681
-20.341,-24.069,7.903,25.955,3.682,8.4,1.955,6.287
-26.364,-25.655,7.026,24.526,4.909,4.399,2.121,4.203
-30.506,-28.129,6.511,20.86,5.12,-1.701,3.766,5.325
-30.704,-27.634,6.276,20.288,3.379,-1.306,6.14,7.706
-30.136,-24.496,5.946,22.425,2.038,3.226,6.504,6.651
-31.531,-22.39,4.431,23.211,1.207,4.365,4.404,5.036
-34.099,-23.088,1.875,21.473,-0.38,1.07,2.621,6.101
-36.41,-25.386,-0.611,18.737,-2.367,-2.472,3.352,6.01
-36.673,-25.818,-1.029,17.24,-2.201,-3.207,6.028,2.753
-33.568,-21.62,1.821,18.793,1.101,-1.12,8.973,1.786
-29.48,-15.278,5.966,22.854,4.822,2.872,11.444,6.571
-28.961,-12.384,8.11,25.914,6.462,7.063,12.155,11.68
-32.077,-13.285,7.729,25.694,6.472,8.899,9.896,11.208
-32.73,-12.696,7.585,24.829,6.581,9.303,7.578,7.764
-27.942,-8.964,8.588,25.862,6.701,10.521,10.019,7.327
-24.493,-7.503,6.804,25.808,4.017,9.364,16.464,10.246
-28.352,-11.89,0.35,22.204,-1.578,4.247,19.605,11.776
-34.218,-17.159,-5.661,19.245,-5.397,1.737,14.996,9.634
-35.27,-17.581,-6.632,20.575,-5.629,4.691,7.158,6.901
-33.889,-15.197,-4.482,23.443,-5.275,7.782,2.333,6.515
-34.995,-15.154,-3.183,24.642,-6.491,8.764,1.175,7.944
-38.41,-18.717,-3.872,23.861,-8.496,8.402,1.063,9.599
-41.642,-23.675,-5.243,21.436,-8.944,5.246,1.259,10.124
-42.556,-26.595,-6.299,18.711,-8.453,0.57,3.193,9.092
-39.031,-24.63,-7.242,17.313,-10.582,-1.374,5.469,7.941
-31.973,-18.598,-7.609,17.428,-14.107,1.166,4.3,7.943
-26.28,-13.059,-5.974,19.025,-13.901,6.28,1.395,8.43
-25.431,-12.066,-2.747,20.577,-10.181,8.74,2.222,7.947
-28.226,-15.782,-1.164,18.702,-8.474,4.944,5.584,6.179
-29.416,-19.535,-2.298,14.922,-9.816,0.105,5.456,4.703
-23.418,-17.888,-2.743,15.371,-9.734,1.669,1.755,4.989
-12.559,-12.15,-1.108,20.149,-7.98,6.794,0.34,6.79
-6.369,-8.188,0.74,23.792,-6.858,8.084,4.096,9.393
-8.003,-7.926,3.15,24.969,-3.859,6.365,10.3,12.288
-10.956,-9.309,7.06,25.799,1.902,6.473,15.141,14.504
-10.988,-10.534,10.327,26.556,5.676,8.411,16.297,14.502
-10.684,-11.332,9.498,26.615,3.942,10.084,13.259,11.533
-12.925,-12.956,3.185,25.36,-2.421,10.706,8.403,6.951
-16.763,-16.446,-4.921,21.512,-8.745,8.405,4.289,2.502
-18.364,-19.953,-7.743,15.613,-8.982,2.521,0.204,-1.817
-15.676,-21.054,-3.004,10.474,-2.103,-3.037,-3.35,-5.714
-12.441,-21.288,2.606,6.818,4.935,-6.318,-2.928,-6.792
-13.384,-23.424,1.05,2.286,4.397,-10.711,-0.451,-5.154
-16.859,-26.201,-6.981,-3.944,-2.212,-16.867,-1.589,-4.799
-18.346,-26.679,-14.205,-9.118,-7.08,-20.546,-4.683,-6.73
-19.08,-26.237,-17.717,-11.345,-8.825,-20.666,-5.725,-8.483
-22.049,-28.016,-19.817,-11.591,-11.892,-20.178,-6.507,-8.634
-22.658,-29.255,-19.561,-9.652,-14.933,-18.897,-7.021,-6.708
-16.55,-26.074,-14.837,-5.167,-13.216,-15.436,-4.471,-3.952
-9.96,-22.351,-9.59,-1.839,-8.947,-13.428,-1.402,-2.761
-8.724,-22.295,-8.603,-2.383,-7.441,-15.224,-1.92,-3.489
-8.297,-21.728,-9.337,-3.148,-7.476,-16.118,-4.063,-4.579
-4.446,-16.869,-6.466,-0.402,-4.717,-12.74,-3.213,-4.446
-1.952,-13.876,-2.322,2.337,-2.172,-9.598,-0.683,-4.356
-7.135,-20.849,-4.973,-1.376,-6.842,-12.89,-3.048,-7.977
-17.674,-33.867,-13.955,-9.431,-16.234,-20.426,-9.969,-13.569
-22.598,-39.379,-17.475,-10.777,-19.169,-21.641,-11.271,-13.159
-15.623,-32.405,-9.176,-1.566,-11.066,-11.817,-3.557,-5.457
-5.237,-22.929,2.077,8.175,-0.001,-0.226,3.303,0.647
-2.587,-20.315,5.553,9.599,4.832,2.091,3.374,0.207
-7.266,-23.465,1.582,4.441,3.296,-5.072,1.571,-3.028
-13.755,-28.815,-4.233,-2.371,-0.525,-14.082,1.364,-6.469
-20.144,-35.817,-9.344,-8.14,-4.547,-19.593,0.989,-10.134
-23.734,-41.298,-11.877,-10.263,-6.026,-21.079,0.251,-10.515
-20.578,-39.609,-9.89,-7.19,-2.831,-17.972,0.66,-5.338
-14.528,-33.774,-7.346,-3,-0.133,-12.478,0.735,-1.171
-13.046,-32.986,-9.768,-3.439,-3.536,-11.169,-1.756,-4.119
-14.01,-36.37,-13.73,-7.113,-7.516,-14.802,-5.08,-9.028
-12.081,-35.749,-13.391,-8.192,-5.539,-17.432,-5.953,-8.724
-9.804,-31.017,-11.449,-5.198,-2.61,-16.09,-4.55,-4.883
-9.46,-27.93,-12.247,-1.353,-3.779,-12.345,-3.685,-2.511
-8.433,-27.382,-13.694,0.354,-5.514,-9.496,-4.047,-2.674
-7.192,-26.898,-13.434,-1.07,-6.535,-10.646,-4.646,-4.77
-7.342,-26.365,-12.773,-4.575,-8.545,-14.349,-6.567,-9.03
-6.251,-25.825,-11.97,-7.158,-8.292,-15.964,-8.752,-13.768
-2.778,-23.287,-10.453,-7.023,-5.229,-15.734,-6.45,-15.259
0.478,-18.609,-9.243,-5.565,-4.54,-16.631,-1.607,-12.219
2.483,-14.969,-8.619,-4.291,-5.838,-16.561,-1.426,-7.617
4.042,-14.884,-8.001,-3.438,-4.926,-14.086,-4.672,-4.925
5.165,-16.703,-7.532,-3.425,-3.159,-13.613,-4.777,-3.994
4.843,-17.135,-7.057,-4.244,-3.192,-15.867,-2.876,-3.509
2.339,-16.486,-6.29,-4.735,-3.266,-15.097,-4.55,-4.233
-0.529,-15.808,-5.84,-3.9,-2.002,-10.441,-7.803,-6.004
-0.48,-13.509,-5.853,-2.777,-0.922,-8.528,-6.206,-6.797
2.354,-11.437,-5.179,-3.517,0.002,-12.067,-0.337,-6.084
4.333,-13.914,-3.718,-5.858,1.676,-15.737,3.215,-5.178
2.841,-19.238,-3.923,-8.291,1.638,-16.573,0.005,-5.69
-1.752,-22.843,-7.347,-11.166,-2.009,-18.333,-6.918,-8.246
-6.257,-23.275,-11.039,-12.962,-6.01,-20.775,-9.053,-10.096
-7.946,-21.53,-11.974,-10.278,-7.76,-17.602,-5.458,-8.144
-7.956,-20.162,-11.766,-5.579,-8.413,-9.666,-4.262,-5.036
-7.036,-19.275,-10.862,-3.924,-6.356,-4.45,-4.092,-4.04
-5.549,-17.368,-8.032,-5.614,-0.567,-5.411,2.09,-3.857
-8.691,-18.702,-9.251,-10.894,-0.196,-12.665,3.95,-5.268
-16.531,-24.694,-18.261,-18.665,-10.326,-21.564,-8.116,-9.137
-18.77,-26.212,-24.323,-22.136,-17.678,-24.321,-17.344,-9.915
-13.995,-21.522,-20.814,-20.405,-13.54,-22.73,-10.867,-6.582
-12.976,-20.224,-16.94,-20.511,-8.34,-22.954,-1.946,-6.306
-17.138,-21.95,-18.032,-22.592,-9.773,-21.919,-1.193,-9.294
-18.292,-18.696,-18.521,-21.077,-12.987,-16.017,-2.179,-9.314
-15.765,-13.717,-16.148,-17.057,-13.689,-11.673,0.194,-6.461
-14.138,-14.619,-14.316,-15.642,-13.385,-14.74,1.715,-4.193
-11.819,-17.257,-13.122,-15.916,-12.7,-18.937,-0.002,-2.096
-5.657,-13.838,-9.589,-13.05,-8.829,-16.051,-0.081,1.018
-0.084,-8.594,-5.322,-8.459,-2.778,-10.497,3.831,2.919
-0.423,-9.512,-5.412,-8.592,-1.056,-11.499,5.191,0.357
-3.067,-13.077,-9.485,-13.23,-5.058,-16.79,-0.439,-5.022
-2.721,-13.188,-12,-15.64,-8.009,-17.455,-6.008,-7.626
-0.656,-11.873,-10.658,-14.244,-5.602,-14.168,-3.917,-6.089
2.011,-9.527,-6.904,-12.415,-0.417,-12.589,1.623,-4.377
7.055,-3.163,-1.598,-9.863,5.063,-9.594,2.871,-4.669
11.646,1.658,3.165,-5.857,9.476,-3.319,1.659,-4.725
10.763,-2.6,2.648,-4.117,7.336,-2.829,2.261,-2.537
6.248,-10.372,-3.374,-5.348,-2.526,-9.403,1.115,-0.114
3.417,-12.075,-7.365,-4.968,-8.334,-10.669,-2.879,-0.572
3.028,-8.588,-5.103,-2.281,-3.439,-4.413,-2.567,-2.85
2.909,-5.223,-1.891,-0.825,0.938,-1.688,4.591,-3.059
2.81,-3.545,-1.796,-0.271,-2.299,-4.066,11.999,-0.801
4.123,-3.6,-2.403,2.293,-4.849,-2.882,12.956,1.099
6.383,-4.776,-3.526,5.816,-4.67,2.287,6.824,1.881
6.869,-4.868,-8.027,6.968,-9.667,4.47,-2.354,1.742
4.974,-2.832,-13.53,5.184,-16.958,2.548,-10.068,-0.548
3.897,-0.165,-14.355,2.391,-15.957,0.794,-13.243,-4.447
5.435,1.363,-10.746,-0.041,-8.142,0.703,-11.605,-7.123
6.696,1.955,-8.209,-2.353,-3.831,-0.082,-8.084,-7.388
6.325,4.271,-8.394,-4.283,-4.878,-2.321,-4.263,-6.125
8.157,9.269,-8.462,-4.846,-5.333,-3.453,-0.796,-4.328
13.962,13.245,-8.054,-5.082,-4.29,-2.679,-2.145,-3.315
19.787,13.404,-8.104,-6.496,-4.403,-1.987,-8.219,-3.443
21.104,10.211,-7.828,-9.327,-4.391,-3.828,-9.913,-3.811
18.104,4.983,-7.728,-13.749,-3.164,-9.823,-4.224,-4.467
16.603,2.631,-7.698,-16.723,-1.712,-14.45,1.284,-4.784
20.015,7.381,-5.126,-13.805,1.008,-9.56,1.415,-3.428
22.38,12.643,-1.423,-8.769,3.982,-1.756,-0.991,-1.417
18.847,9.8,-1.74,-9.072,2.602,-3.808,-1.185,-1.191
14.475,2.268,-6.134,-13.06,-2.831,-11.32,-1.097,-4.564
13.379,-2.289,-10.071,-14.545,-7.137,-12.674,-4.96,-10.226
12.903,-2.498,-10.895,-13.011,-7.589,-10.016,-7.513,-12.381
11.857,-0.027,-7.934,-10.998,-3.437,-10.675,-1.099,-7.553
12.814,4.159,-1.485,-8.936,4.818,-12.436,11.489,-0.257
16.305,8.3,4.453,-7.221,11.597,-10.615,20.366,3.087
19.167,9.361,4.164,-8.166,10.602,-7.852,17.015,1.663
20.066,8.052,-1.162,-11.445,4.662,-7.732,3.507,-0.941
21.209,8.629,-3.732,-12.657,2.641,-7.822,-5.847,-2.314
22.782,9.789,-0.513,-9.919,6.854,-5.232,-2.684,-2.344
21.804,6.861,3.738,-5.779,10.954,-2.167,5.288,0.243
16.744,2.084,4.314,-2.186,9.449,-1.369,10.147,6.302
11.12,1.738,2.225,1.374,5.372,-0.579,13.155,11.774
10.96,7,2.145,5.662,5.618,3.869,15.586,12.438
16.161,13.019,5.839,9.851,10.439,10.551,16.593,10.885
19.964,15.549,10.165,12.016,14.784,14.27,17.634,11.604
19.307,16.058,11.122,11.092,15.605,12.183,18.163,12.51
18.821,18.086,8.541,8.741,13.565,8.309,16.106,8.995
23.486,21.68,7.233,9.006,12.899,10.65,15.599,4.582
29.92,23.555,9.519,11.845,15.501,17.429,19.37,6.29
28.621,19.772,9.654,10.015,15.455,15.436,18.75,10.396
18.597,10.497,3.983,0.837,9.123,2.299,9.009,9.12
11.357,3.274,-1.137,-7.181,3.191,-7.571,1.396,6.076
13.517,4.42,-0.232,-8.378,3.865,-7.345,4.176,6.893
17.822,9.78,2.803,-7.588,8.049,-5.341,9.616,7.344
18.754,13.475,3.622,-7.594,10.473,-4.84,9.765,4.782
21.435,16.026,4.715,-5.168,12.127,-0.685,7.609,4.181
26.196,15.746,7.628,-2.631,15.605,3.895,6.492,5.745
22.624,8.507,6.804,-5.951,15.499,0.502,3.888,4.07
9.39,-0.646,-0.328,-11.78,6.173,-6.797,0.233,0.881
0.682,-2.303,-5.805,-11.881,-3.451,-7.085,0.529,1.64
4.097,2.977,-3.331,-6.721,-1.813,-1.168,5.53,4.056
10.632,7.376,1.785,-3.069,5.384,1.523,10.635,4.174
12.416,8.85,2.625,-3.026,6.106,-0.999,12.109,3.806
13.768,11.434,0.565,-3.687,1.741,-2.963,10.277,4.327
19.028,15.158,0.818,-3.021,2.195,-0.916,9.993,4.677
23.406,16.776,5.167,-0.632,10.199,3.737,16.609,5.905
23.075,17.914,10.534,3.185,18.058,7.863,24.949,8.783
21.398,20.08,11.84,5.537,17.413,8.529,21.342,9.877
18.943,17.273,6.133,0.95,8.201,3.172,5.173,5.318
12.917,7.336,-2.935,-10.506,-1.49,-6.579,-5.558,-2.562
8.365,0.79,-6.432,-18.474,-3.086,-11.981,0.243,-6.104
10.948,3.199,-3.97,-16.934,0.255,-8.769,7.902,-3.881
15.136,5.577,-5.086,-13.353,-1.393,-4.913,2.225,-2.8
16.239,4.95,-8.723,-12.396,-4.01,-5.716,-4.712,-3.208
17.795,8.853,-5.926,-9.584,0.655,-5.507,-0.605,0.098
19.284,15.644,-1.047,-5.304,4.168,-0.936,2.85,3.212
15.969,16.224,-3.552,-5.676,-2.457,2.013,-2.969,-0.011
9.992,10.322,-10.207,-10.533,-12.014,-1.445,-8.424,-5.497
8.359,6.248,-11.199,-12.592,-13.66,-6.184,-4.933,-6.007
13.479,9.927,-3.478,-8.089,-5.055,-4.396,4.524,-0.999
20.041,16.685,5.759,-2.752,6.229,1.345,9.364,3.416
20.799,17.04,6.845,-4.107,7.995,0.056,2.03,1.532
16.752,12.294,1.186,-10.194,-0.55,-9.45,-8.502,-3.861
16.067,11.635,-1.107,-12.967,-6.557,-14.748,-9.524,-6.173
20.379,15.214,1.771,-11.138,-4.997,-11.179,-6.303,-5.486
21.628,15.436,3.597,-10.088,-2.66,-8.275,-5.766,-4.956
15.361,10.676,3.686,-11.359,-1.005,-10.346,-0.328,-4.132
7.163,6.098,4.659,-11.977,2.598,-11.637,9.745,-3.091
2.954,4.603,4.477,-11.336,4.503,-9.95,10.179,-4.434
2.509,4.761,1.606,-10.848,1.641,-8.313,0.542,-7.484
3.311,4.978,-1.749,-10.76,-3.032,-7.835,-6.313,-8.676
2.39,3.327,-4.54,-11.941,-6.419,-8.62,-7.197,-8.015
-2.07,-1.395,-6.719,-14.851,-7.32,-10.298,-5.375,-8.113
-5.058,-3.29,-6.997,-14.762,-5.852,-8.039,-3.674,-8.868
1.091,4.65,-4.704,-6.734,-3.723,1.775,-7.396,-8.35
14.547,17.248,-0.841,4.349,-1.974,12.215,-14.971,-6.308
26.131,24.431,3.564,9.479,0.11,13.915,-14.826,-3.391
30.019,25.089,7.405,8.043,2.78,9.74,-4.464,-0.709
24.689,21.761,7.65,4.664,3.526,8.654,1.912,-1.203
11.986,14.519,2.195,0.286,-0.939,8.651,-5.386,-6.009
-0.882,6.447,-4.254,-5.767,-6.982,1.619,-15.342,-10.652
-5.989,3.485,-3.314,-10.514,-4.418,-8.092,-11.92,-10.349
-1.733,7.614,4.792,-10.623,6.54,-9.238,1.178,-6.427
6.202,13.987,8.922,-8.886,10.483,-3.926,4.26,-4.044
9.745,15.267,2.401,-10.643,0.201,-3.532,-9.058,-5.913
7.92,11.709,-6.429,-13.974,-10.946,-8.391,-21.156,-9.186
7.464,10.913,-7.094,-12.304,-10.697,-8.18,-18.289,-9.51
9.287,13.56,-2.403,-7.151,-4.882,-2.049,-9.99,-7.454
6.99,12.21,-1.344,-7.032,-3.928,-1.355,-8.832,-6.749
1.27,6.215,-4.935,-12.996,-7.494,-8.885,-12.428,-8.659
0.839,4.315,-6.358,-15.481,-8.496,-12.436,-11.089,-10.377
8.89,11.66,-0.814,-8.207,-3.792,-4.061,-1.747,-8.004
18.373,22.315,7.181,1.526,2.31,7.123,4.983,-3.134
20.891,26.228,8.653,2.704,3.579,7.811,-1.487,-2.2
14.907,20.043,1.484,-4.949,-1.601,-1.919,-14.387,-7.434
4.662,9.015,-8.593,-14.112,-10.531,-12.114,-22.806,-15.548
-4.577,0.551,-16.1,-20.542,-19.779,-17.366,-27.733,-22.921
-9.302,-1.856,-19.372,-24.513,-25.526,-20.222,-32.067,-26.942
-8.073,1.543,-17.287,-25.802,-23.374,-23.195,-32.536,-26.444
-2.118,8.298,-9.752,-22.445,-14.256,-22.953,-26.433,-22.61
3.269,13.084,-2.838,-16.048,-7.863,-16.64,-17.029,-18.151
1.962,11.227,-4.428,-13.173,-11.564,-9.609,-14.159,-16.762
-6.968,3.208,-14.019,-17.63,-21.472,-9.639,-24.946,-20.698
-18.004,-6.374,-23.463,-25.201,-29.838,-15.855,-38.672,-26.892
-23.699,-12.265,-26.149,-29.254,-32.255,-20.026,-38.974,-30.418
-22.013,-12.712,-23.154,-29.738,-28.86,-20.385,-30.595,-31.044
-18.259,-10.826,-20.629,-31.816,-24.738,-24.257,-29.137,-31.318
-16.907,-9.878,-20.848,-35.575,-23.588,-31.703,-34.145,-31.557
-17.045,-9.997,-20.541,-35.774,-23.078,-33.967,-34.043,-30.478
-17.982,-10.418,-18.478,-32.937,-21.193,-31.298,-27.218,-28.768
-20.342,-10.857,-17.117,-32.826,-19.795,-31.041,-23.276,-28.927
-22.932,-11.956,-18.756,-36.007,-21.612,-32.855,-29.311,-31.534
-25.3,-16.048,-24.222,-38.77,-27.778,-33.079,-42.204,-34.801
-28.137,-22.674,-30.538,-39.941,-34.559,-33.301,-51.759,-36.994
-29.226,-25.751,-32.222,-40.094,-35.599,-34.409,-52.147,-37.486
-25.685,-21.308,-28.683,-38.948,-29.936,-33.238,-47.61,-36.986
-19.368,-12.925,-23.618,-35.798,-21.209,-28.87,-41.748,-35.736
-13.738,-5.17,-17.959,-29.734,-12.658,-22.965,-30.74,-31.622
-9.288,0.735,-13.138,-22.81,-9.544,-17.551,-18.207,-25.25
-7.729,2.598,-16.423,-22.648,-17.789,-17.662,-21.064,-23.696
-12.431,-2.187,-29.778,-32.473,-32.807,-25.763,-40.903,-30.165
-19.988,-10.083,-41.036,-42.044,-39.82,-33.32,-55.279,-37.258
-21.104,-12.772,-39.37,-40.663,-31.835,-31.036,-51.971,-38.277
-13.597,-7.762,-29.537,-33.316,-16.931,-24.107,-40.366,-35.043
-5.933,-1.654,-22.44,-30.917,-6.194,-22.962,-32.907,-31.989
-5.517,-0.487,-22.318,-32.826,-4.172,-25.697,-35.444,-30.994
-11.725,-4.241,-27.627,-33.369,-9.625,-25.93,-43.883,-31.85
-18.521,-9.258,-34.344,-33.406,-16.783,-25.407,-48.755,-33.175
-19.075,-10.258,-36.03,-33.294,-17.187,-25.518,-47.108,-33.163
-14.313,-5.977,-30.369,-30.296,-9.767,-23.929,-41.497,-31.209
-12.597,-1.735,-23.977,-27.08,-4.227,-22.862,-33.992,-28.428
-16.122,-1.584,-22.979,-28.011,-5.904,-24.999,-28.745,-26.631
-19.652,-4.085,-25.247,-30.226,-9.095,-26.018,-27.793,-26.003
-21.161,-6.655,-26.641,-28.895,-9.146,-21.947,-26.44,-24.987
-22.169,-9.019,-27.402,-26.433,-8.14,-18.109,-24.81,-24.148
-22.128,-11.23,-28.115,-27.238,-8.101,-20.286,-28.005,-24.536
-18.582,-10.22,-25.339,-27.949,-6.617,-23.266,-31.537,-23.491
-11.707,-3.44,-17.633,-23.471,-1.516,-20.558,-29.326,-20.152
-6.203,4.627,-9.848,-16.147,4.84,-14.728,-25.026,-17.993
-5.202,7.211,-5.515,-9.84,9.553,-8.499,-19.899,-16.589
-5.882,4.901,-3.765,-4.552,10.962,-1.049,-12.932,-12.744
-5.982,2.393,-5.491,-2.106,6.457,3.295,-12.546,-9.349
-8.38,-0.136,-11.701,-5.593,-2.612,-0.765,-22.701,-10.807
-14.701,-3.963,-18.127,-11.39,-9.083,-8.017,-32.29,-14.837
-19.719,-6.282,-19.546,-12.011,-8.696,-8.952,-32.826,-16.813
-17.657,-4.628,-16.172,-6.132,-4.543,-3.189,-28.513,-16.34
-11.562,-1.205,-12.039,1.268,-1.158,2.509,-25.303,-15.387
-9.033,0.633,-9.611,5.867,1.201,4.394,-22.586,-14.226
-10.746,0.4,-9.095,6.485,3.12,3.852,-20.911,-13.381
-11.488,0.17,-9.371,4.36,3.781,3.289,-24.187,-14.363
-9.477,2.023,-7.011,2.398,5.979,3.244,-27.011,-15.629
-6.638,6.097,-0.471,2.476,12.655,3.23,-21.942,-14.916
-4.137,9.943,5.081,2.736,18.346,3.094,-17.496,-14.134
-3.407,10.214,4.802,-0.385,16.955,1.569,-22.4,-15.363
-5.409,7.284,2.36,-5.903,13.402,-1.371,-25.983,-15.967
-7.648,5.35,2.145,-8.795,13.498,-1.998,-19.273,-13.443
-6.796,6.476,1.599,-8.471,13.399,0.358,-12.481,-10.985
-2.391,8.909,-0.389,-8.443,10.458,1.133,-11.643,-11.146
2.038,9.626,-0.564,-9.774,7.889,-2.016,-9.408,-10.393
1.189,6.301,-0.665,-12.542,5.35,-7.566,-8.207,-8.248
-4.53,0.876,-4.865,-16.239,1.05,-12.283,-15.7,-9.782
-7.783,-0.878,-9.878,-16.841,-1.801,-12.123,-24.511,-14.121
-5.273,2.403,-10.941,-12.489,-1.993,-7.241,-25.892,-15.144
-2.673,5.971,-10.643,-7.31,-3.63,-2.638,-23.149,-12.201
-4.594,7.266,-11.604,-3.839,-6.656,0.393,-20.246,-8.78
-6.99,8.877,-9.468,0.708,-4.721,6.061,-15.95,-4.3
-4.936,12.574,-1.806,7.156,3.591,14.306,-10.188,2.857
-1.323,15.914,4.267,10.247,8.746,17.261,-7.898,7.379
-0.725,17.19,2.753,7.461,3.102,12.267,-11.074,4.536
-1.478,19.181,-0.914,5.255,-5.59,9.498,-12.939,-0.318
0.46,24.853,0.774,9.252,-5.449,16.517,-10.365,-0.999
6.161,32.86,7.44,16.703,3.299,27.474,-8.421,1.788
13.584,38.396,15.476,22.4,13.41,33.94,-7.382,6.159
19.241,37.824,22.143,24.038,19.241,33.577,-2.398,11.153
23.334,34.613,25.807,23.539,19.805,28.765,5.938,15.81
29.159,35.899,27.131,24.203,19.594,23.617,11.416,19.589
32.996,39.612,25.13,23.372,18.228,18.931,9.182,19.648
28.67,38.137,17.923,17.622,10.274,13.977,0.569,14.26
21.535,34.653,10.95,13.756,1.253,13.726,-7.142,9.076
19.502,35.783,10.674,17.922,0.757,21.048,-8.037,9.35
18.176,35.677,12.273,21.73,3.912,26.078,-4.824,11.046
11.589,27.992,8.403,16.394,1.284,19.767,-4.123,9.038
5.875,20.725,3.282,9.492,-3.817,11.236,-5.5,6.353
8.847,23.19,5.588,12.458,-2.154,14.152,-2.552,8.41
16.754,30.847,13.557,21.909,5.193,24.225,4.637,13.491
20.307,33.885,17.67,26.684,8.15,28.341,8.45,14.937
16.125,30.111,14.661,24.213,3.242,24.601,6.77,11.66
8.538,23.219,9.47,19.432,-3.494,19.536,5.048,9.019
3.764,17.44,6.019,15.228,-7.552,16.346,3.323,8.861
2.568,14.571,3.803,11.099,-10.082,13.19,-3.776,7.905
1.732,13.373,2.843,8.712,-12.795,10.182,-11.586,6.399
0.308,12.568,4.127,11.204,-15.33,11.165,-12.233,7.002
-3.467,10.115,4.623,14.882,-16.937,14.758,-11.686,6.138
-11.214,4.969,2.022,14.442,-16.774,16.43,-14.711,0.992
-16.302,2.274,1.874,14.759,-13.452,18.582,-10.426,0.028
-12.536,5.795,8.916,21.006,-6.08,23.454,6.44,9.67
-5.199,10.995,16.807,27.037,2.17,26.975,19.24,20.001
-0.413,14.4,17.765,26.982,5.641,28.285,14.088,20.888
2.415,17.206,14.626,23.934,4.879,29.89,3.207,17.308
2.38,17.808,12.753,20.997,4.426,29.611,1.726,16.113
-2.743,14.077,11.69,17.475,4.75,25.706,5.856,16.707
-9.344,9.593,10.413,13.779,4.339,21.797,8.673,17.582
-11.024,9.922,10.406,11.997,4.426,21.275,11.168,18.02
-6.086,15.882,13.005,12.88,8.226,24.13,14.06,17.374
-0.126,21.326,15.019,12.446,12.3,25.109,12.077,15.291
0.165,19.202,9.887,5.266,5.853,17.722,0.935,10.481
-2.745,11.993,-1.143,-5.283,-10.712,6.3,-11.98,3.789
-1.361,8.826,-8.539,-9.862,-22.812,0.806,-16.021,-0.136
4.031,11.747,-8.187,-6.846,-23.282,1.978,-11.788,1.804
8.16,15.705,-2.963,-1.403,-16.85,5.952,-3.324,8.191
8.948,17.762,3.671,3.055,-8.938,10.738,7.045,14.08
5.452,16.536,6.37,3.431,-5.57,11.308,8.63,13.372
-1.357,11.164,2.916,-1.705,-9.148,4.9,-2.432,6.725
-6.019,5.245,0.267,-6.42,-11.79,-1.14,-8.758,2.478
-5.959,3.235,2.541,-4.819,-9.089,0.125,-2.66,3.427
-4.08,4.596,4.3,0.526,-7.879,5.901,1.201,4.83
-1.38,6.57,3.675,5.559,-10.086,11.349,-1.73,6.794
1.104,7.227,5.445,10.432,-8.724,15.282,0.629,12.886
-1.286,5.022,8.843,14.677,-4.216,17.152,9.44,19.305
-7.04,1.179,8.817,16.52,-4.465,17.246,11.854,19.866
-8.945,-0.627,6.73,16.554,-8.794,17.678,6.589,16.731
-8.34,0.072,6.595,15.643,-9.849,18.552,6.032,15.48
-11.242,0.242,7.553,13.302,-7.013,17.673,11.312,16.256
-15.601,-1.653,7.136,10.547,-5.924,15.493,11.019,16.164
-15.674,-3.509,5.428,9.46,-8.735,14.696,4.389,14.789
-11.023,-2.489,5.052,10.977,-10.051,16.715,3.562,14.326
-6.306,-0.256,7.466,14.216,-5.862,21.635,11.96,16.02
-6.031,-1.027,9.39,15.8,-1.545,26.725,19.015,18.239
-9.613,-3.927,8.21,12.712,-1.13,25.978,18.745,18.132
-13.572,-5.84,5.274,5.462,-1.733,16.536,14.078,13.7
-18.431,-9.421,-1.023,-4.124,-6.648,2.731,4.41,5.815
-25.268,-16.598,-11.158,-12.74,-19.417,-7.983,-7.244,-0.265
-29.097,-20.877,-16.484,-14.879,-28.745,-10.183,-7.741,0.338
-26.833,-18.299,-13.032,-10.337,-26.921,-4.726,1.675,4.597
-22.332,-14.029,-8.926,-5.253,-23.402,2.401,2.573,6.621
-17.46,-11.008,-7.382,-1.699,-23.359,7.853,-6.141,8.008
-10.996,-6.486,-2.526,3.398,-19.286,12.762,-6.147,12.799
-4.691,0.006,6.198,10.585,-9.07,18.173,7.189,18.576
-0.974,5.509,11.603,16.613,-2.416,22.95,18.086,20.835
-0.394,7.149,9.443,17.617,-6.116,23.71,15.02,18.834
-4.496,3.247,3.048,12.356,-13.919,17.832,5.342,14.046
-13.082,-4.966,-1.719,5.23,-16.502,9.302,1.802,8.871
-19.575,-12.849,-2.768,2.478,-14.517,5.954,3.824,5.905
-18.448,-15.686,-2.64,4.485,-14.765,9.376,3.018,5.659
-14.42,-12.939,-4.173,6.745,-18.848,14.305,-0.278,6.624
-13.742,-7.958,-5.697,7.471,-20.73,17.567,2.39,7.903
-12.53,-2.42,-3.099,9.391,-15.751,20.859,12.958,10.072
-7.465,2.379,0.886,12.358,-10.733,23.251,17.42,11.623
-5.005,2.517,-0.473,12.09,-13.853,20.519,5.933,10.678
-7.912,-1.503,-4.678,9.011,-19.052,14.626,-4.669,10.926
-9.893,-3.702,-4.231,7.993,-17.618,12.05,1.555,15.313
-7.749,-1.381,0.62,10.118,-12.53,13.352,12.921,19.805
-5.265,1.85,3.515,11.581,-10.329,13.439,16.01,20.6
-6.222,1.019,0.516,8.978,-12.345,9.963,14.535,17.883
-10.656,-4.161,-6.603,3.406,-17.083,5.804,11.98,12.341
-15.303,-9.554,-12.653,-0.919,-22.379,4.098,5.944,6.259
-15.947,-11.903,-13.419,-1.364,-24.658,4.907,1.191,4.429
-11.865,-10.371,-8.467,1.393,-21.669,6.825,5.522,8.739
-6.807,-6.563,-1.227,5.099,-15.483,9.182,15.28,15.67
-5.793,-5.432,2.867,6.675,-10.274,10.858,20.679,19.945
-9.5,-8.824,2.164,4.685,-7.539,10.033,20.483,19.56
-11.291,-10.447,1.931,3.457,-5.369,8.877,20.049,18.507
-6.989,-6.039,6.111,7.633,-3.194,11.476,21.187,21.398
-2.822,-0.727,10.939,12.811,-2.461,15.12,22.366,25.851
-3.765,1.004,11.679,12.152,-2.881,15.042,22.529,26.376
-4.066,2.635,10.255,8.937,-2.338,14.158,21.631,24.252
0.651,6.993,11.122,9.868,0.572,16.134,21.329,24.636
4.601,10.465,12.985,13.071,3.776,18.433,23.243,26.241
3.215,10.536,11.531,14.254,2.867,19.69,25.648,24.847
0.301,8.785,7.404,14.148,-2.418,21.305,25.195,21.811
0.909,7.026,5.583,14.673,-5.747,22.184,22.473,20.736
4.5,6.93,7.436,15.896,-3.196,21.125,21.312,21.553
4.705,7.186,7.716,15.831,-0.695,18.482,22.718,21.681
-0.393,5.078,5.082,14.118,-2.194,15.761,25.64,20.921
-2.171,4.061,6.377,15.058,-1.264,16.605,28.085,21.755
2.108,6.672,11.966,19.758,3.426,21.789,25.189,23.924
2.28,7.195,13.646,23.066,3.871,26.708,17.158,24.542
-4.165,3.416,10.685,23.27,-0.087,27.787,12.638,23.863
-7.164,0.85,9.873,23.861,-0.603,26.34,16.392,24.812
-3.804,1.057,12.565,25.797,3.295,24.991,25.002,27.681
-1.808,0.393,14.478,26.622,6.194,23.977,32.028,29.077
-4.576,-1.971,13.324,24.977,5.867,22.421,30.26,26.479
-7.941,-4.242,10.43,21.547,4.075,20.037,19.617,21.711
-8.087,-5.054,8.762,18.842,2.681,17.961,10.725,18.332
-5.515,-4.144,10.21,20.023,2.404,18.958,10.935,17.683
-4.812,-3.984,12.321,23.606,2.269,22.173,15.293,18.61
-8.583,-6.302,11.67,24.612,0.925,22.421,17.266,19.704
-12.499,-8.017,10.073,23.265,-0.096,19.768,17.572,20.327
-12.488,-6.495,10.927,23.938,1.65,19.657,18.183,20.303
-9.081,-2.011,14.199,28.265,5.936,23.744,19.512,21.228
-3.725,4.636,17.827,34.506,10.348,29.317,22.297,24.329
-0.293,8.485,18.229,37.997,11.446,32.666,23.605,25.625
-2.329,4.268,13.738,34.623,8.362,31.026,20.066,21.388
-5.649,-2.513,9.329,27.616,5.666,25.749,16.376,16.751
-5.153,-2.715,10.474,24.554,7.519,21.773,19.144,18.066
-3.831,1.681,14.849,26.564,11.025,21.424,25.259,21.827
-5.463,3.085,17.022,27.388,11.678,21.626,25.615,21.617
-6.366,1.884,17.585,24.496,12.45,20.564,18.958,18.608
-2.022,3.163,20.745,22.708,18.431,20.753,15.438,17.933
4.471,6.166,25.477,23.877,25.731,21.658,21.111,19.861
8.056,7.517,26.524,23.648,26.189,19.82,26.26,19.994
9.86,8.592,23.902,21.209,20.916,17.178,23.889,18.52
11.458,10.504,22.554,20.171,17.818,17.176,22.343,19.724
8.822,9.205,21.685,19.528,16.686,16.762,22.813,20.829
1.01,2.809,17.099,15.972,12.135,12.927,16.459,16.53
-4.704,-3.444,12.669,12.038,8.218,9.203,9.226,11.181
-3.15,-3.764,15.064,12.459,11.885,9.059,13.163,11.779
2.185,1.541,21.227,16.775,18.33,11.086,20.953,16.143
4.87,6.763,22.521,20.14,18.371,12.468,18.852,17.365
2.31,6.063,16.898,18.425,12.74,11.24,11.837,14.187
-2.846,-0.572,9.546,11.947,8.328,6.818,12.168,10.803
-6.961,-7.49,4.68,5.47,7.33,2.071,16.39,8.944
-9.692,-10.809,2.236,3.354,7.677,1.778,15.761,6.826
-11.822,-11.569,2.173,5.248,10.775,6.531,15.421,5.04
-13.948,-13.143,3.887,6.507,17.605,10.156,17.748,4.831
-18.537,-19.222,1.803,3.221,18.965,7.699,10.393,3.247
-24.691,-27.93,-4.471,-0.7,10.869,4.199,-1.56,0.543
-26.353,-31.574,-5.134,0.814,7.12,4.694,3.908,2.914
-24.061,-29.557,-0.736,2.902,11.351,2.978,16.885,8.385
-25.072,-28.754,-4.402,-1.504,7.716,-5.346,8.109,7.308
-27.695,-28.354,-14.472,-5.792,-3.702,-11.342,-12.862,1.25
-23.916,-23.1,-16.55,-1.702,-5.353,-7.095,-14.457,0.372
-17.236,-18.695,-12.01,3.714,1.356,-0.084,0.151,4.018
-16.767,-22.075,-12.086,2.384,1.833,0.587,7.308,4.659
-19.779,-25.469,-14.326,0.525,-1.153,-0.362,6.42,3.459
-19.598,-20.746,-11.614,3.448,2.303,2.288,8.358,5.169
-17.809,-14.5,-7.827,5.656,8.546,3.947,10.258,7.916
-17.202,-14.917,-8.164,3.711,10.505,1.817,6.043,7.425
-15.91,-18.562,-9.008,1.498,10.365,-0.363,0.276,4.349
-11.669,-18.011,-4.627,3.171,13.519,1.045,2.871,4.039
-6.265,-13.371,4.125,8.334,19.834,5.254,16.264,9.293
-4.487,-9.747,11.059,12.742,24.324,8.132,30.455,15.84
-8.014,-9.136,11.653,12.953,22.547,7.53,33.983,17.735
-13.687,-11.266,5.694,8.896,13.4,4.158,22.991,13.461
-17.88,-15.336,-2.713,4.214,1.665,0.05,5.035,7.317
-18.216,-17.513,-5.609,5.089,-2.281,-0.002,-1.878,6.256
-14.551,-14.938,-0.967,11.867,3.982,5.613,5.2,9.751
-10.442,-10.57,2.205,16.438,8.664,10.636,6.349,9.386
-8.84,-8.443,-0.203,15.373,6.394,11.082,-1.591,5.028
-8.438,-8.798,-0.696,14.082,6.487,9.964,1.301,5.213
-8.155,-10.589,2.849,13.824,11.773,8.272,15.009,8.699
-9.473,-13.623,3.406,9.689,14.024,3.767,18.892,6.383
-11.132,-15.65,-0.138,2.559,10.731,-1.189,9.204,-0.58
-9.051,-13.13,-1.24,-0.749,7.028,-1.151,0.777,-2.777
-4.041,-7.549,2.744,0.494,6.332,2.001,2.265,1.601
-2.335,-4.585,7.147,-0.47,7.588,0.135,6.659,4.553
-6.486,-6.699,6.469,-7.119,7.329,-8.005,3.373,0.38
-11.368,-11.059,1.557,-14.756,4.771,-15.504,-3.596,-5.553
-11.145,-13.403,-0.427,-16.575,4.905,-17.027,-0.449,-4.483
-6.129,-12.535,4.532,-12.221,11.071,-13.504,11.799,2.485
0.061,-10.103,12.135,-6.683,18.758,-9.046,16.509,10.02
5.298,-7.023,16.826,-1.608,21.914,-4.688,9.022,17.894
6.801,-4.782,17.251,1.933,19.704,-1.48,4.637,19.447
2.513,-5.772,15.478,-0.056,16.575,-3.536,13.216,8.134
-2.683,-8.206,14.564,-4.481,16.534,-7.889,21.999,-1.907
-3.125,-8.884,13.177,-5.636,15.345,-8.339,13.133,-2.421
-1.001,-8.622,8.412,-6.772,7.913,-8.054,-7.551,-6.022
0.866,-6.927,5.932,-6.959,2,-7.676,-16.099,-9.293
3.167,-2.485,11.448,0.166,6.349,-2.204,-7.046,-1.334
4.284,0.361,17.83,6.376,14.381,1.572,2.899,3.14
3.853,-0.227,18.319,1.464,17.472,-3.818,8.003,-5.687
5.467,1.025,17.331,-5.46,17.492,-9.187,14.96,-11.106
8.73,4.56,17.815,-4.305,16.87,-6.498,18.458,-5.567
9.37,3.885,16.252,-1.35,14.135,-2.843,10.679,-1.754
7.091,-2.497,11.866,-4.108,9.934,-5.723,0.839,-5.215
5.807,-8.471,7.617,-8.665,6.28,-11.197,-2.27,-9.305
7.465,-10.129,5.477,-8.89,4.348,-12.313,-3.155,-9.99
9.627,-9.685,5.821,-6.276,5.154,-10.283,-3.914,-7.935
10.291,-9.479,6.528,-5.98,6.64,-10.483,-4.084,-5.404
10.492,-9.313,4.954,-8.144,5.297,-12.206,-5.309,-5.376
9.899,-9.373,2.889,-8.697,3.173,-11.865,-2.525,-7.269
6.567,-10.67,2.455,-7.83,3.377,-11.761,5.918,-8.204
2.159,-12.01,0.525,-9.458,1.765,-14.57,8.117,-8.375
1.202,-9.87,-3.683,-12.1,-3.772,-15.593,0.106,-8.409
5.689,-3.102,-3.285,-9.737,-4.534,-10.125,-3.016,-5.981
12.143,3.671,3.601,-3.161,3.224,-2.917,5.803,-0.879
13.558,3.299,7.022,-1.655,8.11,-3.579,11.565,1.3
7.974,-4.709,1.667,-9.034,3.302,-13.235,6.053,-2.613
2.715,-11.188,-4.151,-16.706,-2.29,-21.661,1.668,-6.837
3.703,-9.53,-4.852,-17.195,-3.098,-21.542,2.383,-7.239
7.207,-4.564,-5.94,-14.402,-5.818,-17.411,-3.41,-8.869
8.567,-3.181,-9.497,-13.728,-11.814,-15.26,-13.122,-13.716
9.7,-4.386,-9.468,-13.338,-12.595,-14.677,-11.757,-14.821
12.823,-3.439,-4.788,-10.68,-6.686,-14.492,-1.133,-9.715
14.569,-1.32,-1.628,-8.71,-2.399,-15.76,5.163,-5.16
10.901,-3.601,-2.478,-11.431,-3.266,-18.602,4.423,-5.873
4.347,-9.443,-3.248,-16.378,-4.043,-20.469,2.161,-9.465
1.434,-11.55,-0.406,-16.124,-1.042,-18.012,1.515,-10.765
3.817,-8.054,4.309,-8.719,2.773,-11.401,3.218,-6.999
5.877,-5.034,5.815,-1.284,2.315,-5.113,4.688,-1.65
2.079,-7.21,1.777,-0.082,-3.561,-2.871,2.056,-0.675
-4.277,-11.236,-3.312,-2.152,-9.103,-3.278,-2.15,-3.438
-4.727,-10.857,-3.975,-1.462,-8.286,-2.732,-2.676,-4.092
0.895,-6.908,-1.902,0.879,-3.6,-1.579,-0.786,-2.173
3.763,-5.609,-2.516,-0.342,-1.823,-2.222,-1.358,-3.313
0.527,-7.651,-5.743,-4.259,-3.716,-3.201,-4.434,-8.069
-2.107,-7.847,-6.598,-5.886,-4.461,-2.765,-5.07,-9.346
0.05,-5.602,-4.435,-6.117,-3.259,-4.314,-1.894,-5.262
3.032,-5.186,-3.576,-9.253,-3.935,-10.108,0.175,-2.565
4.19,-5.903,-4.573,-13.351,-5.789,-15.182,-0.828,-3.772
6.159,-3.217,-3.756,-13.329,-3.971,-14.532,-0.011,-4.838
10.72,1.976,-0.688,-9.914,1.139,-10.627,4.473,-4.257
15.374,4.674,1.002,-7.841,3.346,-8.781,6.434,-4.012
16.155,3.466,0.238,-8.107,0.879,-9.435,3.411,-4.336
13.321,1.336,0.593,-7.238,-0.674,-8.792,3.009,-2.953
11.694,1.408,3.544,-4.011,1.044,-5.367,9.33,0.258
13.177,3.391,5.586,-2.366,1.733,-3.102,15.674,1.589
14.495,4.375,5.039,-4.19,-0.039,-4.656,16.474,-1.189
13.206,3.316,4.856,-4.83,-0.292,-5.523,14.473,-4.823
10.29,1.197,6.534,-1.789,2.709,-2.827,14.007,-4.557
7.78,-1.639,7.553,0.468,5.67,-1.113,15.367,-1.116
6.945,-3.932,6.391,-0.606,5.901,-2.512,16.73,0.114
7.982,-3.571,5.54,-1.466,5.837,-2.742,17.759,-2.141
9.435,-1.864,6.592,0.068,7.418,0.165,18.424,-3.201
9.157,-1.866,6.527,1.162,6.169,1.908,16.993,-1.359
8.516,-2.557,4.528,0.496,0.848,-0.273,14.577,0.136
9.803,-1.857,4.535,0.783,-1.639,-3.048,15.668,0.408
9.436,-1.557,6.107,2.139,-0.121,-4.001,19.579,0.842
4.212,-2.272,4.421,1.628,-1.266,-4.549,20.064,0.467
-1.001,-0.944,-0.277,-0.41,-5.958,-5.254,14.851,-1.84
-0.666,2.537,-3.243,-0.836,-8.47,-4.95,9.354,-3.945
3.702,4.675,-3.041,1.028,-6.863,-2.872,9.433,-3.248
7.437,4.988,-2.488,2.538,-4.795,-0.474,13.295,-1.327
9.252,5.762,-2.49,1.867,-4.015,-0.385,16.477,-1.13
11.944,7.883,0.11,1.601,-1.652,-1.055,21.011,-0.68
17.401,11.822,5.903,5.341,2.863,2.175,28.106,3.245
21.772,16.74,8.722,10.528,3.561,7.6,28.065,6.712
19.841,18.45,3.726,10.539,-3.762,7.729,14.097,2.77
13.856,15.652,-4.349,4.632,-13.366,1.194,-1.978,-6.85
10.778,13.424,-7.673,-1.168,-17.095,-5.401,-6.495,-13.429
13.284,15.458,-4.961,-2.215,-14.466,-6.643,-3.062,-12.943
19.066,19.173,0.479,0.492,-8.506,-3.199,0.535,-8.18
23.918,19.927,4.936,2.069,-1.472,-0.749,4.561,-3.617
23.924,16.444,4.298,-0.859,0.854,-3.856,7.724,-2.798
19.265,11.856,-1.772,-6.176,-5.36,-9.522,5.548,-5.893
15.037,10.421,-6.644,-9.132,-12.661,-11.5,0.905,-8.648
14.999,13.167,-5.146,-7.475,-12.635,-8.049,1.012,-7.638
17.426,16.277,-0.463,-2.853,-7.977,-1.647,5.302,-4.666
20.112,15.95,2.66,1.219,-4.464,3.784,7.499,-2.42
22.618,13.616,3.952,2.027,-2.636,4.365,5.711,-1.648
21.77,11.576,4.041,-0.77,-2.181,-0.84,2.583,-3.535
14.142,7.941,1.871,-5.037,-4.968,-8.116,0.662,-7.07
4.077,2.278,-1.463,-7.505,-9.83,-11.688,1.238,-8.046
0.115,-1.118,-1.753,-6.241,-10.98,-9.282,3.153,-5.553
1.912,-2.003,0.724,-3.464,-7.332,-5.342,2.983,-3.808
1.459,-5.733,-0.438,-4.337,-6.287,-6.555,-1.317,-6.482
-2.278,-12,-6.531,-9.909,-11.604,-13.61,-7.2,-11.684
-3.468,-14.532,-9.722,-14.13,-15.547,-19.632,-8.296,-13.556
-2.05,-13.131,-5.741,-12.883,-11.422,-19.395,-3.433,-10.741
-2.689,-13.771,-1.367,-10.746,-5.515,-16.715,-1.203,-8.642
-4.087,-15.824,-1.845,-11.017,-4.894,-15.87,-4.782,-9.031
-0.731,-11.746,-1.095,-8.694,-4.17,-13.213,-5.726,-7.069
6.769,-0.918,6.018,-1.11,1.87,-5.83,-2.051,-2.194
11.941,8.387,12.978,6.137,6.586,1.642,-0.639,0.502
11.614,10.232,12.13,7.485,4.228,3.809,-1.677,-0.072
8.053,6.029,5.329,3.287,-1.35,0.639,-1.685,-1.354
4.27,1.064,-1.044,-2.115,-5.667,-3.879,-2.469,-3.562
2.548,-0.348,-3.084,-4.406,-7.047,-6.16,-3.797,-6.908
3.572,1.956,-1.296,-3.014,-4.985,-6.137,-2.514,-8.474
4.634,4.604,-0.034,-1.204,-2.979,-5.858,-2.195,-7.809
3.13,4.973,-1.595,-0.91,-3.862,-5.704,-6.53,-7.63
0.266,4.076,-2.894,-0.297,-4.544,-4.257,-10.084,-7.486
-1.302,4.28,-1.639,2.202,-2.946,-1.423,-7.948,-4.976
-0.734,5.854,0.018,5.33,-1.67,1.555,-3.364,-1.294
1,7.58,0.042,7.27,-2.272,4.106,-1.632,0.597
2.984,8.733,-0.711,7.517,-3.541,5.382,-3.665,0.343
4.894,8.87,-1.356,6.251,-4.652,3.658,-6.142,-0.624
6.069,8.219,-2.13,3.855,-5.066,-0.515,-5.569,-1.52
5.568,7.686,-2.711,0.703,-3.54,-4.111,-2.198,-2.761
3.005,6.803,-3.191,-2.625,-1.018,-6.043,-0.074,-4.813
-0.525,4.56,-4.457,-4.276,-0.623,-6.874,-1.929,-6.265
-2.28,2.514,-5.31,-2.927,-1.733,-5.843,-5.631,-5.408
-0.438,3.266,-3.456,-0.489,-0.567,-3.296,-7.705,-3.722
2.643,4.914,0.272,0.479,2.276,-1.891,-6.578,-3.473
2.913,2.755,3.579,0.548,3.921,-2.305,-1.71,-3.654
1.003,-1.92,6.195,1.706,5.02,-2.75,4.51,-2.97
0.724,-3.548,7.694,3.755,5.544,-2.647,7.078,-2.283
1.104,-2.155,6.352,4.733,3.153,-2.623,5.383,-1.429
-1.324,-1.64,3.367,4.525,-0.166,-2.067,3.702,0.703
-3.826,-1.01,3.312,6.542,0.812,1.375,3.04,4.133
-1.68,2.789,7.376,12.915,5.327,8.321,0.126,8.091
2.327,6.079,11.142,18.985,7.482,13.748,-4.726,8.985
1.918,2.976,10.754,18.779,5.333,12.102,-7.783,3.348
-1.859,-3.176,7.444,14.91,1.926,7.014,-8.815,-3.848
-2.533,-3.81,5.208,14.31,0.408,6.297,-9.828,-5.126
0.438,1.595,5.922,16.799,1.961,8.941,-10.016,-1.635
1.964,6.032,8.399,17.523,6.46,9.258,-6.235,2.127
0.834,5.773,10.557,15.604,12.577,7.253,1.177,5.146
0.475,3.787,11.247,13.939,17.762,6.59,6.285,9.089
1.871,2.941,10.271,14.304,19.221,8.896,5.112,16.533
0.684,0.401,5.629,11.967,14.138,9.071,-0.753,19.744
-5.847,-6.195,-4.575,-0.663,2.623,-1.218,-8.821,4.415
-12.012,-11.678,-15.478,-18.384,-8.759,-17.306,-16.412,-18.066
-10.596,-10.728,-18.986,-26.318,-12.393,-24.28,-19.605,-21.172
-3.516,-6.136,-14.112,-22.985,-7.253,-20.825,-16.164,-10.14
2.282,-2.894,-6.412,-18.235,2.429,-16.551,-8.071,-6.224
4.551,-1.505,-0.587,-14.784,11.623,-13.062,-0.984,-6.357
5.001,-1.104,1.742,-11.389,16.554,-9.08,1.217,-0.626
5.12,-1.595,1.719,-10.47,17.411,-8.207,0.223,3.331
6.419,-0.697,2.082,-12.14,18.029,-10.184,-2.628,-2.585
8.114,3.124,3.751,-12.727,20.988,-10.353,-6.869,-10.237
5.72,5.536,4.716,-12.182,24.871,-10.208,-7.875,-11.163
-2.065,1.391,1.802,-14.126,24.145,-14.509,-7.103,-11.87
-10.054,-7.8,-6.169,-18.568,14.516,-21.119,-14.217,-19.124
-12.379,-14.358,-14.204,-21.409,2.967,-24.607,-25.193,-26.145
-8.728,-13.001,-15.438,-19.789,1.056,-23.217,-24.505,-23.84
-5.219,-8.766,-11.747,-14.898,6.623,-18.748,-14.344,-14.56
-6.858,-9.704,-10.77,-11.038,8.9,-15.725,-11.433,-8.25
-11.517,-14.532,-14.164,-11.187,6.105,-17.24,-18.645,-9.792
-14.853,-16.933,-17.909,-14.589,3.06,-21.832,-23.659,-16.958
-16.127,-17.085,-20.107,-19.284,0.699,-26.965,-20.298,-24.665
-16.915,-19.4,-21.983,-22.44,-2.509,-29.074,-17.398,-26.849
-16.374,-21.487,-22.931,-20.981,-4.145,-24.367,-22.517,-23.264
-11.88,-16.986,-19.979,-16.757,0.667,-16.04,-26.918,-20.332
-5.881,-9.214,-14.155,-15.683,10.185,-13.12,-21.913,-20.534
-4.292,-6.838,-10.984,-18.83,15.296,-17.82,-15.137,-19.864
-7.215,-9.726,-12.243,-21.2,12.349,-21.805,-14.824,-15.4
-9.526,-12.861,-14.25,-20.474,7.832,-19.709,-16.672,-9.457
-8.951,-14.615,-14.349,-19.161,7.126,-16.314,-14.962,-6.893
-8.93,-15.45,-13.8,-18.984,8.277,-16.442,-11.719,-9.495
-12.728,-15.926,-14.1,-18.627,8.533,-17.443,-10.339,-12.305
-15.924,-14.309,-12.904,-14.547,9.9,-13.019,-9.303,-7.624
-12.437,-8.661,-8.578,-6.041,13.698,-3.245,-7.18,2.995
-6.263,-3.073,-5.904,-0.396,15.234,1.79,-6.307,5.542
-5.137,-2.388,-8.414,-3.547,11.569,-3.061,-7.705,-6.408
-7.352,-4.382,-11.544,-9.55,7.648,-8.433,-9.666,-17.579
-6.955,-5.475,-11.092,-11.002,8.139,-7.198,-11.007,-15.055
-5.68,-6.41,-9.811,-11.052,10.691,-6.054,-11.994,-9.898
-8.499,-8.633,-11.368,-15.068,10.452,-11.398,-14.372,-14.995
-12.518,-11.375,-14.389,-19.757,6.326,-17.698,-17.372,-22.068
-10.137,-12.65,-13.967,-18.767,3.086,-17.07,-15.306,-17.888
-0.953,-10.823,-8.292,-13.542,5.751,-11.307,-8.098,-7.697
6.732,-6.174,-3.065,-10.813,10.565,-8.04,-4.893,-5.326
6.162,-1.956,-4.28,-12.193,10.229,-10.064,-9.433,-9.412
-0.086,-1.251,-9.256,-13.429,5.893,-12.815,-15.585,-9.018
-3.882,-2.045,-11.845,-11.632,3.208,-11.152,-18.234,-3.79
-2.124,-1.018,-11.503,-8.779,3.115,-6.732,-18.215,-2.052
0.766,0.281,-10.739,-8.608,4.218,-5.54,-17.354,-7.209
1.412,-0.087,-9.281,-11.472,6.67,-8.81,-14.599,-13.239
1.139,-0.493,-7.228,-14.602,8.701,-12.297,-11.83,-13.261
0.609,0.022,-8.073,-16.733,6.275,-14.076,-14.964,-11.175
-1.115,1.087,-11.664,-17.591,0.883,-15.214,-21.24,-13.8
-2.159,3.581,-11.411,-14.55,-0.193,-13.704,-20.22,-15.184
0.572,7.794,-4.497,-6.472,4.934,-7.112,-12.021,-6.367
5.414,10.851,3.042,1.336,10.317,0.19,-7.152,5.562
6.844,9.014,4.508,2.414,11.211,1.215,-9.417,5.62
3.519,3.16,0.555,-1.638,8.831,-2.701,-13.731,-4.268
0.975,-0.707,-2.282,-3.278,7.684,-3.534,-16.086,-8.588
2.467,0.533,-0.487,-1.527,9.67,-0.723,-15.206,-6.222
4.235,3.066,3.136,-2.383,12.72,-1.732,-9.235,-5.974
3.757,3.215,4.947,-6.973,14.609,-8.071,-2.034,-5.461
1.047,0.956,0.831,-13.41,10.93,-15.491,-5.855,-5.566
-4.999,-2.981,-11.357,-22.058,-1.866,-21.775,-21.63,-15.721
-10.967,-6.552,-22.98,-27.952,-15.024,-24.139,-31.528,-27.527
-10.715,-7.577,-23.04,-23.867,-15.733,-19.992,-26.054,-22.906
-5.043,-6.702,-14.19,-13.366,-5.907,-12.324,-16.469,-7.987
0.859,-4.891,-6.649,-6.79,2.306,-7.323,-13.127,-3.575
4.415,-2.129,-4.129,-7.764,2.823,-8.099,-13.583,-11.079
6.331,0.777,-4.053,-10.35,-0.946,-10.457,-13.509,-14.379
8.643,4.014,-3.854,-7.371,-2.625,-7.003,-11.929,-7.752
10.836,8.715,-3.382,0.04,0.079,1.646,-7.639,-0.833
10.005,12.62,-3.833,4.429,3.339,7.143,-2.898,0.177
6.65,11.698,-5.368,2.878,2.631,5.608,-3.894,-0.644
4.966,6.897,-6.099,-0.288,-0.649,1.573,-9.885,0.969
7,3.417,-3.839,-1.265,-0.687,0.048,-13.28,2.03
10.273,3.362,1.352,-1.514,4.862,-0.346,-10.538,-2.309
12.567,5.433,7.913,-2.053,12.723,-2.309,-2.974,-7.43
15.5,9.817,13.841,0.762,18.256,-1.778,4.382,-4.461
18.428,15.707,14.983,7.463,18.092,4.297,3.71,2.486
16.254,17.909,8.211,11.609,12.038,8.704,-5.384,2.22
9.472,13.897,-2.096,9.936,4.186,6.086,-14.013,-3.43
4.988,8.41,-7.659,6.564,-0.307,2.033,-15.238,-4.324
4.439,5.793,-6.252,4.299,1.117,0.698,-9.434,-0.013
3.432,5.05,-2.97,1.032,6.287,-0.889,-2.381,1.703
0.45,3.645,-3.577,-5.337,7.784,-4.673,-1.248,-2.751
-1.478,1.605,-8.247,-12.677,1.318,-9.059,-7.287,-9.002
0.185,1.613,-11.323,-15.699,-6.037,-11.615,-13.519,-10.574
3.582,3.352,-9.395,-13.141,-5.995,-11.488,-13.674,-7.527
4.581,1.841,-5.826,-10.562,-1.415,-10.932,-9.149,-5.557
2.695,-2.995,-4.662,-11.853,-0.312,-12.141,-5.936,-6.803
1.969,-3.706,-4.949,-13.343,-3.519,-13.143,-7.797,-8.217
5.18,2.616,-2.737,-10.16,-3.817,-10.778,-10.868,-6.979
9.958,10.02,2.457,-3.693,2.127,-5.964,-7.82,-3.23
13.006,14.275,6.486,1.69,8.332,-1.294,0.861,1.017
14.796,17.166,6.89,5.263,9.446,3.507,5.629,3.779
17.35,19.895,5.778,8.382,7.475,8.827,0.653,4.212
20.347,21.083,6.102,10.637,6.832,12.11,-6.445,3.428
21.286,20.419,8.462,11.549,8.467,12.211,-3.657,4.191
20.174,20.164,12.682,12.672,11.779,12.697,8.849,7.906
20.852,22.964,18.649,14.985,17.395,15.848,18.55,11.472
25.257,28.877,23.901,17.473,23.157,19.459,17.302,11.171
30.617,34.967,25.048,19.525,23.995,22.111,11.316,9.004
32.315,36.98,20.988,19.65,18.65,21.44,8.685,7.846
28.383,33.49,13.409,15.538,11.177,14.296,6.148,5.604
21.186,27.4,6.153,9.271,5.801,5.791,-0.69,1.835
13.562,20.755,1.864,4.544,2.655,2.424,-7.364,0.313
7.108,13.697,0.021,0.885,-0.23,1.076,-9.272,1.707
4.163,7.943,-0.102,-2.611,-2.256,-1.924,-8.247,2.942
6.671,6.074,2.12,-3.61,-1.483,-3.457,-7.97,2.616
14.15,9.997,7.872,0.663,2.552,-0.341,-6.547,2.656
23.691,19.183,17.292,10.099,9.828,6.456,0.79,5.735
30.17,28.311,26.705,20.74,18.657,14.195,10.566,10.939
28.937,31.166,30.788,27.707,24.255,20.474,14.294,14.09
21.051,27.509,28.68,29.513,23.248,23.612,10.687,13.744
12.712,22.017,23.971,27.526,17.573,22.82,6.031,12.22
8.341,17.902,19.978,23.305,11.754,19.425,5.43,10.496
8.213,15.783,18.586,19.392,8.794,17.448,6.859,8.4
11.604,16.678,21.076,19.816,9.538,20.198,6.551,8.227
16.466,20.418,26.009,25.18,12.54,25.437,5.939,11.262
17.909,22.771,28.747,29.921,13.99,27.021,7.389,13.999
13.788,19.99,26.994,29.662,12.01,23.008,9.973,13.432
9.273,14.822,23.588,26.624,9.778,18.083,12.036,11.353
9.852,13.087,21.754,24.23,10.451,16.607,12.162,10.312
13.606,15.016,21.68,22.794,12.285,17.885,8.944,9.754
14.466,15.652,22.055,21.153,12.441,18.324,4.009,7.87
10.39,13.457,21.867,18.212,11.961,15.77,2.138,5.057
5.932,11.841,21.141,14.694,13.163,12.542,4.826,3.863
6.339,13.107,20.858,13.291,15.178,12.776,8.409,5.967
10.524,14.944,21.049,14,15.492,15.798,9.806,9.7
12.599,13.258,20.212,12.702,13.989,15.737,9.667,11.178
9.758,8.419,18.234,7.834,12.654,9.935,11.2,9.643
4.888,4.869,16.992,3.746,11.879,4.033,15.581,8.734
2.445,4.939,17.458,5.067,10.695,4.862,18.363,11.533
4.791,8.253,19.344,12.081,10.161,12.751,16.165,18.534
9.74,12.783,21.454,20.129,11.02,21.597,11.923,25.13
11.16,14.126,21.002,21.246,10.261,21.732,7.644,20.998
5.744,10.008,16.504,13.021,5.562,10.31,0.847,4.8
-2.722,3.237,10.663,3.793,-1.048,-1.828,-8.238,-9.159
-8.573,-2.98,6.904,0.893,-6.918,-5.383,-13.492,-10.908
-9.979,-7.282,5.503,2.675,-11.28,-3.218,-11.004,-4.45
-7.87,-8.223,5.669,6.562,-13.172,0.861,-4.735,3.871
-3.496,-5.023,7.422,11.871,-11.74,6.337,-0.111,8.985
1.594,1.003,10.289,16.142,-8.285,10.73,2.224,7.766
5.812,8.317,13.633,18.356,-4.438,13.19,4.597,4.371
8.381,15.606,16.737,20.38,-0.81,16.531,7.952,6.582
8.978,18.604,17.83,23.004,1.22,21.358,10.511,17.466
7.086,13.262,15.703,24.521,0.017,23.964,11.196,28.575
2.547,2.838,10.901,20.635,-4.192,18.817,11.487,24.247
-3.841,-6.231,4.29,9.673,-9.937,5.158,11.129,5.24
-9.653,-11.244,-2.196,0.725,-15.38,-6.013,7.668,-6.787
-10.982,-11.087,-4.439,3.966,-17.671,-3.299,3.312,-1.715
-6.669,-5.998,-1.518,13.679,-15.792,7.007,2.586,6.007
-1.21,-0.51,1.064,17.205,-13.773,10.748,3.359,5.069
0.889,0.889,-0.233,14.174,-15.043,7.402,2.018,1.901
0.71,-0.71,-1.952,11.769,-17.182,5.534,0.621,1.994
1.591,-0.887,-0.831,11.854,-16.983,7.293,1.039,2.041
4.509,2.567,2.113,13.486,-14.512,10.2,1.917,2.771
8.217,7.342,5.149,16.907,-10.846,13.697,2.624,7.46
11.188,10.374,7.8,20.796,-6.656,17.351,4.176,12.273
13.445,12.453,9.822,23.128,-3.076,20.067,6.888,13.251
15.641,15.179,10.476,23.484,-1.818,21.515,8.532,12.773
16.333,17.094,9.129,21.571,-3.481,21.277,6.895,11.759
14.114,17.434,6.58,17.622,-6.181,19.416,3.86,9.226
12.292,19.544,5.298,15.012,-6.676,18.581,3.566,8.414
15.131,25.683,6.523,16.048,-3.988,20.397,7.099,9.168
20.619,31.767,8.47,17.161,-0.982,21.55,11.394,6.836
24.567,33.94,9.987,16.479,0.026,20.912,12.405,5.351
27.046,34.963,12.345,18.254,0.831,22.97,9.612,10.74
29.806,38.68,16.564,24.032,4.7,28.682,9.219,17.699
32.402,44.607,21.394,29.21,10.809,32.859,16.552,19.17
31.954,48.778,22.692,29.242,12.463,31.522,22.614,15.843
27.511,48.537,18.171,25.082,6.23,26.786,14.843,11.851
22.652,46.233,12.42,21.533,-0.764,23.129,1.565,11.101
19.173,44.012,9.711,18.97,-2.405,20.238,-1.442,12.327
14.999,40.167,7.279,13.284,-3.068,15.208,1.195,8.944
10.481,34.809,2.602,5.548,-6.902,9.695,-0.824,1.794
8.138,31.117,-1.379,1.799,-10.412,7.877,-2.614,0.649
8.471,30.623,-1.666,3.935,-9.917,10.421,1.615,7.673
10.18,31.551,0.079,7.658,-7.362,14.304,6.011,13.019
10.133,30.288,-0.348,8.054,-6.969,15.768,5.875,10.325
5.494,26.009,-4.162,4.921,-9.796,13.176,4.563,5.016
-0.353,23.714,-8.183,2.652,-13.696,9.882,2.585,4.113
-1.013,27.052,-9.675,4.159,-16.648,11.149,-3.02,6.907
0.694,28.838,-10.609,4.688,-18.579,13.506,-9.988,7.549
-4.059,19.428,-13.413,-2.129,-19.456,7.54,-13.751,3.333
-13.345,4.05,-15.197,-11.565,-17.046,-3.704,-12.874,-1.309
-18.282,-4.787,-14.02,-14.712,-11.698,-8.27,-8.326,-2.506
-19.445,-7.267,-14.177,-14.288,-9.188,-6.835,-2.601,-3.591
-22.534,-10.921,-18.06,-17.358,-12.365,-8.494,0.489,-7.388
-27.189,-16.327,-22.974,-21.965,-17.414,-12.715,-2.652,-10.518
-30.392,-20.272,-27.097,-23.113,-20.663,-13.055,-10.776,-10.715
-32.229,-22.671,-29.546,-22.152,-20.791,-10.185,-16.751,-10.688
-35.041,-26.264,-29.871,-24.568,-18.054,-11.841,-17.222,-12.553
-40.078,-32.666,-30.77,-32.117,-16.167,-21.513,-17.694,-15.278
-44.756,-38.46,-33.174,-38.646,-16.759,-31.191,-21.585,-16.879
-45.057,-39.173,-32.292,-37.541,-14.155,-31.605,-22.451,-15.613
-41.836,-36.279,-26.26,-31.715,-5.354,-25.268,-14.47,-11.031
-40.756,-34.856,-21.711,-28.651,2.169,-20.619,-3.904,-5.687
-43.732,-36.762,-24.184,-29.291,1.552,-19.221,-1.2,-3.502
-45.628,-38.431,-29.187,-29.202,-2.237,-16.981,-5.967,-4.999
-43.797,-37.082,-29.85,-28,-0.976,-14.739,-9.708,-7.441
-43.7,-37.849,-28.013,-30.209,2.894,-17.991,-9.368,-9.901
-47.865,-44.097,-27.703,-34.787,2.602,-24.416,-7.945,-12.137
-49.028,-47.519,-25.258,-34.028,1.209,-24.705,-6.003,-10.522
-42.859,-42.518,-17.583,-27.272,4.842,-18.409,-1.022,-4.156
-35.099,-35.68,-9.017,-21.497,11.42,-13.508,7.584,0.77
-31.6,-33.374,-4.984,-18.625,14.842,-12.366,13.609,0.059
-33.678,-35.896,-9.842,-17.133,9.126,-12.685,6.672,-4.211
-39.426,-40.778,-23.428,-17.958,-5.799,-14.623,-10.226,-8.434
-42.941,-43.129,-36.077,-19.154,-18.721,-16.778,-19.759,-7.976
-40.979,-40.245,-39.865,-16.256,-21.563,-14.571,-18.034,0.942
-38.025,-36.235,-37.432,-10.761,-18.792,-8.359,-15.033,13.041
-38.427,-36.417,-33.102,-10.439,-14.28,-6.859,-9.701,13.643
-40.717,-40.457,-26.979,-18.947,-6.242,-15.956,2.609,-2.488
-41.332,-43.378,-18.78,-27.486,3.636,-26.414,11.794,-17.997
-38.772,-41.145,-11.443,-25.746,8.807,-25.848,7.851,-17.853
-33.209,-33.848,-6.373,-16.216,9.808,-16.533,4.573,-10.263
-25.601,-24.936,0.628,-5.692,15.475,-6.838,20.983,-4.168
-20.652,-19.917,8.092,2.884,22.723,-0.962,38.869,2.176
-23.384,-22.714,6.615,4.889,18.111,-2.553,25.882,5.265
-30.426,-31.368,-3.447,-3.112,4.877,-12.487,-2.626,-0.457
-34.651,-40.305,-12.023,-16.689,-1.982,-24.81,-10.996,-11.246
-34.294,-44.478,-15.844,-26.467,-1.479,-30.398,-8.002,-18.649
-30.028,-40.802,-16.344,-25.559,-0.678,-25.509,-15.14,-16.23
-22.777,-31.821,-12.139,-16.782,2.012,-17.068,-17.68,-5.125
-17.34,-25.99,-6.425,-10.527,7.568,-13.07,-2.069,3.642
-18.997,-28.187,-7.675,-11.852,6.632,-12.829,9.825,1.423
-26.394,-34.26,-15.904,-15.69,-4.088,-13.462,-0.47,-5.849
-32.49,-38.011,-20.529,-15.541,-10.654,-14.84,-14.293,-7.12
-32.906,-38.236,-17.127,-11.739,-4.711,-16.031,-9.79,-3.228
-31.594,-38.025,-14.831,-10.117,0.733,-15.781,0.534,-3.861
-34.114,-39.792,-20.53,-13.413,-4.828,-15.141,-3.251,-10.999
-37.164,-41.848,-27.564,-17.635,-11.573,-16.185,-12.361,-15.603
-34.609,-41.763,-27.809,-18.498,-9.476,-18.001,-9.232,-11.016
-29.115,-40.473,-23.112,-16.234,-4.616,-16.25,2.526,-2.555
-24.885,-38.139,-16.892,-12.469,-2.851,-11.029,11.511,2.09
-18.514,-31.758,-7.715,-7.972,0.798,-8.787,18.292,5.861
-7.814,-21.506,3.464,-4.317,9.583,-9.853,26.382,13.837
1.013,-12.815,11.754,-3.224,20.259,-6.919,32.826,19.469
1.439,-10.148,13.325,-4.66,25.678,-0.888,34.578,14.618
-4.87,-13.046,6.906,-7.769,17.48,-1.822,31.545,5.268
-12.205,-19.201,-3.856,-12.11,-0.163,-11.12,24.844,2.758
-18.479,-26.744,-11.068,-17.454,-10.607,-18.127,19.023,6.621
-22.093,-30.793,-10.142,-23.567,-7.172,-16.248,19.856,9.167
-18.91,-26.661,-3.317,-29.831,2.317,-9.18,27.245,10.016
-10.337,-18.572,3.374,-35.956,10.028,-2.78,34.982,13.921
-4.419,-13.866,5.844,-42.153,14.057,0.24,38.876,21.434
-5.362,-13.775,5.799,-47.836,15.817,0.783,43.462,27
-11.049,-17.695,5.94,-53.71,16.182,0.112,55.773,22.198
-18.302,-24.93,3.581,-62.91,13.066,-3.276,63.134,6.438
-24.216,-31.262,-4.951,-76.067,4.91,-9.95,38.503,-8.576
-25.304,-31.781,-14.021,-87.35,-2.495,-15.252,-4.743,-12.22
-20.02,-25.315,-14.598,-89.867,-3.191,-13.245,-18.54,-3.732
-12.323,-16.348,-10.132,-85.474,-2.583,-5.024,-0.503,11.318
-8.938,-12.305,-9.192,-83.243,-5.254,1.446,12.044,21.482
-12.289,-16.512,-10.071,-88.473,-4.958,0.067,14.548,15.717
-17.661,-24.103,-8.021,-97.267,0.415,-6.45,24.694,0.006
-17.842,-26.469,-5.524,-101.149,3.141,-8.765,31.888,-6.909
-13.29,-23.261,-7.274,-98.914,-1.388,-5.682,19.19,0.767
-10.428,-20.833,-10.259,-96.491,-7.063,-5.45,6.749,13.998
-6.465,-15.957,-3.855,-91.142,-2.582,-3.7,21.796,30.556
2.615,-5.358,10.775,-78.385,9.97,9.025,47.323,51.788
5.134,-2.44,13.951,-70.968,11.173,19.41,47.297,61.948
-5.551,-13.445,0.683,-80.531,-2.312,11.191,28.971,43.22
-14.17,-21.369,-5.604,-95.314,-5.663,-4.93,33.012,10.163
-10.122,-15.368,8.549,-98.568,14.146,-10.103,68.914,-3.589
-0.933,-5.032,32.754,-88.476,45.872,-1.165,118.147,9.76
6.212,-0.606,57.417,-74.218,78.794,12.272,170.417,28.433
7.444,-4.394,65.61,-70.107,89.849,16.528,178.956,33.422
-2.18,-14.387,33.278,-83.973,48.076,7.012,89.763,26.72
-18.435,-25.315,-21.525,-105.35,-21.914,-7.182,-26.969,17.566
-29.058,-32.507,-51.883,-119.545,-59.64,-19.165,-65.716,5.907
-27.079,-32.05,-51.837,-122.652,-60.058,-25.952,-58.375,-3.388
-14.557,-21.369,-44.401,-116.85,-54.238,-21.663,-64.621,-0.858
-0.612,-7.506,-33.914,-108.714,-43.308,-10.35,-53.813,3.03
5.167,-2.374,-20.863,-105.954,-24.604,-4.911,-16.285,-5.483
2.954,-6.237,-17.014,-108.566,-18.167,-9.414,-2.607,-18.205
1.648,-8.15,-21.567,-110.814,-27.156,-18.779,-18.534,-20.995
8.927,-0.079,-16.369,-104.671,-25.079,-22.117,-17.574,-9.843
23.806,14.8,4.778,-85.997,-1.365,-9.953,14.526,9.982
37.239,25.819,24.4,-66.184,20.264,8.66,43.632,25.579
43.03,28.123,28.541,-60.547,22.519,16.292,43.482,26.815
43.285,26.757,24.231,-66.615,16.075,11.698,28.471,19.145
41.495,26.219,22.706,-70.824,13.647,4.871,26.56,16.323
40.98,27.294,27.166,-65.905,18.194,3.896,41.841,23.183
44.717,30.247,34.848,-55.229,28.392,11.239,55.663,32.558
47.776,31.667,37.289,-49.541,33.891,18.667,53.857,34.799
42.912,27.767,30.696,-53.69,27.711,17.881,42.793,28.62
35.452,23.42,26.256,-57.081,23.647,16.024,39.99,24.466
37.16,26.413,34.565,-49.329,36.479,22.207,51.386,31.962
46.178,33.841,46.331,-37.906,54.637,29.292,62.278,44.101
48.031,34.628,43.611,-37.548,53.238,25.285,57.498,45.353
39.869,27.622,28.003,-46.245,32.507,15.881,44.546,36.506
35.881,25.035,18.903,-47.785,19.068,17.06,41.714,33.27
42.15,31.011,22.043,-39.402,23.85,26.182,49.521,38.445
47.965,34.927,25.248,-33.537,31.464,27.774,53.611,41.506
46.976,33.218,23.536,-32.104,31.423,23.771,49.191,43.658
45.943,34.818,22.779,-25.84,28.851,28.089,44.73,51.064
48.801,39.806,24.217,-17.245,28.505,38.18,46.887,52.1
48.899,36.932,22.791,-18.48,26.576,37.507,52.307,37.948
43.408,26.935,18.069,-26.834,20.602,25.43,53.265,26.122
41.081,24.455,17.3,-27.399,19.019,18.872,48.623,28.989
46.671,32.655,23.858,-18.69,27.862,22.792,44.921,33.429
50.789,37.772,29.549,-12.39,35.636,26.397,44.885,31.308
45.139,32.364,26.984,-12.499,30.638,24.83,43.587,30.315
37.393,26.798,22.414,-11.132,22.068,24.134,39.73,33.143
39.95,32.526,26.464,-2.009,26.278,29.291,41.293,35.724
50.554,45.147,38.491,10.267,43.124,37.027,53.171,38.433
54.809,50.235,45.466,15.77,53.925,39.804,62.05,41.222
45.983,42.442,36.354,11.15,42.214,34.724,48.766,38.581
34.31,33.074,19.72,4.963,18.968,28.892,22.973,32.62
32.252,32.931,14.765,7.676,10.105,30.604,15.913,35.393
36.976,36.279,22.077,16.593,17.089,35.649,30.99,47.088
38.062,34.486,26.357,21.544,20.855,35.766,40.492,51.98
34.631,30.83,23.018,19.488,16.38,31.435,31.335,40.311
31.565,28.947,18.012,12.097,12.014,24.035,18.151,18.115
28.92,24.985,12.592,1.594,8.976,13.993,11.596,-3.674
26.767,19.868,7.027,-5.557,5.483,8.028,8.043,-18.029
28.888,20.938,8.409,-3.083,8.244,9.367,12.3,-18.002
34.886,27.827,21.25,7.052,23.082,11.337,33.08,-0.942
39.292,32.959,36.807,18.169,41.812,12.878,55.093,18.536
38.081,32.803,37.508,24.173,44.612,18.667,46.317,19.248
30.897,27.681,16.481,20.498,21.109,21.383,5.864,1.45
22.333,19.62,-7.466,11.167,-9.303,12.331,-20.302,-11.001
18.685,13.484,-12.779,8.31,-20.844,1.642,-5.911,-2.135
19.182,11.083,-5.487,14.466,-16.836,1.57,16.94,13.35
19.402,10.128,-0.348,20.143,-11.07,6.216,24.193,12.46
21.803,12.646,3.17,22.44,-3.491,7.46,22.533,-0.308
29.222,20.79,3.822,25.747,1.261,8.77,0.082,-4.866
35.754,28.032,-3.757,29.307,-5.035,13.559,-39.769,-0.948
35.346,27.388,-10.587,30.437,-12.46,18.881,-49.161,-1.412
29.149,19.985,-7.569,29.952,-10.984,18.45,-15.77,-4.99
21.791,11.305,-0.707,29.689,-7.49,8.543,21.824,-0.441
16.611,5.276,2.724,30.524,-7.255,-2.683,41.892,10.499
11.934,0.839,-1.743,29.322,-11.698,-5.916,35.848,11.215
5.321,-3.324,-17.618,23.579,-27.535,-5.749,-6.883,-2.113
1.169,-3.789,-34.814,20.487,-48.367,-6.447,-58.224,-9.969
3.677,-1.243,-35.014,26.035,-50.373,-3.54,-66.663,-4.145
10.4,-0.382,-13.553,37.53,-22.421,6.157,-19.169,5.793
19.044,2.255,17.403,55.065,18.189,23.587,51.858,22.667
24.17,7.006,33.692,70.738,36.322,38.654,87.3,39.32
14.916,0.411,15.467,63.224,10.96,29.993,44.253,26.478
-6.544,-21.133,-23.936,32.264,-34.336,-2.82,-44.697,-14.558
-23.157,-40.44,-51.484,3.701,-60.593,-34.02,-106.138,-50.521
-25.919,-44.261,-54.04,-4.728,-60.332,-45.271,-107.667,-60.815
-20.059,-37.174,-39.949,5.424,-46.549,-39.621,-67.187,-44.99
-11.866,-27.879,-19.939,25.252,-26.774,-25.512,-18.983,-11.782
-3.636,-19.552,-3.192,46.935,-8.552,-5.463,4.812,23.609
-1.287,-18.006,-4.237,56.513,-10.75,7.427,-17.877,29.853
-10.643,-28.785,-28.961,39.54,-41.898,-9.027,-68.428,-11.922
-22.715,-41.718,-52.147,12.11,-71.526,-42.945,-90.146,-58.763
-23.911,-42.311,-47.397,5.994,-66.197,-56.039,-64.23,-61.419
-16.939,-33.217,-25.487,20.059,-38.385,-42.796,-24.566,-38.4
-10.594,-23.643,-6.379,34.843,-15.03,-24.27,9.901,-21.88
-3.163,-13.706,9.322,49.812,1.802,-5.65,33.925,-5.236
6.729,-4.051,17.127,66.235,10.137,12.44,18.286,14.073
10.879,-1.314,5.471,70.629,-2.274,16.47,-38.253,14.602
4.171,-6.903,-17.169,56.626,-29.015,-0.306,-75.227,-10.692
-5.817,-13.111,-28.521,39.832,-45.413,-21.616,-53.842,-32.951
-5.976,-10.519,-19.523,41.871,-37.07,-23.034,-11.025,-23.007
4.49,-0.908,-4.255,58.821,-18.11,-7.326,-1.031,1.226
10.732,2.902,-0.468,65.633,-11.983,-2.201,-18.909,7.265
6.275,-1.34,-4.065,58.121,-16.218,-12.891,-21.609,-2.36
0.997,-3.6,-4.776,52.522,-17.338,-20.547,-11.766,-14.652
0.579,-1.596,-4.32,55.612,-16.215,-17.581,-15.511,-18.37
0.717,-1.04,-2.35,65.454,-14.018,-6.828,-19.421,-1.797
-2.272,-5.042,-1.014,73.347,-13.842,3.412,-17.956,10.753
-8.401,-12.758,-12.422,65.51,-27.863,-1.845,-38.317,-12.596
-15.021,-20.143,-32.676,47.675,-50.629,-19.896,-74.829,-43.407
-17.603,-21.943,-39.604,41.189,-57.499,-29.886,-87.951,-41.848
-13.902,-16.84,-26.73,48.664,-41.705,-26.279,-64.724,-26.649
-5.837,-8.703,-7.107,58.213,-17.826,-18.277,-23.207,-23.576
2.719,-1.904,7.202,67.472,1.223,-9.168,8.474,-18.029
6.985,1.921,7.299,76.898,4.482,0.28,3.974,-2.089
5.574,3.462,-6.37,81.594,-9.536,5.879,-25.63,3.642
5.22,5.926,-13.319,82.372,-17.55,6.202,-27.575,-6.076
12.33,12.558,2.929,86.751,-0.428,6.61,20.467,-10.446
20.341,18.176,23.836,93.095,20.772,9.506,60.082,-1.41
16.464,11.324,17.176,88.486,11.368,4.599,26.995,4.371
2.392,-6.018,-12.478,71.755,-22.012,-13.269,-41.96,-2.671
-6.104,-16.853,-30.064,60.429,-40.594,-27.922,-65.354,-9.194
-2.467,-14.932,-24.442,64.126,-32.011,-25.525,-43.621,-6.64
5.843,-9.025,-10.471,74.622,-12.204,-14.006,-18.946,-5.889
13.256,-2.574,5.02,84.12,10.493,-4.459,1.128,-13.273
18.454,5.427,13.552,89.142,23.917,1.739,0.565,-23.848
17.286,7.422,-0.897,84.73,6.645,1.772,-35.305,-35.381
8.24,-2.653,-28.027,73.651,-30.099,-7.983,-64.615,-41.784
-0.871,-15.922,-38.521,68.574,-48.649,-19.713,-53.962,-30.405
-2.064,-20.802,-29.443,75.471,-41.779,-21.612,-29.333,-4.385
2.192,-18.806,-19.247,85.479,-30.924,-15.96,-16.349,11.167
5.667,-16.484,-13.752,87.244,-22.785,-15.561,-13.064,-0.112
9.659,-11.354,-5.902,84.281,-8.819,-19.419,-14.465,-18.932
17.06,0.249,6.927,91.397,9.054,-11.095,-14.242,-12.623
22.703,10.963,20.116,110.705,20.413,10.499,-0.046,19.413
21.468,12.234,27.933,125.551,23.067,24.629,28.351,42.329
16.025,5.614,23.666,120.741,17.594,17.086,38.104,29.003
10.873,-1.813,5.354,101.741,2.549,-1.739,-0.2,-2.94
8.697,-4.23,-12.755,90.251,-11.865,-8.696,-49.814,-17.305
9.896,-2.128,-14.276,93.945,-11.509,-1.701,-51.788,-14.59
11.503,-0.729,-3.382,99.747,-1.422,0.655,-17.872,-9.9
12.42,0.935,6.057,105.499,3.823,0.993,0.904,9.24
15.098,7.584,10.186,116.696,2.684,11.091,-3.317,32.557
18.173,14.674,9.431,117.851,-0.252,12.459,-15.482,10.076
17.306,14.181,1.43,96.307,-6.654,-11.109,-41.118,-52.899
12.4,6.872,-9.926,70.875,-16.1,-39.029,-71.496,-88.113
6.77,-1.174,-14.278,62.49,-21.207,-48.063,-73.277,-74.116
3.439,-4.848,-7.868,69.523,-16.453,-38.842,-44.354,-46.742
2.588,-2.975,1.521,82.339,-6.737,-21.915,-20.243,-25.909
-0.144,-1.306,0.762,91.207,-7.493,-10.337,-26.364,-13.646
-7.558,-5.758,-13.703,86.812,-24.058,-14.817,-52.74,-19.46
-13.44,-11.404,-26.182,74.057,-35.602,-27.451,-67.739,-38.683
-10.191,-8.244,-21.862,70.82,-25.318,-28.277,-56.217,-42.31
-1.373,2.489,-8.825,82.01,-8.549,-13.947,-34.779,-18.283
3.743,9.26,-1.999,92.312,-3.559,-0.805,-24.298,4.783
3.566,7.844,-0.638,89.976,-2.827,-0.024,-26.547,-0.681
2.664,5.646,3.219,80.985,4.3,-6.721,-29.191,-20.512
2.287,7.132,8.358,76.728,9.081,-10.961,-23.786,-23.231
1.063,8.392,8.007,79.574,1.945,-7.991,-17.001,-6.082
0.206,7.02,2.6,83.18,-8.728,-0.893,-16.992,5.295
1.696,6.371,2.387,83.385,-7.894,3.396,-10.638,-2.058
5.931,10.107,17.913,86.327,11.791,4.358,25.227,-2.46
12.204,17.381,44.245,101.106,42.281,11.774,79.656,32.555
17.871,24.118,58.462,122.392,57.842,29.299,100.817,76.53
17.654,25.596,42.362,128.121,36.296,39.412,50.329,72.148
6.183,16.238,-0.751,101.192,-17.045,20.932,-55.368,6.268
-12.694,-2.886,-48.628,52.377,-71.083,-21.686,-151.47,-75.869
-23.7,-17.913,-71.559,15.907,-91.553,-58.199,-178.789,-116.083
-18.273,-16.801,-58.974,14.079,-72.503,-64.334,-144.51,-99.598
-5.178,-3.408,-29.718,35.799,-38.987,-45.192,-93.928,-61.382
2.766,8.841,-6.736,57.875,-15.584,-22.118,-52.967,-33.168
2.082,11.201,0.971,69.029,-9.788,-8.935,-36.3,-22.711
-1.555,7.318,-3.386,69.737,-16.556,-6.184,-49.897,-30.071
-1.327,6.715,-7.788,65.992,-22.215,-8.054,-67.723,-43.071
4.474,13.129,-0.349,66.63,-13.305,-6.838,-56.04,-40.654
11.948,22.798,17.134,77.141,8.517,3.72,-20.866,-19.259
15.501,29.657,29.5,91.157,24.88,18.714,0.954,1.684
11.56,27.85,23.734,92.865,18.593,21.481,-10.587,1.236
-0.434,14.73,2.628,75.729,-6.993,4.702,-38.277,-19.055
-13.334,-0.453,-13.71,56.648,-26.799,-14.418,-46.512,-31.875
-14.959,-1.344,-7.097,57.427,-19.74,-13.255,-20.03,-18.763
-6.019,11.251,14.874,75.188,5.163,7.09,18.76,4.473
-1.154,18.088,28.45,89.238,21.495,24.741,37.879,18.63
-6.623,11.026,23.369,89.895,17.132,25.967,30.477,25.716
-13.042,2.582,10.669,84.546,3.307,18.568,15.177,27.568
-12.332,3.683,3.528,81.257,-5.337,14.609,-0.002,19.601
-10.58,8.416,-1.166,77.375,-12.079,12.714,-27.181,3.202
-16.854,6.102,-13.254,66.616,-27.04,5.427,-65.413,-18.638
-27.073,-1.873,-30.581,50.179,-45.844,-7.234,-101.735,-43.53
-29.965,-5.463,-39.565,35.355,-52.339,-19.664,-121.562,-68.86
-22.322,0.782,-31.255,28.94,-39.01,-26.723,-109.972,-87.483
-13.128,10.856,-17.339,31.591,-23.213,-26.342,-85.606,-85.244
-14.249,12.291,-17.035,34.583,-26.494,-23.636,-82.939,-68.607
-24.611,3.288,-25.727,30.52,-39.167,-25.42,-88.13,-65.011
-30.341,-2.65,-22.496,27.083,-35.214,-27.606,-67.831,-70.933
-25.383,2.032,-6.694,35.285,-16.064,-21.14,-36.236,-56.379
-19.643,7.383,0.823,48.262,-8.577,-8.8,-28.837,-28.491
-19.961,5.891,-6.409,51.755,-18.948,-0.983,-42.143,-22.388
-18.446,6.943,-9.519,49.242,-21.932,2.288,-42.084,-33.608
-11.363,16.168,1.19,52.761,-7.522,8.947,-17.148,-26.713
-8.181,21.633,9.047,59.446,3.039,18.703,3.643,-1.25
-9.662,19.228,3.831,59.94,0.72,23.32,-4.895,10.063
-6.761,21.579,-1.518,54.655,-0.432,17.755,-24.346,-1.749
-4.24,28.098,0.145,47.845,0.975,5.105,-22.85,-16.009
-12.268,23.515,1.901,40.603,-2.295,-6.168,-1.113,-21.721
-23.797,9.072,2.231,34.258,-4.301,-10.445,13.359,-23.764
-26.729,0.765,0.101,32.047,-7.279,-8.044,2.35,-21.755
-22.097,3.995,-4.315,37.45,-16.621,1.035,-9.197,-9.402
-17.315,10.531,0.283,49.3,-16.66,14.829,11.912,13.239
-16.81,10.953,6.849,58.159,-11.502,23.607,23.195,36.507
-21.393,3.635,-9.433,52.922,-30.229,18.286,-30.34,36.063
-27.98,-5.482,-39.461,28.532,-61.272,-4.444,-98.048,-13.791
-28.637,-7.901,-48.342,-3.413,-64.657,-34.695,-107.162,-85.413
-17.915,0.652,-29.721,-15.758,-38.725,-45.871,-75.595,-110.002
-4.046,12.315,-8.688,-2.449,-15.228,-30.811,-54.479,-79.98
1.67,17.096,-0.41,14.125,-8.643,-11.838,-47.666,-47.269
1.06,17.145,5.711,25.788,-4.462,3.262,-30.772,-26.1
-2.459,14.791,15,38.394,3.792,19.077,-9.639,-2.574
-12.683,5.47,12.464,39.726,-0.201,20.546,-15.115,1.415
-26.287,-7.806,-4.903,17.405,-18.194,-4.215,-43.543,-31.347
-33.086,-15.879,-18.064,-10.446,-28.711,-34.381,-58.464,-60.31
-31.556,-16.63,-17.599,-17.315,-25.715,-41.557,-50.05,-48.117
-26.261,-12.306,-12.571,-4.89,-22.438,-27.074,-41.212,-18.176
-18.973,-4.78,-10.403,4.927,-22.422,-14.711,-42.015,-8.801
-12.66,1.84,-8.558,2.654,-18.385,-15.388,-35.751,-22.095
-13.095,2.804,-4.315,-2.454,-11.557,-18.972,-14.334,-34.294
-20.308,-1.538,-2.487,-2.45,-12.001,-16.918,-0.478,-31.81
-26.391,-4.809,-6.8,-0.244,-19.983,-12.611,-12.464,-26.978
-26.39,-3.258,-10.012,-0.003,-21.833,-9.871,-28.382,-31.867
-22.64,0.341,-3.1,2.024,-9.595,-3.625,-19.036,-31.965
-18.652,3.447,8.151,11.16,3.608,10.067,2.129,-10.249
-18.638,3.113,8.794,19.728,-0.045,17.868,2.504,18.403
-24.126,-3.19,-3.24,15.123,-16.783,6.965,-21.293,24.26
-27.675,-8.608,-16.309,0.631,-29.255,-10.54,-50.943,1.055
-23.709,-5.965,-21.364,-10.937,-30.557,-19.514,-68.413,-27.731
-18.098,-0.135,-18.2,-13.395,-27.674,-20.505,-61.826,-37.926
-15.888,3.987,-10.581,-8.217,-25.279,-15.914,-33.262,-37.084
-14.018,8.793,-1.225,-1.129,-17.856,-7.342,0.333,-41.67
-10.501,13.76,6.083,4.058,-7.247,0.729,16.215,-37.843
-6.584,16.334,9.605,10.884,-2.22,8.612,8.93,-10.132
-3.415,18.02,14.056,21.529,0.958,18.636,1.089,21.21
-5.787,16.962,16.089,22.895,3.576,20.588,-2.375,18.139
-17.861,7.193,4.586,3.481,-5.373,5.56,-27.385,-22.854
-31.705,-7.004,-12.212,-16.694,-20.552,-7.221,-62.575,-51.119
-35.375,-12.286,-14.272,-13.416,-21.512,0.544,-63.643,-35.927
-28.69,-5.234,-0.734,0.726,-4.468,11.884,-22.855,-12.412
-18.171,4.961,18.928,6.671,20.384,11.503,39.922,-3.772
-7.803,10.519,37.512,9.867,41.373,11.683,85.985,9.593
-3.18,9.678,35.104,10.295,35.758,16.289,51.892,17.172
-10.291,2.896,-0.372,-6.749,-7.413,8.007,-50.005,-14.134
-21.727,-3.821,-34.702,-32.395,-47.861,-13.422,-104.392,-53.881
-20.419,-0.099,-28.335,-35.674,-40.213,-20.018,-63.251,-40.959
-8.52,10.54,-0.578,-17.196,-7.19,-4.916,-8.521,4.485
-8.189,10.152,2.971,-12.723,-3.225,-0.172,-8.404,11.136
-23.489,-3.555,-20.499,-33.123,-32.435,-19.466,-40.414,-28.705
-33.693,-11.603,-37.959,-50.116,-52.938,-34.65,-58.51,-60.85
-27.447,-3.295,-31.45,-42.354,-41.506,-22.88,-52.873,-51.222
-14.254,12.335,-12.083,-19.26,-16.075,5.171,-35.389,-19.467
-4.868,23.606,3.12,-2.024,-1.155,25.813,-13.662,-0.567
1.848,29.834,11.172,2.551,3.024,30.758,4.118,1.271
12.154,36.157,19.309,4.02,10.31,30.816,8.481,4.412
22.544,40.642,24.563,5.21,16.921,31.527,-1.941,8.769
22.112,36.906,14.593,-5.616,5.381,20.61,-19.815,-8.737
14.152,29.191,-4.077,-26.993,-16.56,-3.034,-29.292,-41.581
14.257,27.708,-10.052,-36.668,-22.309,-15.737,-21.536,-48.765
21.732,29.598,-4.899,-30.501,-13.625,-9.013,-14.753,-29.863
22.854,26.346,-6.821,-27.761,-13.37,-1.229,-24.349,-21.455
21.256,25.149,-9.696,-27.499,-17.424,3.746,-20.906,-19.687
30.296,36.807,6.85,-9.762,-2.95,20.571,28.076,8.717
41.107,49.517,31.007,18.493,20.992,44.517,78.907,54.951
33.603,43.02,27.31,22.378,18.394,48.209,53.196,62.605
13.879,23.463,-4.423,-7.144,-13.188,23.945,-31.108,15.397
5.91,15.532,-24.441,-33.686,-34.488,2.584,-77.094,-24.892
13.005,24.109,-14.311,-34.735,-24.812,3.241,-54.941,-31.565
20.399,32.881,6.963,-31.043,-1.117,5.261,-9.948,-40.979
23.431,34.741,24.224,-30.622,19.425,2.34,30.704,-37.942
26.322,35.519,37.708,-14.98,34.297,16.657,64.077,13.743
28.427,36.567,46.111,9.859,43.675,43.499,83.595,65.565
25.69,33.395,40.956,11.455,40.376,47.477,75.692,44.106
16.325,24.913,14.875,-19.419,14.169,18.862,24.157,-30.008
5.069,16.986,-19.588,-50.716,-24.497,-7.441,-50.196,-70.44
0.81,15.923,-35.072,-51.57,-46.141,-2.393,-82.098,-46.958
4.644,19.221,-25.334,-32.316,-40.252,16.793,-50.576,-4.237
6.055,17.902,-13.981,-25.949,-27.364,16.402,-18.544,4.063
-1.858,9.524,-18.802,-43.747,-27.611,-6.425,-27.278,-33.76
-10.083,3.224,-29.237,-64.553,-36.421,-26.04,-39.2,-75.977
-10.597,3.319,-34.106,-73.221,-43.096,-31.974,-36.261,-90.776
-10.755,0.675,-39.032,-79.282,-47.815,-36.697,-48.866,-90.552
-13.015,-4.929,-37.052,-78.519,-42.325,-33.168,-57.605,-72.067
-7.28,-0.336,-11.79,-51.662,-15.041,-1.838,-12.33,-21.838
4.707,12.122,19.91,-15.11,14.343,35.708,52.426,21.647
8.392,15.293,24.686,-7.694,15.371,38.589,55.733,15.242
1.758,7.044,7.911,-27.077,-1.964,14.572,3.096,-9.636
-3.378,0.862,3.925,-33.65,-3.075,7.735,-23.345,7.141
-0.412,4.352,23.397,-11.863,19.39,33.05,11.473,56.567
6.281,12.404,44.113,7.199,43.146,58.304,55.021,64.909
7.638,14.384,44.596,-8.949,46.956,47.332,54.61,6.786
1.096,7.108,32.646,-41.567,34.039,11.376,36.126,-38.752
-1.715,1.814,33.652,-43.09,29.047,-1.067,48.478,-1.31
7.344,5.847,43.742,-14.61,33.622,21.908,66.158,62.479
16.221,8.571,32.771,-7.936,20.994,34.617,41.4,47.659
14.425,4.974,7.217,-36.712,-1.573,15.145,5.871,-33.845
10.177,6.418,1.49,-58.109,-1.372,-0.944,3.797,-76.983
12.297,15.604,11.342,-50.785,10.803,7.65,2.819,-46.615
20.34,23.879,14.124,-31.814,8.738,24.505,-22.67,8.552
32.268,28.812,20.47,-12.186,9.721,39.48,-26.583,48.112
42.068,30.327,38.926,0.588,28.051,47.258,15.648,55.762
40.681,25.264,44.801,-8.774,35.462,33.925,50.855,28.291
29.796,16.483,26.494,-37.267,18.931,4.771,30.733,-18.038
21.604,12.55,9.698,-57.116,6.553,-11.484,-10.856,-45.817
22.806,15.656,15.241,-48.992,15.57,-0.876,-16.092,-25.608
29.814,20.292,29.208,-27.016,28.245,19.481,1.978,11.115
37.064,23.153,31.898,-18.266,28.805,27.333,11.545,12.759
42.44,26.212,30.699,-23.628,29.514,24.322,35.554,2.59
47.991,33.087,41.915,-20.498,45.346,29.668,81.414,30.883
54.889,43.879,59.548,-4.927,67.377,45.086,99.654,66.642
55.944,49.891,59.443,-1.611,70.355,48.735,60.711,47.087
45.468,43.284,32.568,-21.923,42.272,31.78,2.462,-12.249
35.487,33.383,5.818,-43.83,10.447,12.656,-12.154,-48.71
42.021,36.395,7.42,-45.288,9.71,9.435,22.006,-39.519
59.434,51.828,24.07,-29.442,26.92,20.904,38.92,-0.535
69.557,64.314,27.671,-13.76,29.198,34.071,8.792,35.823
69.112,63.702,19.635,-11.646,21.256,37.719,-17.634,34.953
67.197,54.428,15.458,-22.354,21.68,30.867,-12.761,-0.386
65.157,47.525,16.482,-36.457,25.577,19.049,-2.655,-37.33
59.679,47.489,18.839,-45.775,25.419,8.684,5.365,-50.419
55.89,49.891,23.918,-43.541,26.444,9.489,18.272,-31.034
61.199,52.861,33.169,-25.617,32.873,29.222,25.762,11.647
70.767,58.63,43.58,-0.238,41.268,55.567,26.413,55.101
68.927,59.356,44.028,5.391,40.209,54.688,28.992,61.212
52.386,47.964,28.93,-23.048,26.1,17.533,29.662,11.437
41.571,39.945,18.431,-50.223,21.334,-11.007,29.582,-36.608
50.458,49.044,31.175,-39.705,42.268,3.166,38.749,-23.511
62.485,59.481,47.94,-15.507,62.423,29.904,52.694,10.582
59.783,54.562,46.182,-14.066,55.593,33.583,68.996,9.949
51.866,44.398,41.785,-21.076,45.677,28.674,94.591,6.37
51.633,41.477,50.695,-9.238,55.536,39.53,108.713,44.159
52.301,40.336,52.853,8.488,58.705,54.772,80.541,85.938
45.482,34.117,31.791,1.198,35.66,48.128,25.851,67.522
34.128,24.273,4.876,-31.3,11.569,19.667,-10.24,2.514
23.757,14.891,-3.579,-54.808,10.681,-1.283,-5.182,-29.273
20.735,13.488,10.98,-42.722,27.748,9.772,31.44,10.719
30.067,26.084,35.145,-8.569,49.217,43.939,72.076,70.933
40.776,40.418,48.779,8.279,65.035,63.275,86.985,78.105
32.025,32.034,36.869,-13.417,59.715,40.111,66.93,28.101
5.911,1.854,6.035,-50.702,28.343,-4.012,35.841,-17.399
-10.446,-17.549,-14.299,-64.728,-0.071,-21.395,26.539,-17.192
-3.364,-7.972,-2.719,-46.793,6.595,1.558,48.642,11.214
9.994,10.166,24.419,-23.113,34.029,31.003,77.152,34.117
9.469,11.148,30.567,-21.899,40.116,31.411,68.317,33.595
-1.385,-2.311,8.46,-41.06,17.422,10.186,17.858,13.769
-11.136,-14.626,-14.372,-57.847,-4.541,-4.415,-18.966,-4.588
-20.129,-23.331,-19.528,-63.208,-8.475,-8.987,-9.595,-11.139
-24.666,-27.28,-12.035,-58.984,0.882,-7.01,12.009,-9.02
-14.632,-18.115,1.049,-42.814,16.901,10.772,21.235,4.107
0.852,-1.855,14.891,-23.564,32.151,33.054,38.654,24.752
0.223,0.748,20.26,-21.675,36.755,30.269,67.06,34.692
-17.069,-15.182,12.52,-38.713,27.795,4.392,75.629,25.468
-30.717,-30.413,1.656,-52.737,14.885,-11.158,58.221,11.773
-29.668,-30.619,0.242,-49.751,11.158,-1.355,43.753,11.54
-23.93,-25.358,4.277,-39.826,15.596,16.253,44.689,20.854
-26.069,-27.528,1.38,-36.785,15.243,22.497,44.439,23.387
-34.708,-32.921,-8.78,-39.177,5.33,17.849,32.704,19.717
-42.9,-35.063,-18.558,-41.548,-7.465,12.021,18.487,16.051
-48.231,-38.991,-22.485,-45.702,-13.338,5.858,16.452,9.643
-48.576,-46.724,-16.74,-51.553,-5.73,-5.064,36.076,7.485
-46.706,-54.025,-9.063,-59.981,5.234,-20.595,62.703,7.644
-53.101,-63.979,-18.685,-78.108,-3.341,-39.017,51.17,-9.563
-64.964,-75.626,-43.393,-96.21,-30.716,-50.129,-10.208,-26.384
-66.209,-74.682,-54.328,-90.552,-45.138,-37.879,-59.525,-8.575
-58.072,-59.518,-42.548,-68.423,-33.579,-13.313,-50.167,18.038
-55.841,-48.345,-30.159,-62.22,-19.433,-8.123,-11.488,9.318
-59.282,-49.025,-26.643,-74.305,-14.278,-22.331,18.539,-19.448
-57.117,-50.941,-19.306,-77.198,-3.914,-26.075,38.424,-22.749
-50.44,-49.025,-7.431,-63.016,10.921,-12.38,49.597,6.536
-48.813,-49.963,-6.129,-51.262,11.272,-1.706,42.729,33.865
-49.66,-52.799,-13.643,-49.699,-0.585,-0.466,30.601,41.75
-44.196,-49.001,-12.013,-46.452,-2.614,2.076,36.795,46.112
-41.34,-44.782,-6.322,-45.665,3.934,0.583,40.992,40.859
-52.786,-52.468,-12.391,-60.939,4.012,-15.267,24.585,7.371
-64.513,-63.376,-15.3,-75.09,8.444,-26.252,23.512,-21.984
-63.854,-65.518,-5.715,-67.248,19.705,-14.384,36.727,-6.378
-63.343,-66.942,-8.292,-52.283,10.616,2.125,21.69,32.658
-67.824,-72.561,-24.91,-49.763,-13.124,3.855,2.592,41.215
-66.435,-74.004,-32.359,-61.95,-19.408,-7.522,8.062,-2.823
-62.584,-71.808,-36.649,-83.776,-18.025,-26.55,-3.739,-58.854
-68.931,-76.71,-52.514,-103.673,-33.092,-49.645,-44.285,-75.413
-82.246,-90.338,-67.752,-113.135,-51.428,-69.668,-63.705,-62.559
-87.849,-99.71,-67.34,-108.612,-52.446,-71.521,-41.665,-42.974
-81.808,-94.85,-55.449,-87.591,-42.071,-48.01,-9.44,-6.069
-73.647,-83.018,-45.386,-63.121,-35.297,-18.991,-1.003,31.514
-67.652,-75.217,-40.942,-54.464,-30.58,-7.43,-11.276,29.011
-59.483,-70.751,-32.923,-57.185,-17.375,-8.634,-3.259,2.701
-52.438,-65.76,-19.504,-51.556,-2.262,-5.857,33.593,12.651
-56.173,-64.713,-14.409,-36.835,-2.699,0.624,58.518,59.755
-68.594,-72.457,-24.063,-33.239,-16.61,-1.293,39.97,74.33
-77.125,-82.292,-36.689,-50.543,-25.797,-15.109,3.731,25.926
-78.419,-85.45,-43.306,-76.405,-24.783,-34.578,-15.256,-33.634
-78.642,-84.051,-43.857,-89.133,-19.587,-46.361,-7.693,-38.152
-75.757,-79.658,-30.596,-66.124,-6.688,-27.292,33.98,36.476
-65.218,-68.782,-5.421,-13.137,12.662,23.642,82.256,133.191
-58.399,-61.981,-1.517,9.509,12.3,48.778,66.898,128.238
-67.834,-73.702,-34.578,-42.051,-17.43,-1.122,-7.787,-3.65
-83.291,-92.411,-68.346,-116.103,-43.599,-77.681,-54.73,-120.11
-88.295,-98.968,-78.617,-142.739,-51.866,-105.618,-60.728,-126.846
-83.388,-95.449,-82.795,-129.104,-61.802,-88.025,-78.245,-84.283
-75.013,-89.429,-81.315,-108.965,-64.679,-63.259,-81.537,-50.809
-64.715,-81.861,-57.733,-87.497,-39.1,-41.422,-25.996,-20.436
-55.962,-76.591,-30.267,-68.939,-9.073,-26.131,26.291,0.928
-50.857,-74.111,-25.312,-63.63,-4.98,-24.306,13.147,-5.256
-45.811,-67.012,-29.435,-63.846,-10.568,-25.854,-9.975,-17.864
-40.921,-55.749,-20.773,-53.725,-3.6,-17.174,17.498,3.627
-36.256,-44.534,-0.241,-27.689,13.895,4.913,70.89,58.682
-26.969,-29.841,24.143,5.648,37.606,35.024,105.178,98.044
-22.814,-22.627,29.011,13.447,44.666,42.979,81.343,72.831
-39.335,-42.969,-8.957,-27.055,6.509,4.044,-2.338,4.055
-60.883,-74.346,-55.899,-73.48,-42.939,-41.43,-58.919,-27.042
-59.915,-79.66,-59.647,-70.971,-47.6,-39.67,-31.359,7.887
-41.458,-58.662,-32.409,-36.164,-20.853,-7.554,15.821,53.391
-27.688,-39.796,-16.072,-20.371,-5.695,5.616,26.168,55.747
-22.3,-33.694,-13.206,-32.571,-1.111,-7.488,29.025,17.022
-15.309,-28.764,-2.364,-40.814,15.329,-16.177,56.172,-9.344
-6.697,-20.183,11.395,-29.081,32.982,-5.455,71.867,13.721
-8.341,-19.755,-4.081,-23.764,14.291,1.748,20.537,36.848
-18.397,-28.955,-41.471,-40.758,-29.101,-9.229,-51.83,11.418
-17.708,-28.791,-44.567,-49.102,-31.907,-16.033,-38.937,-11.271
-4.87,-16.178,-7.77,-33.49,10.54,-8.103,33.077,11.146
0.55,-11.571,8.701,-24.792,29.469,-6.237,39.535,28.338
-7.939,-20.921,-14.275,-37.829,2.312,-18.426,-19.236,4.451
-18.964,-30.506,-32.563,-52.75,-21.858,-32.857,-30.96,-25.693
-22.887,-31.78,-21.647,-54.019,-12.079,-38.773,23.492,-26.301
-18.264,-25.107,-2.204,-40.84,10.27,-26.913,65.433,-5.084
-8.579,-13.952,10.179,-20.608,25.292,-1.015,73.419,14.178
0.607,-5.772,21.47,-4.131,38.158,17.143,85.221,32.229
3.877,-8.04,25.699,-0.053,43.163,13.189,79.193,53.079
-0.642,-18.618,7.774,-10.479,24.18,-4.351,11.78,59.447
-5.434,-22.722,-14.282,-16.847,-2.241,-9.448,-52.535,59.861
-1.013,-11.172,-8.915,2.799,-3.356,14.837,-36.837,77.842
4.752,-0.342,8.361,22.111,11.557,37.231,3.774,67.946
-4.262,-9.906,-0.737,-5.518,7.19,9.354,-2.197,-16.013
-21.777,-28.432,-28.35,-58.289,-14.868,-48.342,-27.561,-94.892
-26.941,-33.178,-39.11,-74.213,-24.89,-70.317,-32.998,-84.739
-19.71,-28.391,-32.929,-53.634,-21.62,-51.659,-28.99,-37.725
-14.548,-28.059,-28.381,-36.768,-20.531,-34.162,-20.217,-16.148
-9.718,-24.27,-15.849,-21.295,-9.193,-18.439,14.293,7.189
2.369,-8.143,14.758,11.389,22.799,15.764,65.494,49.732
12.237,6.898,38.38,40.53,47.292,45.922,80.735,73.803
6.593,4.826,28.958,34.071,38.698,36.139,31.188,54.163
-9.692,-11.356,-0.933,-1,13.051,-2.757,-33.664,12.16
-16.953,-21.578,-13.946,-21.161,4.464,-22.732,-35.214,-4.156
-8.72,-15.523,1.266,-5.387,18.436,-4.297,21.773,18.151
-4.153,-11.493,9.836,8.435,22.011,13.585,48.645,25.655
-13.92,-22.428,-10.301,-11.724,-1.058,-3.455,14.932,-6.816
-20.982,-30.913,-26.71,-35.04,-16.145,-29.714,-7.69,-21.958
-15.257,-25.373,-13.856,-27.564,0.114,-28.436,19.55,10.569
-7.908,-17.774,2.103,-8.078,18.24,-9.797,44.011,37.537
-2.637,-13.354,-0.839,-4.404,16.925,-1.585,32.092,21.596
7.065,-5.197,-6.374,-9.705,14.902,-3.563,16.554,-0.851
16.33,3.923,-2.981,-6.654,20.59,-0.042,21.284,8.947
15.548,4.998,-0.836,3.207,20.655,9.661,33.731,34.653
7.589,-1,-5.34,7.243,13.671,12.475,36.877,41.803
-0.014,-7.506,-13.139,0.597,5.69,2.206,27.484,25.952
-7.814,-13.877,-22.528,-10.96,-5.053,-13.783,17.431,6.508
-16.104,-20.19,-29.465,-18.282,-15.906,-22.814,16.853,0.628
-16.37,-19.707,-25.911,-13.824,-14.891,-16.646,22.747,11.351
-4.766,-9.521,-12.506,-0.72,0.516,-2.769,27.117,23.873
7.59,0.82,-2.084,6.085,15.039,1.393,25.169,19.563
8.603,0.747,-1.23,0.802,16.838,-6.212,24.136,5.372
2.482,-6.24,-0.192,-1.25,14.383,-7.702,34.725,10.067
2.987,-6.143,6.504,13.637,16.236,8.474,38.903,39.337
9.519,2.58,4.533,29.737,10.303,25.428,8.364,54.741
9.091,5.967,-12.52,20.51,-9.222,16.452,-28.102,26.922
4.345,2.944,-22.857,-4.079,-19.454,-9.73,-16.938,-9.308
7.461,4.554,-14.608,-12.019,-7.968,-19.321,17.641,-13.716
11.665,6.135,-9.423,-7.113,0.96,-14.733,12.9,-8.979
6.641,0.155,-19.952,-11.906,-9.809,-22.244,-18.451,-18.121
3.544,-2.149,-26.838,-16.426,-20.665,-31.744,-24.407,-17.967
13.012,7.775,-18.068,-4.027,-14.326,-20.061,-6.828,0.547
24.802,20.202,-7.569,10.984,-2.681,-0.627,8.031,13.459
27.118,24.52,-5.545,11.529,1.665,2.596,17.037,11.017
22.465,21.976,-7.601,5.507,0.745,-5.253,15.949,6.718
19.392,20.404,-9.282,6.648,-2.197,-5.656,-0.094,8.666
22.67,23.644,-7.113,14.117,-1.488,2.887,-14.831,11.576
30.503,27.932,1.943,19.536,10.753,9.097,-13.854,10.69
36.961,28.248,12.403,19.166,27.76,8.921,-2.966,8.015
37.545,23.914,14.992,15.339,32.044,5.952,7.964,8.003
32.885,19.111,10.011,12.228,22.06,1.517,13.716,12.09
28.071,19.529,5.991,11.797,14.101,-2.466,12.542,15.168
27.49,24.804,7.458,12.93,15.937,-2.048,8.8,11.484
29.811,26.745,10.68,12.572,19.352,-1.961,6.921,3.994
29.357,19.575,9.844,8.543,17.818,-9.861,4.621,-0.763
24.864,9.355,4.809,4.158,13.769,-19.149,-2.146,-1.479
22.603,7.149,0.172,5.744,9.43,-17.197,-13.828,-0.481
24.352,13.287,-2.381,12.219,3.636,-6.643,-24.502,-1.232
23.753,18.836,-3.471,15.054,-1.169,-3.571,-22.035,-3.866
20.619,21.621,-0.416,13.203,1.94,-10.854,-2.099,-2.506
21.867,25.678,7.675,15.262,13.962,-12.022,15.26,4.829
25.637,27.523,12.159,20.833,22.528,-3.72,6.15,10.183
23.019,21.222,5.584,19.476,15.821,-2.438,-16.238,6.579
14.854,12.505,-4.701,11.261,1.699,-12.069,-22.295,-1.414
9.007,9.127,-8.915,6.155,-4.875,-19.502,-15.488,-5.174
6.799,7.479,-7.934,7.457,-3.323,-18.96,-11.679,-2.761
6.34,3.815,-4.005,11.565,0.946,-17.069,-8.039,3.475
9.418,2.888,3.258,15.883,8.257,-18.578,-5.021,8.843
14.718,6.539,9.209,20.171,15.859,-19.325,-12.004,6.3
14.034,8.686,7.408,25.324,15.005,-14.64,-24.62,-3.74
3.592,4.304,-0.24,31.661,4.998,-9.033,-28.922,-10.446
-10.525,-6.131,-6.509,36.728,-3.552,-11.057,-21.25,-8.714
-20.731,-17.247,-8.913,38.353,-4.191,-19.177,-10.264,-6.207
-22.1,-20.317,-9.781,38.824,-1.666,-22.844,-10.731,-8.364
-14.349,-12.487,-11.28,39.885,-1.805,-19.758,-28.018,-10.947
-5.41,-2.984,-13.538,39.392,-3.46,-17.654,-43.409,-11.386
-4.63,-3.007,-17.353,36.64,-5.914,-19.851,-42.672,-13.766
-11.303,-11.969,-25.224,33.702,-14.469,-23.677,-38.754,-18.999
-15.543,-19.092,-31.547,33.544,-23.192,-25.572,-35.514,-21.826
-12.337,-18.96,-23.768,38.609,-12.484,-22.156,-14.511,-19.843
-7.436,-15.083,-3.744,47.754,15.631,-14.839,20.082,-14.994
-7.963,-10.618,4.841,54.524,26.007,-10.955,24.088,-10.346
-17.007,-9.833,-17.914,50.684,-6.222,-17.124,-28.292,-12.138
-30.267,-15.529,-54.223,38.503,-54.261,-29.65,-89.302,-21.216
-36.757,-21.56,-67.097,30.446,-71.912,-37.131,-99.967,-27.169
-33.373,-23.049,-54.807,29.594,-59.229,-37.959,-76.167,-24.116
-25.963,-21.396,-41.323,30.739,-46.431,-36.909,-60.176,-17.922
-16.533,-16.316,-30.586,35.801,-37.165,-30.677,-51.221,-15.004
-6.647,-9.299,-15.994,45.791,-21.174,-20.602,-37.898,-15.118
-2,-6.214,-5.753,52.377,-8.052,-17.607,-31.183,-14.908
-2.8,-6.6,-8.317,52.337,-10.089,-20.839,-37.108,-13.494
-3.379,-4.311,-15.943,52.285,-19.75,-20.556,-40.22,-11.711
-2.895,-0.765,-17.968,54.196,-23.868,-19.442,-29.593,-10.417
-4.465,-2.253,-15.297,54.506,-21.482,-23.338,-17.791,-11.279
-7.351,-7.799,-14.375,54.573,-19.365,-25.285,-21.651,-14.704
-8.239,-11.241,-15.24,58.161,-19.384,-19.498,-36.356,-17.587
-7.673,-11.689,-12.605,62.644,-16.994,-13.639,-42.382,-16.707
-9.728,-14.159,-6.285,61.753,-11.563,-15.34,-33.46,-13.119
-14.661,-19.064,-1.73,56.583,-8.685,-19.778,-22.766,-9.928
-18.787,-21.635,-1.681,54.461,-10.686,-17.979,-22.792,-8.528
-21.251,-22.393,-3.323,57.097,-12.457,-11.252,-29.687,-8.019
-23.189,-24.554,-2.195,60.632,-8.404,-8.554,-29.829,-5.5
-24.868,-26.939,1.465,62.886,-1.387,-11.566,-19.53,-1.028
-25.915,-27.663,3.761,62.918,2.103,-14.053,-10.083,0.249
-24.372,-26.511,4.697,60.339,2.615,-13.602,-10.215,-2.656
-19.414,-24.054,6.851,57.105,3.923,-12.918,-16.38,-5.131
-11.902,-20.264,11.004,56.05,8.071,-12.323,-22.093,-6.351
-0.921,-12.579,16.991,58.908,15.748,-8.544,-24.409,-7.152
10.517,-2.021,20.994,64.186,20.057,-1.277,-24.218,-5.359
13.999,3.462,17.522,67.118,12.616,4.324,-24.96,-2.266
8.919,0.903,10.388,65.671,1.194,3.496,-26.484,-2.015
1.73,-4.862,7.683,61.154,-2.285,-4.844,-24.565,-3.577
-6.04,-12.549,7.943,54.084,-1.781,-17.231,-19.124,-3.889
-12.602,-21.932,7.496,47.783,-2.225,-25.291,-16.5,-3.982
-12.852,-27.472,8.26,47.04,-0.044,-24.438,-20.503,-4.859
-9.04,-26.49,9.494,50.187,2.425,-19.584,-24.58,-3.568
-7.818,-22.789,8.818,52.864,1.308,-16.222,-21.275,0.189
-7.402,-18.101,10.021,55.648,2.571,-12.872,-14.762,2.034
-2.42,-10.816,16.242,60.502,9.584,-6.563,-11.956,2.347
2.588,-5.145,21.682,63.705,14.276,-1.659,-11.243,4.766
-0.656,-8.247,20.05,59.646,11.445,-4.692,-8.628,6.162
-10.205,-17.802,13.096,49.669,5.602,-12.533,-7.018,1.442
-16.723,-24.389,6.923,41.419,2.492,-15.869,-13.39,-6.013
-13.171,-21.206,7.717,41.774,6.299,-10.286,-24.108,-7.83
-2.317,-9.962,14.608,49.203,13.479,0.007,-26.061,-3.173
4.334,-1.665,17.581,53.801,12.189,6.196,-18.291,1.038
3.516,-2.103,14.504,51.458,4.21,5.035,-11.198,3.393
4.026,-3.333,14.504,49.147,3.909,1.995,-8.497,7.493
6.77,-1.806,17.446,49.44,9.034,-0.419,-8.773,10.467
2.851,-5.545,14.186,45.744,5.987,-6.252,-13.046,7.633
-5.695,-14.358,6.602,38.486,-1.888,-12.317,-20.546,2.761
-7.138,-17.666,4.987,36.507,-1.54,-9.341,-25.36,2.097
-1.08,-13.678,9.917,40.431,5.972,0.114,-23.094,5.144
2.63,-9.791,13.487,42.716,10.228,4.661,-16.99,8.637
0.985,-9.766,12.311,39.881,7.365,1.02,-13.056,11.234
-0.773,-11.664,9.368,34.631,1.544,-4.376,-13.109,11.33
0.323,-12.797,8.845,31.673,-0.332,-4.461,-14.28,8.98
1.536,-12.914,11.502,32.164,3.378,0.213,-13.306,7.602
0.561,-12.57,13.309,31.403,6.169,2.621,-12.31,7.763
0.506,-10.189,12.525,27.247,5.475,1.449,-14.452,6.753
5.615,-4.75,13.045,24.83,6.756,2.165,-15.844,6.027
12.74,-0.671,14.528,25.036,8.629,2.805,-14.366,7.453
14.028,-2.23,12.304,22.513,4.572,-1.518,-14.936,6.839
8.676,-5.465,9.019,19.132,-0.235,-3.906,-16.015,2.864
3.3,-5.339,10.075,20.701,1.963,1.027,-10.391,2.092
2.031,-3.059,12.367,24.874,5.313,5.75,-2.487,7.192
3.527,-0.429,10.607,26.134,2.973,6.406,-3.05,12.672
6.953,3.993,8.616,25.204,1.618,8.798,-6.543,15.88
12.796,9.987,12.485,24.944,8.53,13.281,-0.581,18.83
17.27,12.519,17.757,22.917,16.805,12.335,6.678,21.056
17.051,10.294,18.232,18.149,17.673,7.081,3.841,21.963
16.731,11.381,18.933,17.749,16.026,9.676,2.322,23.569
20.578,19.919,23.7,25.056,18.071,22.816,8.093,26.686
24.523,27.645,25.011,32.055,17.77,33.244,7.946,31.001
25.68,28.274,22.286,33.271,13.251,32.681,7.488,37.045
28.659,27.184,25.715,32.44,14.977,28.086,19.732,41.969
35.166,30.297,31.942,31.097,21.875,27.363,25.945,38.951
40.854,36.134,31.231,29.243,23.329,32.432,16.7,29.763
42.426,39.358,29.605,29.395,23.242,38.504,16.218,26.131
37.678,34.907,28.921,25.916,23.062,32.427,21.893,29.251
30.039,25.997,20.072,14.24,12.943,14.262,6.982,28.097
31.959,24.589,11.345,6.92,2.641,6.031,-15.973,21.843
46.255,33.495,16.962,11.54,10.778,15.765,-18.756,19.294
58.634,42.243,28.202,16.64,27.094,26.345,-8.737,21.474
59.733,45.041,30.606,15.559,28.878,27.435,-2.46,24.535
53.602,44.465,26.754,13.569,18.522,24.451,3.38,27.157
45.94,42.181,26.049,13.12,15.283,22.586,11.957,28.709
39.235,38.208,28.572,12.242,20.505,21.678,16.056,29.513
33.521,33.158,27.068,9.504,18.087,21.009,12.38,28.272
30.966,31.543,22.837,7.378,9.547,24.099,8.554,24.215
37.432,40.303,27.253,11.94,14.451,35.543,14.656,24.435
49.632,54.897,39.925,21.324,31.801,49.208,27.389,32.043
55.106,60.535,45.059,23.543,38.91,50.079,31.329,36.27
51.66,54.382,36.504,14.2,28.137,35.37,22.814,30.661
47.716,47.099,26.357,3.085,15.16,20.185,15.413,24.025
46.26,43.721,25.457,-0.544,14.037,16.286,17.168,24.012
43.379,40.096,29.435,0.846,18.996,18.377,21.737,26.369
37.33,33.51,29.698,-0.075,17.338,16.686,23.157,26.323
31.745,28.373,28.669,-2.469,13.413,13.493,23.044,26.253
30.057,30.082,32.041,-0.781,18.644,17.15,23.072,27.377
28.509,33.907,34.911,1.591,26.267,24.313,21.975,26.411
22.119,30.861,30.829,-1.916,22.952,24.394,20.061,23.398
16.476,24.683,25.413,-6.529,13.643,19.584,19.353,22.738
20.694,26.246,27.813,-3.983,13.068,21.604,19.595,24.797
32.079,34.828,36.73,3.33,23.138,31.603,19.428,25.386
40.372,41.051,44.315,7.474,33.13,39.503,20.054,23.756
41.895,42.424,47.733,6.262,36.611,39.972,22.397,22.938
41.818,44.276,50.31,4.043,38.113,38.65,23.636,24.026
46.275,49.89,54.211,4.591,42.267,41.334,21.981,25.4
54.073,56.023,56.586,5.594,44.776,43.805,21.059,25.373
57.267,57.678,54.223,2.974,40.828,41.308,23.636,23.514
52.325,54.576,48.512,-1.83,33.622,37.872,26.097,20.526
45.449,50.842,42.806,-5.439,27.243,34.617,25.029,18.595
44.81,51.211,39.18,-8.276,22.944,28.303,22.127,19.322
52.093,57.239,38.899,-10.677,23.867,24.661,19.748,19.902
61.604,64.459,40.914,-11.145,29.722,28.316,18.425,18.025
67.167,67.028,40.937,-11.611,32.025,29.941,17.444,16.882
67.51,63.923,34.896,-16.775,23.823,22.503,15.133,16.471
63.572,57.989,24.356,-25.913,9.507,13.264,11.747,12.469
57.698,53.182,17.475,-31.487,1.263,11,10.361,7.889
54.785,52.282,19.689,-29.462,4.407,14.722,12.143,8.704
55.571,54.654,25.669,-25.522,10.792,17.204,13.874,11.826
53.615,56.289,25.665,-26.869,10.157,14.019,12.871,10.998
47.443,54.379,18.8,-31.381,3.339,9.985,11.146,7.541
45.464,51.695,14.567,-31.906,0.487,12.198,10.693,6.632
51.231,51.587,18.054,-29.209,5.482,16.332,9.711,8.336
58.18,53.513,23.466,-27.929,11.325,16.29,8.049,9.402
62.006,56.396,25.404,-26.149,13.124,17.917,9.194,10.382
63.134,58.092,24.872,-22.381,13.151,23.844,13.105,13.723
59.53,55.455,24.153,-20.516,13.91,26.881,15.124,16.732
48.882,48.763,21.955,-23.274,11.874,24.087,14.284,14.996
34.785,40.458,15.207,-30.722,1.438,16.397,13.734,10.56
25.037,33.26,6.23,-40.232,-11.923,5.395,13.431,7.139
22.832,29.202,0.534,-47.169,-17.042,-3.03,9.996,2.538
23.774,27.847,-2.41,-50.078,-15.64,-4.822,2.636,-4.187
25.732,30.612,-4.402,-49.062,-14.315,-1.747,-2.771,-5.689
30.983,38.628,-2.727,-43.605,-10.749,3.342,-0.272,1.547
34.892,43.387,0.543,-38.752,-5.808,6.696,4.866,7.162
30.262,36.409,-1.309,-42.053,-7.022,4.395,3.538,2.319
22.436,24.532,-7.678,-51.757,-13.877,-2.464,-2.544,-6.788
21.564,19.848,-13.419,-58.972,-19.42,-8.722,-6.158,-11.267
25.813,22.499,-17.901,-59.715,-21.194,-10.682,-5.785,-11.231
26.024,23.047,-23.05,-58.879,-21.836,-9.685,-4.501,-10.371
20.06,17.028,-28.861,-62.953,-24.161,-11.814,-5.241,-10.83
13.761,10.37,-33.57,-70.197,-27.285,-19.381,-8.07,-13.015
11.586,8.875,-35.77,-73.032,-28.59,-24.97,-10.644,-15.219
13.144,11.363,-34.405,-69.047,-26.084,-20.419,-12.458,-16.286
16.229,15.682,-29.112,-62.303,-19.043,-8.26,-13.73,-16.253
17.678,20.829,-23.877,-57.788,-12.749,-1.19,-10.503,-13.09
14.586,23.039,-24.677,-58.758,-15.155,-7.454,0.389,-7.227
7.363,18.374,-31.902,-65.29,-25.798,-19.097,12.221,-6.45
0.345,10.287,-39.348,-72.523,-35.638,-23.513,15.743,-13.068
-1.262,7.982,-39.778,-72.77,-36.426,-20.02,13.67,-15.689
3.161,13.898,-33.022,-64.518,-29.698,-14.897,14.349,-8.674
9.332,20.855,-26.322,-54.968,-23.757,-8.912,17.324,-2.406
13.429,22.908,-23.935,-50.794,-20.283,-2.302,17.028,-3.713
13.031,19.664,-25.108,-53.639,-16.82,-2.455,12.468,-7.745
8.113,14.006,-29.609,-60.917,-17.667,-11.516,6.849,-11.248
4.406,11.439,-35.647,-66.578,-25.724,-19.459,3.41,-15.02
6.975,14.452,-39.719,-68.124,-34.474,-21.107,2.806,-17.396
12.797,18.489,-41.838,-69.822,-38.436,-23.196,2.73,-16.547
16.067,19.155,-43.801,-73.389,-39.529,-28.366,1.799,-13.899
14.154,16.954,-45.204,-74.728,-39.974,-29.281,1.92,-11.523
7.554,12.779,-45.542,-72.353,-38.794,-22.616,3.518,-10.44
0.176,7.459,-45.621,-69.008,-35.736,-15.063,3.109,-10.517
-4.753,3.774,-45.867,-67.314,-32.554,-12.774,-1.6,-11.012
-10.064,1.65,-46.74,-69.215,-32.154,-14.53,-7.677,-12.573
-18.805,-2.677,-49.161,-74.055,-37.881,-17.745,-9.077,-14.404
-28.472,-10.074,-52.462,-78.039,-47.952,-23.439,-4.991,-13.17
-35.718,-17.114,-53.626,-78.639,-54.231,-29.279,-2.489,-9.622
-39.262,-20.712,-50.613,-76.159,-53.368,-28.712,-4.374,-7.375
-38.204,-20.743,-45.092,-72.696,-49.616,-24.289,-3.178,-5.502
-32.439,-18.384,-38.817,-70.727,-43.092,-24.421,6.439,-1.301
-24.899,-15.594,-32.226,-71.556,-30.6,-28.166,15.481,2.433
-20.953,-15.936,-29.53,-75.865,-19.724,-31.34,9.044,0.583
-22.472,-20.124,-34.637,-81.077,-23.642,-33.875,-9.172,-3.875
-25.298,-23.114,-41.074,-79.993,-37.433,-32.137,-19.059,-3.148
-27.371,-21.404,-39.998,-71.591,-41.494,-24.359,-18.238,0.109
-33.232,-19.006,-35.85,-65.497,-35.272,-18.622,-22.298,-2.961
-43.473,-21.018,-37.519,-66.361,-36.48,-18.769,-29.859,-8.97
-50.031,-25.792,-40.95,-67.885,-44.975,-19.746,-25.341,-7.306
-48.388,-27.901,-38.359,-67.118,-45.589,-20.934,-13.589,-0.379
-41.32,-24.25,-32.473,-66.903,-37.194,-21.957,-16.278,-0.126
-33.203,-17.492,-29.086,-67.742,-29.823,-18.449,-33.361,-6.433
-32.195,-16.41,-30.675,-71.484,-31.5,-17.237,-40.735,-8.033
-43.776,-25.718,-37.74,-80.698,-43.05,-29.085,-30.532,-3.679
-58.572,-38.778,-45.482,-90.845,-52.986,-46.375,-21.157,-3.246
-62.468,-46.209,-47.015,-94.235,-51.306,-52.397,-21.827,-8.895
-52.902,-42.566,-40.629,-86.501,-42.63,-43.032,-20.625,-10.822
-38.021,-28.965,-29.009,-69.382,-32.889,-27.674,-14.859,-3.642
-28.958,-17.105,-18.529,-53.388,-24.148,-17.286,-17.782,3.358
-31.556,-18.147,-17.568,-48.861,-24.166,-14.933,-29.859,-0.706
-40.52,-26.695,-26.68,-52.397,-36.643,-15.54,-36.68,-11.238
-46.734,-30.445,-35.686,-53.942,-48.708,-15.59,-33.882,-15.472
-47.555,-28.106,-36.512,-52.46,-47.148,-17.22,-29.987,-12.23
-46.205,-26.502,-33.229,-53.902,-38.452,-21.196,-28.948,-10.168
-47.535,-30.193,-34.841,-60.807,-39.548,-26.31,-26.016,-11.265
-52.386,-36.849,-39.841,-66.486,-51.051,-29.162,-18.892,-9.662
-54.578,-39.752,-36.744,-60.157,-54.351,-22.191,-10.959,-2.848
-50.796,-37.853,-22.847,-42.922,-40.434,-5.323,-5.242,3.972
-46.907,-36.188,-7.973,-28.278,-20.93,10.008,-2.148,5.259
-48.065,-36.673,0.576,-25.073,-7.945,13.897,-1.546,3.136
-53.752,-40.369,1.67,-32.882,-4.465,4.199,-4.588,0.77
-62.161,-49.879,-3.872,-46.948,-8.757,-12.282,-10.902,-5.555
-69.389,-60.771,-11.127,-59.251,-14.851,-23.988,-15.464,-16.438
-69.181,-63.358,-13.356,-63.386,-16.413,-28.531,-14.207,-22.595
-60.177,-56.712,-9.502,-59.453,-12.45,-30.444,-11.149,-19.305
-50.695,-50.979,-4.536,-51.843,-7.433,-28.879,-11.924,-13.504
-49.22,-51.729,-2.815,-44.783,-8.243,-22.836,-12.254,-9.351
-51.53,-50.857,-3.5,-38.699,-15.779,-15.097,-5.746,-5.032
-47.546,-40.486,-2.529,-30.85,-20.474,-5.859,1.237,-2.796
-37.588,-25.894,1.812,-20.662,-15.678,4.382,0.713,-3.752
-29.793,-16.567,7.217,-12.241,-7.693,10.302,-0.956,-2.471
-25.86,-12.783,12.169,-9.49,-2.205,9.466,3.014,1.622
-23.454,-10.337,16.708,-11.466,3.117,6.695,6.218,0.971
-26.471,-12.276,17.679,-15.583,5.218,3.956,3.484,-5.959
-36.835,-22.509,12.75,-20.633,-1.891,-1.323,0.361,-10.76
-46.254,-34.298,6.981,-25.031,-11.03,-6.413,0.782,-9.182
-48.539,-38.934,5.953,-27.181,-11.722,-7.485,2.063,-5.923
-48.271,-38.579,7.369,-27.076,-7.381,-6.278,3.139,-4.507
-50.578,-39.385,7.331,-25.178,-4.513,-3.635,4.903,-4.214
-51.782,-39.235,8.8,-21.325,0.078,1.847,6.188,-3.924
-47.211,-34.205,15.094,-16.212,8.07,8.123,7.236,-1.92
-42.665,-30.647,20.747,-13.673,12.157,9.324,9.984,0.838
-46.299,-36.224,19.216,-17.101,8.414,2.211,12.381,-0.593
-53.125,-44.606,14.402,-21.479,2.681,-5.255,12.007,-4.763
-52.503,-44.489,14.013,-18.724,1.81,-2.368,11.729,-4.426
-45.882,-37.469,16.313,-12.002,4.574,5.454,12.931,-0.86
-42.159,-32.101,14.858,-10.003,4.444,6.548,12.868,-0.816
-41.656,-29.413,12.01,-11.793,2.613,4.089,12.241,-3.196
-39.318,-27.796,12.721,-12.901,4.689,5.456,12.906,-3.827
-36.382,-29.623,12.289,-15.005,5.638,6.731,12.502,-4.464
-35.755,-32.733,6.737,-18.025,-0.175,4.392,10.919,-6.236
-35.674,-30.48,1.507,-17.809,-6.139,3.335,12.286,-5.37
-34.764,-23.935,-0.298,-15.6,-6.626,5.282,16.096,-1.797
-32.832,-18.998,-1.063,-14.476,-3.897,8.194,16.866,-0.648
-28.355,-15.909,0.04,-12.155,1.139,13.028,14.522,-2.295
