EEG 1,EEG 2,EEG 3,EEG 4,EEG 5,EEG 6,EEG 7,EEG 8
-20.353,-31.484,8.886,-0.753,11.467,-3.092,12.242,13.369
-20.97,-30.099,10.113,-0.418,13.016,-1.517,13.349,16.473
-25.158,-33.003,4.478,-4.087,4.753,-2.58,8.719,13.631
-29.51,-37.588,-3.492,-8.34,-5.09,-5.663,3.1,5.995
-29.542,-37.888,-6.401,-7.492,-6.753,-5.474,2.391,1.972
-25.983,-34.499,-5.226,-2.786,-3.059,-2.294,5.93,5.369
-20.704,-30.124,-4.883,0.459,-0.421,0.321,7.389,11.117
-13.845,-24.368,-5.955,0.595,0.415,2.227,3.445,11.783
-7.258,-17.628,-6.141,1.117,-0.087,5.464,-0.821,7.733
-4.507,-12.347,-5.008,4.617,-2.22,9.67,0.589,6.719
-7.46,-11.392,-4.508,7.275,-3.526,10.725,4.015,10.857
-14.477,-16.688,-5.784,4.748,-1.367,7.165,2.328,14.763
-21.182,-26.064,-8.416,-0.609,0.166,2.781,-2.842,17.01
-25.1,-34.571,-13.297,-5.808,-6.012,-0.482,-7.151,16.502
-26.691,-39.081,-19.635,-12.386,-16.448,-5.213,-11.624,5.57
-26.151,-39.169,-22.264,-20.619,-20.08,-14.135,-14.742,-13.522
-24.366,-36.736,-20.404,-26.876,-17.094,-24.426,-13.134,-24.836
-22.949,-35.318,-20.297,-29.489,-16.93,-30.23,-12.9,-25.262
-21.998,-36.368,-23.467,-31.505,-19.898,-32.626,-19.515,-27.254
-20.108,-35.808,-23.64,-33.288,-19.56,-33.983,-24.723,-31.907
-15.779,-30.385,-18.764,-30.128,-16.471,-28.793,-22.558,-27.451
-9.988,-24.904,-15.074,-23.009,-15.048,-17.663,-20.291,-14.672
-5.107,-22.759,-15.338,-18.891,-14.665,-12.972,-21.363,-9.367
-2.329,-20.068,-14.787,-18.414,-12.634,-18.017,-19.065,-15.818
-3.133,-16.82,-12.543,-17.165,-10.603,-20.756,-13.628,-20.726
-7.247,-17.488,-14.306,-15.557,-12.975,-14.929,-14.702,-18.467
-10.076,-20.424,-20.828,-16.696,-20.159,-9.709,-21.447,-16.123
-8.916,-20.636,-25.603,-20.091,-26.322,-13.354,-22.294,-16.229
-6.465,-19.269,-25.674,-23.863,-26.177,-21.141,-17.195,-18.103
-4.966,-20.989,-24.774,-27.038,-22.129,-24.436,-16.734,-21.553
-4.949,-25.72,-25.925,-29.364,-21.118,-24.552,-23.15,-24.64
-8.444,-29.267,-27.689,-31.125,-24.505,-28.03,-28.67,-28.059
-13.637,-28.718,-25.796,-29.387,-24.158,-30.079,-25.79,-29.135
-14.274,-25.33,-19.473,-22.146,-16.131,-22.621,-16.974,-22.351
-11.796,-24.443,-16.152,-17.03,-11.927,-14.66,-14.348,-14.862
-13.238,-28.811,-19.968,-21.019,-18.376,-18.702,-21.347,-18.293
-17.501,-33.875,-23.454,-27.875,-23.559,-27.605,-26.909,-28.644
-18.379,-35.33,-21.036,-28.793,-19.307,-27.786,-25.012,-32.766
-14.831,-34.627,-16.416,-23.974,-12.255,-20.115,-20.285,-25.886
-11.342,-33.979,-13.55,-17.859,-8.615,-13.057,-16.784,-14.863
-13,-33.611,-12.684,-14.238,-8.379,-10.226,-15.852,-10.154
-20.224,-35.112,-13.599,-15.482,-10.123,-11.075,-17.885,-14.204
-26.757,-39.223,-16.181,-19.316,-12.605,-13.534,-22.406,-19.502
-25.918,-40.194,-18.459,-19.688,-14.431,-13.707,-27.318,-19.504
-20.425,-34.191,-18.485,-15.05,-15.043,-9.745,-28.144,-14.748
-19.716,-28.79,-19.234,-12.401,-17.171,-7.61,-25.26,-11.972
-24.408,-30.102,-24.786,-17.835,-23.112,-13.852,-25.679,-18.313
-24.67,-30.913,-30.583,-25.112,-27.126,-21.669,-29.442,-28.218
-18.313,-24.997,-29.45,-24.085,-23.456,-19.461,-29.023,-28.297
-14.903,-19.644,-25.366,-18.439,-18.727,-12.058,-24.481,-21.036
-17.734,-21.449,-26.046,-18.294,-21.265,-12.717,-22.318,-19.301
-19.076,-24.395,-28.967,-21.328,-27.116,-19.271,-24.275,-21.464
-14.349,-21.862,-26.437,-19.387,-25.875,-19.521,-26.728,-19.793
-6.93,-16.622,-17.032,-14.212,-13.606,-13.094,-26.103,-18.915
-1.446,-13.542,-7.671,-12.32,0.162,-9.656,-22.958,-23.131
-0.093,-13.14,-5.319,-13.363,2.623,-10.981,-20.266,-24.788
-2.542,-14.173,-8.351,-13.217,-4.456,-10.315,-19.351,-20.301
-5.465,-14.222,-9.986,-10.57,-9.133,-5.049,-18.609,-15.514
-5.27,-10.013,-7.232,-6.358,-6.392,0.715,-15.297,-11.106
-2.628,-3.55,-3.147,-3.011,-0.86,2.768,-11.225,-5.086
-0.965,-1.777,-2.42,-3.023,0.734,0.737,-11.668,-2.031
-3.276,-7.653,-6.443,-7.107,-4.321,-4.827,-16.608,-6.344
-9.996,-16.953,-12.651,-14.725,-12.476,-13.894,-21.114,-16.728
-16.508,-23.267,-17.571,-22.424,-18.171,-22.191,-22.396,-26.32
-17.21,-22.603,-18.487,-23.727,-18.584,-22.024,-20.231,-25.927
-11.137,-13.726,-13.082,-15.738,-12.17,-11.332,-14.536,-15.668
-1.315,-0.399,-3.038,-4.218,-0.617,1.949,-7.358,-6.317
6.552,6.485,2.762,1.325,6.251,7.046,-4.303,-3.868
6.437,-0.631,-2.838,-2.634,-0.145,1.397,-9.791,-5.43
-1.46,-14.237,-13.717,-10.585,-12.568,-7.626,-20.047,-8.866
-9.335,-21.334,-18.225,-14.414,-17.597,-11.127,-24.669,-12.563
-10.823,-19.09,-14.892,-11.652,-14.556,-6.768,-19.002,-12.474
-8.278,-12.501,-9.925,-7.035,-10.402,0.111,-11.26,-10.119
-8.943,-7.755,-8.452,-7.778,-9.22,1.491,-13.228,-14.443
-15.617,-10.67,-13.407,-16.475,-13.739,-6.313,-24.856,-27.453
-23.516,-20.608,-22.496,-26.826,-22.498,-18.922,-34.929,-36.901
-28.11,-30.027,-28.006,-30.667,-27.771,-28.193,-37.321,-33.394
-30.093,-33.898,-25.916,-27.771,-25.738,-30.023,-34.232,-24.293
-30.568,-33.173,-21.192,-24.226,-22.234,-27.786,-28.505,-21.452
-30.105,-31.829,-20.486,-24.846,-22.576,-28.101,-24.222,-26.221
-30.29,-32.172,-22.759,-28.123,-23.339,-30.969,-25.127,-31.705
-29.625,-31.043,-21.983,-28.261,-19.441,-29.532,-28.939,-32.897
-23.745,-25.079,-15.923,-22.486,-10.845,-21.42,-29.928,-28.19
-13.96,-18.234,-8.604,-14.661,-1.784,-12.274,-25.664,-17.999
-9.009,-16.725,-6.521,-11.569,-0.03,-8.476,-19.231,-10.321
-12.636,-18.76,-10.268,-13.756,-7.428,-9.658,-15.017,-12.894
-18.472,-18.718,-13.497,-15.159,-14.101,-11.099,-14.499,-19.892
-22.367,-18.203,-14.528,-14.847,-14.935,-12.519,-16.948,-22.662
-25.461,-20.726,-16.876,-16.004,-16.239,-14.908,-19.685,-21.138
-24.905,-22.177,-18.473,-15.822,-19.627,-15.186,-19.226,-18.012
-18.176,-18.602,-15.3,-11.698,-18.447,-13.126,-16.706,-15.587
-10.951,-13.528,-11.024,-8.378,-12.339,-11.261,-17.148,-15.907
-8.142,-9.932,-11.051,-8.96,-9.566,-8.761,-20.366,-17.481
-6.418,-6.407,-12.964,-9.976,-11.725,-5.958,-19.875,-16.187
-1.244,-3.282,-11.336,-9.09,-10.083,-5.559,-14.666,-12.063
5.983,-2.315,-7.087,-9.429,-2.064,-7.9,-12.797,-11.209
8.144,-3.262,-6.733,-14.325,1.151,-12.565,-17.27,-16.504
0.779,-5.657,-12.536,-21.338,-7.499,-18.797,-20.338,-21.957
-8.92,-7.985,-16.633,-24.084,-16.093,-22.803,-17.047,-21.281
-10.138,-7.008,-11.418,-19.589,-11.237,-20.156,-11.615,-15.574
-3.799,-3.573,-2.374,-12.658,0.086,-12.539,-9.301,-11.333
0.552,-2.668,-0.239,-10.421,3.14,-7.769,-11.394,-13.592
0.326,-4.115,-4.223,-11.731,-0.543,-7.479,-15.51,-17.772
0.361,-2.918,-5.823,-10.12,-0.803,-5.108,-17.201,-15.015
0.125,-0.871,-5.618,-7.911,-0.973,-2.589,-15.735,-9.348
-3.638,-4.14,-9.68,-12.547,-8.881,-8.59,-15.461,-12.703
-6.401,-9.588,-14.409,-20.346,-17.367,-18.001,-17.435,-22.266
-4.559,-10.315,-13.532,-22.181,-17.489,-19.712,-17.97,-25.156
-3.154,-8.304,-9.947,-18.913,-12.919,-17.096,-16.348,-21.344
-3.667,-6.12,-6.496,-14.962,-7.265,-15.893,-14.504,-19.043
-1.689,-1.669,-2.283,-9.948,-1.156,-11.292,-12.847,-17.598
1.995,2.682,-0.416,-5.584,-0.139,-3.096,-12.045,-14.006
4.227,3.051,-1.887,-5.664,-5.245,-0.845,-12.912,-11.674
4.223,0.394,-2.614,-9.465,-10.015,-7.881,-14.587,-13.286
0.244,-3.527,-3.045,-13.286,-12.248,-15.778,-16.81,-17.342
-6.602,-7.053,-5.026,-14.547,-12.397,-17.635,-19.474,-20.554
-10.012,-7.276,-5.042,-13.386,-9.348,-16.543,-20.503,-21.009
-6.87,-4.919,-1.831,-12.003,-6.395,-16.922,-19.465,-21.468
-0.598,-4.808,0.707,-10.683,-7.357,-17.089,-17.882,-22.455
5.999,-5.625,2.606,-5.545,-7.915,-12.457,-14.751,-17.54
12.168,-0.825,7.137,4.363,-3.27,-2.904,-9.952,-5.584
13.798,6.276,11.722,11.257,2.132,3.817,-7.983,1.654
7.726,6.048,11.413,8.379,1.996,1.07,-11.057,-6.112
-0.293,1.086,9.068,1.11,0.08,-6.146,-13.98,-19.888
-1.444,2.305,11.637,-0.457,5.058,-7.987,-11.367,-21.225
3.834,8.244,16.535,2.861,12.71,-4.644,-6.333,-9.9
6.594,6.578,13.322,0.426,9.277,-6.01,-6.586,-4.447
3.623,-2.757,1.616,-10.284,-3.783,-15.598,-12.805,-13.807
1.971,-5.299,-6.762,-17.402,-10.719,-21.992,-17.267,-24.438
4.51,2.867,-6.673,-13.517,-7.269,-15.324,-16.476,-23.038
4.82,8.947,-5.181,-7.879,-3.53,-5.241,-15.204,-16.058
1.246,5.758,-6.999,-9.601,-4.771,-6.529,-14.962,-13.582
-1.292,-0.93,-9.601,-14.528,-7.452,-15.639,-12.686,-13.806
-2.703,-5.917,-12.025,-16.754,-10.172,-19.035,-10.418,-13.271
-4.593,-7.764,-15.873,-18.094,-14.095,-15.023,-12.567,-15.398
-3.177,-4.788,-18.91,-20.628,-15.801,-11.501,-16.904,-22.595
2.283,0.447,-17.187,-21.385,-11.039,-11.561,-18.109,-27.798
3.96,0.781,-12.782,-19.216,-3.683,-13.208,-16.413,-23.071
-2.183,-5.265,-11.95,-17.564,-2.679,-15.32,-15.761,-13.363
-9.481,-10.868,-16.356,-17.972,-10.167,-17.465,-17.437,-9.828
-12.544,-11.332,-21.39,-18.841,-18.653,-19.311,-19.504,-13.069
-12.621,-8.396,-21.151,-18.477,-19.747,-20.336,-19.442,-14.85
-10.987,-5.334,-14.788,-15.849,-13.227,-18.345,-17.593,-13.276
-9.977,-5.391,-9.304,-13.101,-8.074,-14.047,-16.853,-13.104
-12.768,-8.947,-10.349,-14.26,-10.818,-13.629,-17.109,-14.71
-16.827,-12.06,-14.067,-18.856,-16.643,-19.611,-16.326,-16.143
-17.646,-12.505,-15.345,-21.811,-19.016,-25.262,-15.329,-17.8
-14.903,-10.015,-14.611,-19.633,-18.196,-23.594,-14.888,-17.873
-9.471,-4.368,-13.245,-15.286,-16.361,-18.171,-13.982,-16.06
-2.044,1.724,-11.007,-14.061,-13.376,-16.935,-12.848,-17.586
4.434,5.374,-7.438,-13.849,-8.293,-16.462,-12.106,-21.304
6.147,6.113,-3.398,-8.707,-2.707,-7.413,-11.175,-18.873
3.279,4.982,-1.27,-0.353,-0.196,5.948,-10.028,-10.9
-0.307,4.051,-2.836,3.368,-2.466,8.356,-10.005,-6.411
-4.927,0.881,-8.292,-2.313,-9.346,-4.914,-12.668,-10.241
-12.434,-8.126,-14.341,-12.357,-17.221,-19.47,-16.422,-17.522
-16.172,-15.391,-13.968,-14.383,-17.715,-18.241,-15.785,-16.5
-10.716,-11.053,-5.802,-4.655,-8.735,-2.684,-9.261,-4.396
-3.986,-0.12,1.379,4.828,-1.026,8.312,-3.273,5.543
-4.033,5.467,0.513,3.246,-3.079,2.609,-3.514,3.26
-6.593,2.987,-5.71,-5.056,-10.238,-10.136,-8.016,-5.142
-5.703,-1.571,-11.935,-9.443,-15.579,-14.138,-11.095,-8.611
-4.655,-4.186,-16.023,-6.947,-18.651,-6.632,-10.811,-5.374
-9.496,-8.242,-17.662,-3.424,-20.951,2.537,-10.29,-2.113
-19.381,-16.35,-17.841,-4.92,-22.879,1.717,-11.621,-2.008
-28.298,-22.758,-18.255,-10.639,-24.69,-9.323,-12.324,-3.025
-31.802,-22.445,-18.896,-15.332,-26.266,-19.875,-9.851,-5.382
-29.839,-19.511,-18.596,-15.895,-27.165,-23.589,-5.728,-8.297
-25.692,-19.339,-16.958,-12.595,-26.297,-20.997,-3.834,-7.993
-22.506,-20.393,-14.151,-6.604,-22.944,-13.192,-5.595,-5.282
-18.838,-16.813,-10.016,1.551,-18.609,-2.865,-7.049,-2.868
-11.052,-6.025,-4.601,10.586,-14.407,5.667,-4.266,1.404
-2.561,6.205,-0.337,16.072,-10.237,9.596,-0.484,8.715
-1.34,10.901,-0.612,13.897,-7.363,8.751,-1.2,12.44
-7.632,5.581,-5.491,5.372,-6.991,4.505,-5.894,4.723
-14.164,-3.481,-11.522,-2.733,-8.049,0.7,-9.245,-7.696
-15.781,-7.132,-15.028,-4.333,-8.705,2.729,-8.152,-9.285
-14.291,-4.236,-16.968,-3.985,-9.979,6.403,-7.201,-5.142
-15.1,-3.897,-21.908,-11.274,-14.903,-0.735,-11.667,-12.427
-18.551,-9.645,-27.367,-21.093,-20.616,-14.049,-15.554,-22.014
-19.163,-12.9,-24.823,-19.827,-19.055,-14.583,-10.883,-13.957
-15.76,-9.54,-16.14,-11.265,-10.87,-5.737,-3.699,1.228
-12.032,-4.543,-11.248,-8.793,-4.288,-5.087,-3.567,3.037
-7.802,0.189,-10.224,-10.709,0.015,-8.384,-7.638,-2.039
-3.251,4.487,-8.059,-9.984,3.416,-4.338,-9.052,-2.303
-2.416,6.417,-6.934,-8.438,1.067,1.876,-7.739,-3.572
-3.274,7.927,-8.437,-7.193,-4.628,2.822,-6.635,-8.058
-0.342,9.851,-9.397,-5.905,-4.846,-1.473,-7.988,-8.358
3.502,7.482,-10.391,-8.949,-2.831,-9.374,-12.072,-7.068
2.489,0.772,-14.016,-17.514,-6.36,-18.473,-16.327,-13.258
-1.002,-4.021,-17.821,-25.698,-10.624,-26.282,-19.325,-23.477
-2.181,-5.462,-19.164,-29.877,-10.382,-32.876,-22.09,-28.043
-3.095,-7.29,-20.073,-31.152,-11.558,-36.932,-23.354,-26.51
-5.189,-7.632,-20.756,-27.473,-16.028,-32.089,-20.123,-20.837
-2.114,1.197,-16.063,-14.503,-14.187,-14.966,-12.446,-8.658
8.182,17.278,-4.642,2.908,-1.889,5.099,-3.503,7.165
15.935,25.191,4.295,9.77,9.493,11.393,1.283,13.914
15.152,19.633,2.642,0.135,9.033,0.555,-0.897,2.784
12.071,14.376,-4.141,-12.383,2.613,-9.515,-5.358,-16.498
11.423,15.656,-6.961,-14.929,0.883,-6.88,-8.072,-26.038
9.425,14.069,-6.58,-11.729,0.437,-4.282,-10.313,-21.306
2.503,6.504,-7.495,-10.842,-5.732,-12.078,-11.517,-12.693
-6.248,0.384,-7.682,-10.616,-10.422,-18.879,-9.114,-8.172
-11.013,-0.283,-4.156,-6.737,-5.312,-14.817,-4.643,-4.463
-11.235,0.657,-1.32,-3.027,2.202,-7.832,-3.34,-0.033
-11.43,-2.015,-4.278,-6.578,2.524,-8.082,-7.676,-1.802
-13.035,-7.739,-10.36,-15.553,-2.14,-14.382,-13.511,-10.915
-12.797,-10.881,-14.01,-21.145,-6.419,-19.769,-14.264,-17.265
-9.09,-8.786,-13.727,-19.119,-8.531,-19.881,-8.678,-13.16
-4.438,-5.434,-11.316,-12.676,-7.83,-14.97,-2.151,-2.582
-2.925,-5.781,-9.244,-7.148,-5.816,-7.854,0.576,5.4
-6.598,-9.08,-9.119,-4.454,-5.185,-0.206,0.44,7.231
-12.252,-10.287,-10.545,-2.034,-6.241,6.538,0.38,5.969
-13.856,-7.874,-11.895,1.594,-7.781,9.259,0.716,4.816
-11.291,-5.748,-12.549,2.905,-8.935,6.739,0.561,3.614
-12.51,-6.811,-13.864,-1.672,-9.498,1.214,-0.259,-0.899
-22.278,-10.559,-16.778,-9.519,-9.272,-3.688,-2.396,-10.185
-34.197,-16.017,-19.465,-14.858,-8.1,-5.928,-5.414,-17.526
-39.584,-22.008,-20.232,-16.433,-8.284,-8.49,-6.222,-14.919
-37.204,-26.154,-20.091,-16.632,-12.011,-13.78,-2.947,-4.947
-29.521,-26.16,-19.564,-16.532,-14.769,-17.847,1.965,1.954
-19.192,-22.327,-18.04,-16.569,-11.784,-17.778,4.884,1.419
-11.939,-17.75,-16.791,-16.748,-8.199,-15.298,5.376,-0.625
-12.284,-14.501,-15.89,-15.658,-8.156,-12.661,4.707,-0.78
-17.129,-12.171,-12.779,-12.464,-6.983,-11.34,3.098,-1.145
-20.89,-11.061,-9.176,-7.965,-5.697,-10.031,2.284,2.279
-21.77,-11.539,-9.603,-4.816,-10.022,-7.6,4.509,12.376
-19.231,-11.362,-12.177,-6.75,-14.625,-8.547,6.493,17.03
-12.576,-8.721,-11.299,-11.735,-11.456,-12.701,4.256,8.77
-4.996,-4.985,-7.603,-11.742,-5.735,-10.773,1.793,1.288
-2.254,-1.87,-6.364,-6.153,-6.509,-3.798,3.862,3.519
-5.123,0.498,-7.649,-1.991,-10.754,-2.188,7.327,6.921
-8.988,1.338,-7.481,-0.795,-11.096,-3.949,7.605,5.699
-10.069,-0.555,-5.823,0.256,-8.455,-1.715,5.595,3.742
-7.869,-3.393,-4.913,0.764,-6.229,1.197,4.176,5.083
-5.152,-4.317,-5.425,-1.396,-5.04,-0.673,2.87,6.022
-6.458,-4.652,-7.558,-5.963,-5.47,-5.656,-0.604,-0.136
-12.116,-7.516,-9.91,-9.627,-6.136,-9.021,-5.005,-9.433
-17.738,-12.029,-10.3,-9.902,-6.014,-8.662,-5.945,-10.889
-20.973,-14.944,-9.356,-9.137,-7.271,-8.637,-2.524,-4.744
-20.938,-14.649,-7.315,-9.546,-7.132,-11.95,1.11,-0.441
-17.843,-12.878,-3.718,-8.391,-2.23,-11.599,2.053,1.075
-17.03,-14.104,-2.918,-6.317,-0.494,-5.038,0.967,2.285
-20.801,-19.321,-8.174,-10.104,-7.447,-4.574,-1.71,-3.631
-22.67,-22.547,-13.744,-19.027,-13.17,-15.095,-5.89,-18.244
-19.886,-18.29,-12.486,-21.59,-8.921,-20.71,-8.907,-26.902
-18.444,-9.902,-5.707,-13.285,-0.269,-11.304,-7.725,-18.778
-21.325,-6.017,-0.095,-4.763,4.108,-2.394,-3.064,-1.595
-23.854,-9.487,0.867,-5.354,3.923,-7.906,0.95,9.484
-22.397,-15.281,-2.06,-11.926,2.43,-17.802,0.298,5.774
-20.461,-18.628,-7.077,-17.499,-0.748,-20.142,-4.172,-7.584
-22.143,-18.721,-11.009,-18.649,-5.68,-17.409,-6.838,-15.767
-23.466,-15.481,-10.779,-15.055,-8.68,-13.722,-4.686,-12.097
-19.539,-9.717,-7.985,-9.252,-8.261,-7.992,-0.68,-2.903
-15.341,-6.184,-7.44,-6.053,-7.828,-3.185,1.781,4.784
-15.22,-8.2,-9.118,-7.124,-7.762,-4.586,3.214,8.263
-12.504,-10.993,-7.482,-7.406,-3.604,-6.596,4.943,8.489
-4.434,-9.164,-1.923,-3.766,2.698,-2.226,6.402,8.955
-0.756,-4.799,1.328,-0.837,3.637,2.082,7.507,10.046
-8.368,-3.268,-0.895,-1.772,-1.335,-0.044,8.448,9.977
-20.298,-5.972,-5.057,-4.276,-6.538,-4.579,7.494,8.209
-22.754,-7.158,-5.57,-5.757,-7.175,-6.275,4.676,4.197
-11.552,-0.566,-1.375,-2.994,-3.591,-2.372,4.202,2.803
2.547,10.588,2.555,5.169,-0.947,6.529,7.05,9.728
8.463,16.813,1.838,10.636,-1.458,12.074,6.724,15.094
5.175,12.734,-3.884,4.288,-4.326,5.914,-0.708,5.576
-3.57,1.367,-12.585,-8.476,-11.896,-7.432,-8.163,-9.089
-14.245,-9.04,-19.706,-14.931,-22.945,-17.212,-7.474,-10.23
-23.052,-12.342,-20.042,-12.622,-26.31,-18.803,-2.135,-1.286
-27.058,-9.702,-14.764,-7.385,-17.723,-12.179,-0.611,3.466
-26.437,-7.279,-13.147,-4.448,-12.923,-3.123,-3.456,3.348
-22.417,-7.486,-19.47,-6.264,-22.468,-1.673,-5.996,3.289
-14.915,-5.844,-24.536,-9.484,-30.988,-5.917,-6.896,2.742
-5.299,0.265,-20.309,-8.969,-23.92,-5.046,-7.257,0.596
2.306,7.686,-12.258,-6.724,-11.356,-0.653,-6.546,-3.326
3.885,12.484,-9.102,-7.013,-8.036,-2.069,-4.263,-6.604
-2.253,9.665,-11.876,-10.209,-12.199,-10.034,-3.194,-6.378
-12.886,-3.384,-17.214,-16.502,-16.964,-19.428,-5.569,-8.101
-19.903,-17.308,-21.531,-22.53,-22.121,-23.86,-7.772,-13.505
-17.376,-18.824,-20.933,-20.179,-24.874,-17.641,-6.05,-11.824
-7.842,-8.583,-15.358,-9.601,-20.746,-4.408,-2.189,-0.311
1.372,1.647,-10.697,-1.386,-15.343,4.247,1.132,10.295
7.39,6.34,-10.125,-1.222,-14.248,4.049,2.723,12.691
11.409,9.511,-9.983,-3.468,-12.496,3.268,1.524,7.931
12.115,13.307,-8.086,-1.908,-8.222,7.644,-0.172,2.944
10.006,15.421,-6.296,1.31,-7.102,9.687,2.629,5.479
10.256,16.368,-4.671,1.51,-8.819,4.08,9.018,11.143
12.704,18.096,-1.638,0.636,-7.269,0.164,12.666,9.904
11.739,18.821,1.634,2.753,-2.513,3.839,12.122,5.975
8.573,17.414,2.649,5.423,0.053,7.365,10.641,6.572
9.815,16.657,2.593,5.672,0.592,8.38,9.582,7.807
14.529,17.202,4.542,6.029,3.683,11.335,8.902,9.015
13.963,15.247,6.089,6.159,6.376,10.925,7.995,12.99
5.289,9.563,3.094,2.825,2.918,3.535,6.388,14.338
-2.422,4.919,-0.388,0.029,-1.525,0.188,6.652,11.54
-0.618,4.932,0.819,2.779,-1.233,6.283,10.79,12.276
6.072,7.378,3.54,8.067,-0.666,13.035,15.561,17.693
6.515,9.019,4.337,12.065,-1.103,16.558,16.688,22.204
-1.697,8.446,3.558,13.38,0.017,18.731,14.114,24.177
-10.296,5.656,0.175,10.433,-2.419,16.241,11.083,24.335
-11.861,3.001,-5.063,5.15,-10.513,8.591,9.501,21.138
-7.272,2.764,-7.283,1.678,-14.757,2.676,8.256,12.262
-1.241,4.516,-4.227,0.588,-9.597,1.608,7.355,0.951
3.223,7.019,0.792,0.444,-2.167,2.258,8.176,-3.268
4.573,9.216,3.342,0.361,-0.759,2.133,9.299,0.852
2.059,9.288,2.42,0.233,-4.588,1.665,9.628,3.984
-1.934,7.662,1.266,2.072,-6.874,4.304,11.428,5.258
-1.885,8.61,3.108,6.234,-3.321,10.584,14.472,9.988
3.571,12.607,6.72,8.542,3.862,13.582,15.031,14.442
7.837,13.86,8.433,7.494,7.382,10.462,13.025,14.611
5.791,10.702,7.245,7.119,3.13,7.759,12.087,15.742
1.256,8.608,5.903,9.508,-2.252,9.449,12.328,20.521
-1.264,9.518,5.546,11.425,-2.763,11.514,10.691,21.773
-3.398,8.545,2.803,9.623,-5.083,9.272,8.293,16.537
-5.926,4.597,-2.758,5.622,-12.895,4.409,8.447,12.661
-6.003,3.728,-5.129,3.298,-15.119,2.547,9.221,13.997
-3.602,8.229,-2.18,3.577,-6.654,5.12,6.915,14.568
-1.464,12.21,-0.672,3.363,-1.374,6.91,2.719,9.472
0.248,11.498,-4.066,1.342,-8.43,4.268,1.459,3.82
2.384,9.023,-5.859,1.001,-15.339,1.612,4.936,4.897
3.091,8.555,-1.897,3.594,-10.187,3.568,8.009,7.598
1.276,10.874,2.456,6.298,-1.794,7.855,7.164,6.459
-0.019,14.734,2.161,7.65,-2.746,10.147,6.562,8.419
3.455,17.809,0.448,7.831,-7.656,9.679,8.716,13.542
10.134,18.959,2.188,7.559,-5.349,8.824,10.779,11.459
11.606,19.343,5.602,8.172,0.583,9.121,11.149,3.937
6.392,20.894,8.073,11.318,2.57,10.961,11.44,3
4.075,23.5,11.391,17.634,3.935,15.449,13.726,9.966
8.113,24.602,14.763,23.869,8.042,21.171,16.667,15.941
11.425,23.124,14.342,25.533,10.148,23.261,16.526,18.343
11.004,20.849,11.386,23.552,7.697,20.214,13.884,20.848
12.529,20.156,11.035,23.025,5.859,17.911,12.702,22.049
18.913,22.832,13.858,25.729,7.413,20.994,14.02,19.901
23.252,26.995,15.548,27.946,7.525,23.714,15.757,18.022
19.931,27.077,15.201,26.184,5.588,20.057,14.67,16.877
14.618,22.501,16.163,21.677,6.923,15.897,9.581,11.57
12.989,18.695,17.78,17.759,9.047,17.89,5.631,3.644
12.519,18.506,17.722,16.852,7.776,21.52,8.772,2.256
13.966,21.855,20.104,20.801,10.573,22.973,15.903,9.733
22.533,28.442,27.454,28.098,21.961,26.971,19.173,17.749
33.841,34.583,31.803,31.384,30.225,31.001,17.295,18.989
35.76,33.237,26.355,25.219,24.822,23.999,14.078,14.039
25.533,22.744,16.545,14.359,11.668,9.001,11.181,8.772
14.93,13.187,11.315,7.993,2.475,1.937,9.302,7.121
14.225,14.949,12.665,9.402,1.854,6.655,10.19,7.01
18.85,23.144,17.32,15.04,7.892,13.131,13.169,6.58
20.255,25.997,21.073,19.138,14.778,14.92,14.838,8.234
19.522,23.255,21.13,18.598,15.774,13.969,13.279,12.364
21.388,22.521,18.602,15.689,10.888,13.491,9.674,13.521
24.789,24.685,17.194,13.457,6.976,12.568,6.915,7.206
25.595,25.439,18.655,11.51,8.405,8.949,6.952,-1.356
22.65,23.958,20.917,8.953,13.222,4.38,7.859,-4.693
16.944,20.665,20.346,5.901,17.129,1.625,6.205,-5.835
9.228,14.387,16.242,2.964,18.278,0.58,2.888,-8.343
1.93,7.155,11.218,2.427,16.095,2.227,2.468,-6.051
-0.727,3.2,7.407,5.216,9.162,6.591,7.063,4.015
3.077,2.71,6.769,7.937,2.304,8.109,12.816,13.139
10.204,2.997,10.478,8.297,4.113,5.282,14.151,12.977
14.601,3.367,14.566,8.334,10.536,3.762,12.526,8.435
14.211,6.382,15.184,10.903,11.493,6.647,14.075,10.627
14.173,13.944,14.992,17.079,9.738,14.35,17.516,19.282
18.254,22.858,15.637,23.164,11.36,24.199,15.96,23.094
24.079,28.614,15.045,23.572,13.926,28.907,10.203,16.789
28.63,29.609,13.6,19.05,14.125,25.574,6.598,6.891
29.169,25.096,11.372,13.331,9.878,17.522,5.534,1.022
23.393,16.075,6.836,7.536,1.3,8.57,4.542,0.845
13.804,6.295,0.981,1.905,-6.378,0.964,3.949,2.108
6.369,-0.96,-4.817,-4.997,-10.639,-6.884,2.035,-3.197
3.893,-4.242,-9.262,-13.134,-13.306,-15.6,-3.346,-14.763
3.624,-4.057,-10.019,-16.101,-14.06,-18.413,-7.866,-19.463
2.961,-3.125,-6.802,-9.56,-11.363,-10.742,-6.335,-12.494
2.57,-4.128,-2.124,-0.393,-5.618,-1.124,-1.762,-6.238
1.669,-6.411,0.707,2.573,-0.646,0.11,-0.274,-7.596
-0.38,-6.491,0.85,1.707,-0.672,-2.997,-0.205,-7.357
0.5,-1.997,1.9,3.802,-1.991,-0.912,3.409,0.195
5.594,5.263,5.67,6.936,2.232,4.976,6.381,5.05
7.701,8.995,6.817,5.589,6.668,7.103,2.904,0.451
0.832,3.837,1.309,1.477,1.089,4.159,-0.51,-3.661
-10.67,-7.885,-4.769,0.02,-9.009,0.65,3.925,0.808
-17.405,-18.608,-4.342,1.135,-10.696,-1.948,10.547,6.871
-16.259,-23.131,-1.158,0.157,-5.606,-6.083,9.616,4.282
-12.236,-20.847,-1.541,-2.728,-2.987,-9.54,1.905,-4.621
-8.804,-13.238,-2.441,-1.654,-2.425,-6.891,-3.375,-7.276
-2.839,-2.887,0.85,3.928,0.273,0.134,-1.482,-1.947
6.491,5.238,5.389,8.154,3.767,5.511,2.317,0.745
12.553,6.987,8.252,9.999,6.827,8.691,2.978,0.213
13.029,5.805,12.244,13.689,10.806,12.402,4.564,4.766
15.183,8.838,18.593,18.632,15.405,15.619,10.016,10.037
20.773,14.376,23.761,20.176,19.322,15.056,13.047,6.539
21.506,13.955,25.51,17.865,21.7,10.173,11.119,1.321
15.714,7.681,25.261,14.827,21.764,4.686,10.286,3.406
12.988,4.216,25.166,13.75,21.244,4.509,11.592,6.653
18.772,6.859,27.192,16.252,24.553,10.719,10.878,6.846
26.203,11.165,31.243,20.759,31.093,16.617,8.925,7.907
27.181,12.813,32.642,21.735,32.623,15.682,8.037,7.213
25.144,12.403,29.1,17.627,26.247,10.317,8.536,2.41
28.139,13.909,27.428,16.503,22.015,10.182,12.581,3.666
33.613,18.055,32.836,23.412,28.246,18.582,18.89,14.09
32.739,19.762,38.625,29.588,38.69,26.247,19.573,17.633
24.777,13.841,35.827,25.745,40.562,23.517,13.047,7.201
17.627,3.23,26.321,16.449,30.108,12.965,9.118,-2.224
18.182,-0.379,20.882,13.536,19.596,8.495,13.356,0.329
23.646,7.86,24.221,19.785,20.963,16.5,18.794,8.061
25.737,16.783,28.326,25.413,26.489,23.141,19.225,12.094
24.525,17.166,27.349,23.897,26.147,18.393,17.774,12.848
24.746,14.073,26.526,21.003,26.115,13.617,17.911,13.282
24.083,13.645,29.894,22.546,31.287,17.115,18.284,13.581
20.086,12.9,33.11,25.099,34.419,20.201,17.8,13.909
16.181,7.326,31.31,23.27,30.722,16.557,16.6,13.695
13.935,0.784,26.316,18.311,25.989,11.476,13.887,10.833
10.933,-0.489,23.076,14.455,26.458,9.187,9.515,5.212
5.621,-0.46,21.465,11.43,27.953,6.871,5.318,0.35
-1.088,-6.089,17.994,7.009,23.561,2.681,3.576,0.06
-6.1,-12.867,13.681,2.721,17.081,-0.372,4.381,2.803
-5.494,-11.68,12.17,1.533,15.942,0.076,5.198,2.31
2.693,-2.813,13.716,4.171,18.877,3.429,4.658,-3.256
16.295,6.733,16.611,9.772,21.31,9.302,4.571,-7.318
27.66,12.759,18.894,15.714,21.784,15.869,6.238,-3.687
28.449,14.922,18.729,18.914,20.182,19.016,7.813,4.421
21.11,14.57,18.144,20.235,19.341,19.209,7.551,9.17
16.857,13.532,20.227,21.757,22.471,19.52,7.006,9.217
18.696,12.061,22.757,21.362,26.338,17.815,8.016,8.542
21.031,11.05,23.553,18.99,27.234,14.706,10.059,9.019
23.205,13.431,25.535,20.305,28.274,17.512,12.591,10.977
26.669,17.898,28.672,24.714,30.746,23.788,14.872,13.03
27.762,18.812,27.323,23.834,28.835,21.615,14.062,11.341
25.742,15.81,21.333,17.9,21.935,12.629,9.434,6.494
26.302,14.636,18.24,16.502,18.699,10.503,5.717,4.094
29.679,17.499,20.648,21.885,21.372,17.914,6.343,5.79
28.332,20.784,23.649,27.203,23.251,25.716,8.333,7.956
21.346,21.524,25.671,29.535,24.202,29.275,8.528,8.399
17.21,19.92,28.947,32.173,28.469,31.903,8.594,8.159
19.979,17.843,32.114,36.034,32.777,35.146,10.459,9.09
23.973,16.58,32.125,37.317,32.423,34.615,12.643,12.331
23.949,15.654,29.663,33.887,29.597,28.558,13.523,15.73
23.208,16.224,29.351,30.549,30.641,24.135,13.81,17.675
25.349,20.079,33.374,32.446,37.079,26.833,15.06,21.216
26.02,24.353,35.774,34.609,39.581,29.504,16.657,22.908
23.355,25.798,32.235,30.61,32.539,25.137,15.644,14.702
23.132,25.71,29.558,26.624,26.297,21.534,12.723,4.619
25.6,25.16,33.116,29.851,28.587,25.918,12.72,5.808
25.259,23.366,38.054,33.999,33.996,30.01,15.722,11.286
23.237,20.97,39.298,31.394,37.58,26.208,16.706,9.762
23.486,18.783,36.591,25.415,37.755,19.522,14.717,7.39
25.229,17.656,32.113,23.409,33.583,17.721,14.277,13.313
27.174,19.792,29.133,26.854,28.793,22.315,17.427,23.058
29.299,24.738,27.934,30.188,26.8,26.328,20.332,25.332
31.717,29.472,26.988,29.58,26.727,24.477,20.141,18.038
35.822,33.585,29.192,29.776,30.985,24.947,19.617,12.225
40.917,37.762,36.516,35.08,41.316,34.744,21.219,14.62
42.11,40.153,41.921,39.859,47.955,42.335,22.553,17.777
36.37,37.739,38.448,36.945,41.603,35.534,20.725,15.708
26.525,29.745,30.51,29.449,29.732,23.383,17.234,12.853
18.516,21.363,26.739,26.36,24.96,21.335,15.941,14.517
16.282,19.841,28.106,30.074,27.056,29.147,16.947,19.726
17.388,22.937,29.324,33.57,28.232,35.477,17.038,22.906
16.34,21.566,26.649,29.69,25.551,32.88,14.874,19.429
12.849,15.397,21.477,20.514,21.267,23.648,11.142,11.594
11.568,12.851,18.681,14.109,19.188,15.306,8.188,7.692
14.522,16.533,20.37,14.147,21.117,12.817,8.944,10.893
18.238,19.73,23.044,17.578,24.517,15.856,11.547,14.383
18.916,17.257,23.842,20.76,26.593,21.33,11.309,13.102
17.882,12.139,24.197,24.062,27.231,26.366,9.392,11.865
17.78,8.636,23.733,27.608,24.945,27.383,10.164,14.795
17.413,6.377,19.491,27.477,17.813,22.471,11.896,16.667
15.531,5.666,14.189,23.095,10.973,17.658,10.612,13.154
12.975,9.021,13.256,19.725,11.296,18.663,8.641,9.215
10.938,15.413,15.145,19.73,15.461,20.873,9.395,10.633
11.813,20.41,15.118,21.271,15.817,20.393,10.414,14.44
16.892,22.121,12.969,23.514,12.974,21.377,9.812,14.032
22.352,22.419,10.61,24.971,11.474,23.098,10.545,10.606
22.338,21.576,7.846,22.038,10.353,18.366,12.2,9.337
16.71,17.392,5.414,15.038,9.217,9.502,9.807,8.12
12.471,11.684,6.78,9.831,13.1,6.633,4.422,2.764
14.461,9.52,11.908,9.67,21.37,10.268,3.301,-2.236
19.139,11.286,16.24,11.925,26.621,12.947,7.92,0.143
21.262,14.074,18.154,14.622,27.714,14.313,12.942,7.174
19.43,16.066,18.311,17.091,27.228,17.92,15.414,10.401
13.964,14.606,14.974,15.557,22.808,19.904,13.603,7.285
7.187,8.991,8.566,8.207,14.343,15.676,5.383,1.451
3.683,3.38,4.03,0.215,7.738,8.655,-3.411,-2.617
4.678,0.113,4.2,-2.861,6.4,3.426,-3.876,-2.057
7.048,-1.744,7.122,-0.644,8.645,1.742,2.002,2.805
9.548,-0.389,9.89,4.683,11.652,5.595,6.648,8.804
11.921,4.632,10.744,9.416,12.781,11.796,8.31,11.813
12.246,7.652,9.63,9.097,11.018,11.883,7.727,9.235
12.379,6.392,8.468,4.301,8.688,5.89,4.226,2.694
15.998,6.558,8.798,0.943,8.672,3.297,-0.478,-3.408
19.548,9.857,9.932,1.579,10.861,7.5,-2.868,-7.153
16.636,9.721,10.1,1.882,12.779,10.333,-2.754,-10.304
9.397,4.385,7.58,-1.933,11.779,4.452,-3.38,-13.167
5.501,0.51,2.467,-6.672,7.397,-4.815,-6.309,-12.581
6.171,1.028,-1.433,-6.466,2.808,-7.047,-7.794,-6.682
4.809,0.92,-0.999,-2.344,1.407,-3.468,-4.685,0.624
-2.458,-4.139,1.535,-1.591,3.26,-4.156,-1.938,1.22
-9.711,-10.229,2.498,-5.974,5.844,-10.819,-4.21,-7.073
-9.125,-9.543,0.925,-9.053,5.389,-14.341,-6.593,-14.713
-2.5,-2.133,-1.967,-7.309,0.885,-9.37,-4.09,-13.211
3.076,3.845,-3.525,-4.803,-2.332,-2.636,0.405,-6.373
6.43,4.243,-1.693,-3.963,0.911,-0.564,3.587,-0.762
10.817,2.706,2.04,-1.365,7.003,1.51,6.129,3.757
16.616,3.267,4.652,4.283,9.028,7.819,7.784,8.539
19.939,4.932,5.369,8.41,7.804,12.443,6.639,10.444
16.576,3.322,3.856,6.178,7.403,8.675,2.559,5.461
8.431,-2.018,-0.632,-0.847,5.595,0.516,-2.814,-3.697
1.933,-6.251,-6.238,-6.22,-0.223,-2.289,-7.234,-9.433
-0.479,-6.53,-9.427,-7.946,-5.328,-0.362,-8.441,-10.205
1.135,-2.053,-7.95,-8.209,-4.114,-1.487,-5.733,-9.228
8.161,7.717,-2.785,-5.705,1.609,-3.082,-1.295,-5.048
17.816,17.894,2.338,1.163,6.516,2.615,1.745,3.971
22.721,21.603,5.875,9.235,10.022,13.792,3.784,12.662
20.856,19.997,9.569,14.593,14.859,22.212,8.163,15.47
18.612,19.928,13.401,15.554,20.765,22.574,13.313,12.082
20.797,22.731,13.828,11.765,22.939,15.823,11.068,4.414
23.652,22.687,8.534,5.139,17.059,6.904,0.352,-3.2
22.34,17.969,1.275,0.037,7.705,1.754,-7.919,-4.927
18.185,13.291,-2.451,-1.094,4.371,3.71,-8.591,-2.108
13.312,9.104,-3.734,-1.074,5.762,6.75,-7.719,-1.832
7.836,2.935,-5.898,-2.83,3.62,2.942,-8.001,-4.947
4.45,-0.931,-6.602,-3.944,0.003,-2.666,-6.913,-6.157
4.2,0.031,-5.424,-3.329,-0.861,-3.753,-5.293,-4.647
2.27,-1.167,-7.63,-4.955,-4.337,-5.335,-6.102,-4.66
-1.385,-7.629,-11.729,-7.931,-10.348,-8.317,-7.986,-5.12
0.27,-12.398,-10.604,-6.468,-10.335,-6.124,-7.35,-1.179
6.017,-11.75,-6.426,-2.337,-5.686,-1.843,-5.706,3.664
6.346,-10.238,-6.504,-3.012,-5.244,-4.649,-7.492,2.187
0.813,-10.374,-8.984,-8.459,-8.4,-11.903,-12.546,-4.214
-0.51,-8.118,-6.131,-10.068,-6.261,-11.431,-16.168,-7.505
7.249,-0.918,3.209,-3.81,5.186,-0.36,-14.862,-4.058
15.246,4.724,10.618,1.133,16.819,7.224,-10.469,-1.717
12.63,1.204,8.401,-3.794,15.227,0.072,-7.422,-7.5
2.747,-6.497,0.38,-11.465,2.992,-11.592,-8.118,-13.717
-4.002,-8.865,-5.572,-13.215,-5.825,-14.514,-11.934,-12.474
-5.426,-7.248,-8.713,-12.511,-7.554,-12.153,-14.383,-7.86
-3.163,-6.444,-10.12,-13.117,-6.911,-10.635,-11.287,-5.067
3.496,-3.783,-7.887,-12.175,-4.976,-7.872,-5.63,-4.223
12.238,3.339,-2.713,-8.081,-1.478,-3.665,-3.439,-3.196
18.139,10.681,0.665,-3.653,0.892,-1.782,-5.777,-2.378
21.172,14.732,0.422,-1.504,0.967,-2.094,-8.527,-4.546
25.512,18.221,1.159,0.581,2.916,-0.217,-7.406,-5.47
31.387,23.461,6.801,6.169,9.523,6.028,-3.138,1.143
33.08,25.574,13.188,11.376,16.147,11.245,0.481,8.919
26.818,18.534,13.428,8.729,16.979,8.605,3.009,7.467
17.403,7.339,8.503,0.373,12.674,1.033,5.012,-0.269
13.941,4.889,4.858,-4.053,7.144,-3.275,2.973,-4.044
20.099,14.133,5.199,-0.52,3.285,-0.853,-3.855,-0.926
29.253,22.779,7.327,5.806,3.199,6.675,-9.453,3.314
31.151,20.049,7.185,7.554,4.601,13.316,-11.395,2.114
24.492,10.825,3.418,3.363,2.741,11.281,-12.603,-2.49
17.224,6.468,-0.288,-1.913,-0.808,0.715,-12.608,-3.726
15.244,8.778,-0.888,-4.024,-0.465,-8.028,-10.765,-2.961
17.779,11.539,0.035,-2.765,3.525,-8.251,-11.24,-4.801
21.002,12.2,-0.011,0.471,3.601,-3.861,-14.006,-5.55
20.782,12.354,-1.259,4.033,-4.184,0.407,-12.671,-1.09
15.814,11.477,-1.844,5.711,-11.324,3.43,-6.362,3.542
11.287,10.261,0.221,5.863,-8.9,4.822,-0.663,4.516
12.762,12.229,3.276,7.063,-2.219,5.266,0.887,6.634
17.307,16.407,3.726,8.298,-0.197,5.545,-0.976,10.611
19.859,19.619,2.599,6.871,-1.071,5.769,-3.268,7.791
21.347,22.332,2.716,3.519,-0.429,5.782,-6.162,-5.118
23.65,23.804,2.559,-0.036,-0.241,3.704,-12.156,-17.487
26.035,21.328,0.72,-2.67,-2.458,-1.43,-17.809,-18.316
28.053,16.95,-0.509,-2.526,-4.586,-5.506,-18.019,-11.284
29.294,15.444,0.359,1.144,-4.491,-2.64,-14.778,-5.933
27.139,15.115,1.089,5.04,-4.041,4.366,-12.974,-3.784
20.138,10.896,-1.185,4.151,-6.585,4.268,-13.334,-2.99
13.567,6.807,-4.815,-0.261,-11.293,-3.278,-13.056,-3.624
14.205,11.285,-4.922,-1.501,-12.953,-6,-11.159,-5.316
19.36,21.207,-0.794,1.47,-8.741,-1.517,-10.69,-8.434
19.57,24.725,2.373,3.544,-2.556,2.184,-13.501,-12.431
12.903,18.302,0.637,2.818,-1.214,2.345,-14.977,-11.94
7.529,10.34,-2.719,1.549,-5.39,0.231,-10.68,-5.025
8.241,8.594,-2.055,1.482,-7.951,-2.796,-4.46,1.744
10.466,11.278,1.414,2.83,-5.414,-3.683,-1.861,5.04
9.833,12.328,1.701,4.29,-3.183,-0.927,-2.688,7.455
7.312,9.857,-2.148,2.974,-4.825,1.739,-3.964,6.913
4.179,6.076,-5.793,-3.036,-6.738,-2.624,-4.482,-0.984
1.169,3.513,-7.241,-10.278,-6.318,-12.41,-6.133,-11.717
-0.591,2.553,-8.198,-11.816,-5.968,-15.051,-9.947,-14.455
-2.208,0.641,-9.845,-7.764,-8.546,-9.288,-12.144,-7.211
-5.016,-4.036,-12.295,-7.62,-13.226,-9.796,-10.88,-2.528
-8.735,-10.096,-16.445,-16.291,-17.107,-20.295,-11.525,-10.59
-12.69,-14.969,-21.74,-25.886,-20.151,-28.515,-16.526,-23.166
-13.466,-15.131,-23.494,-27.054,-22.276,-28.362,-19.564,-26.536
-6.936,-8.314,-17.449,-19.714,-18.65,-23.25,-16.295,-19.793
3.463,0.861,-7.102,-9.783,-8.543,-14.118,-10.452,-10.617
8.109,4.282,-1.428,-3.404,-1.67,-3.45,-6.784,-4.975
5.251,1.712,-2.592,-3.023,-3.398,0.612,-5.486,-3.969
3.484,-0.109,-3.431,-5.152,-5.325,-3.193,-4.044,-4.641
5.648,0.607,-0.873,-5.723,-1.363,-7.335,-2.098,-4.598
6.592,2.38,0.65,-4.454,3.792,-6.717,-2.673,-4.265
4.904,6.278,-1.326,-2.136,4.397,-0.739,-6.14,-4.121
0.571,7.602,-6.863,-1.695,-2.708,4.716,-8.417,-4.29
-7.158,-0.82,-15.257,-7.39,-14.534,-0.999,-8.697,-4.607
-12.979,-11.984,-21.271,-15.426,-19.92,-14.159,-9.494,-3.177
-12.042,-12.915,-19.952,-16.365,-14.51,-17.241,-8.907,0.251
-8.977,-6.126,-14.432,-10.151,-7.78,-8.05,-4.387,2.876
-9.236,-3.974,-11.207,-6.339,-6.741,-2.364,-0.683,2.119
-11.589,-9.135,-12.447,-10.648,-8.791,-8.412,-3.851,-5.044
-13.435,-13.92,-16.311,-18.77,-12.408,-18.522,-11.015,-16.98
-13.767,-12.988,-18.766,-21.514,-16.665,-21.712,-13.675,-21.724
-13.108,-10.407,-17.244,-16.296,-16.416,-16.521,-10.03,-12.41
-14.775,-13.893,-16.35,-12.035,-13.595,-11.603,-7.39,-1.158
-19.698,-21.889,-21.1,-15.629,-16.874,-13.028,-9.924,-1.145
-22.202,-23.822,-25.593,-20.113,-22.883,-15.597,-11.726,-6.425
-18.088,-16.574,-21.84,-16.958,-20.443,-12.087,-7.709,-5.626
-10.596,-8.313,-13.042,-9.836,-10.523,-5.064,-2.258,-1.218
-4.497,-4.435,-6.583,-6.5,-2.47,-1.989,-1.289,-0.625
-2.845,-4.062,-4.917,-8.147,-0.664,-4.206,-3.989,-3.143
-8.485,-8.139,-8.81,-13.102,-6.062,-9.919,-6.098,-5.716
-19.1,-16.081,-17.137,-19.446,-16.831,-17.332,-6.273,-7.695
-25.453,-20.098,-23.356,-22.379,-23.842,-19.938,-6.624,-7.247
-22.981,-16.249,-23.191,-20.6,-20.899,-16.029,-8.714,-5.73
-18.931,-12.014,-21.886,-19.865,-16.635,-15.056,-10.88,-7.607
-21.547,-14.759,-24.985,-22.258,-21.206,-19.629,-10.394,-10.067
-27.689,-22.233,-28.61,-22.395,-28.547,-19.245,-8.125,-7.998
-29.366,-28.238,-27.168,-18.581,-26.891,-11.115,-8.404,-5.9
-28.025,-30.708,-23.391,-16.558,-18.858,-7.126,-12.084,-9.957
-28.882,-29.497,-21.738,-17.61,-15.201,-11.792,-13.428,-14.623
-28.854,-23.807,-20.095,-16.232,-16.103,-14.334,-9.358,-11.376
-25.089,-17.72,-16.403,-13.239,-14.117,-10.758,-6.05,-4.237
-21.714,-16.802,-13.202,-12.843,-8.373,-7.679,-7.006,1.491
-20.378,-18.755,-12.228,-11.728,-5.086,-4.982,-5.344,10.509
-19.471,-20.009,-13.41,-10.412,-8.066,-3.726,0.266,17.245
-19.831,-22.043,-15.709,-16.466,-12.8,-11.705,0.477,7.055
-21.192,-23.228,-16.853,-26.208,-13.604,-23.626,-5.727,-12.758
-21.929,-20.622,-17.713,-29.542,-14.473,-28.128,-9.688,-22.781
-23.627,-18.436,-20.354,-27.1,-19.98,-27.273,-8.92,-18.912
-26.757,-19.634,-20.954,-22.868,-22.507,-23.677,-6.395,-7.077
-27.514,-19.784,-16.611,-17.144,-16.784,-14.963,-3.623,2.898
-24.762,-17.151,-12.739,-12.934,-11.637,-8.03,-1.944,0.836
-22.509,-15.39,-13.219,-13.289,-12.529,-11.004,-2.127,-8.881
-23.835,-16.302,-14.943,-16.179,-14.197,-18.298,-2.773,-13.087
-26.859,-18.579,-15.248,-17.463,-13.296,-18.084,-2.769,-10.208
-27.392,-20.676,-13.607,-13.981,-9.473,-6.557,-3.626,-6.719
-26.519,-22.758,-10.934,-8.296,-4.525,4.464,-6.201,-3.888
-30.342,-25.79,-11.286,-8.369,-5.939,-0.61,-6.583,-1.2
-37.261,-27.915,-14.645,-13.754,-13.742,-14.838,-1.843,-0.344
-38.536,-26.979,-14.725,-14.103,-15.856,-17.57,3.583,1.017
-35.334,-27.005,-12.458,-9.418,-11.361,-10.955,3.864,4.865
-36.209,-31.885,-15.126,-11.282,-12.799,-13.162,-0.95,4.229
-39.863,-35.583,-20.193,-20.359,-19.942,-23.336,-6.693,-5.097
-39.033,-31.304,-19.537,-25.316,-20.39,-26.713,-9.932,-14.289
-34.805,-24.099,-14.948,-22.115,-14.113,-21.213,-9.371,-13.762
-33.926,-23.693,-14.167,-17.395,-12.724,-15.993,-5.715,-5.544
-37.779,-30.606,-17.96,-16.599,-18.527,-15.851,-2.121,1.137
-40.789,-35.987,-20.17,-17.89,-22.143,-17.582,-1.163,1.548
-38.124,-33.886,-17.382,-17.944,-18.031,-17.451,-2.335,-1.974
-32.758,-29.02,-14.448,-18.315,-12.625,-17.727,-5.015,-6.534
-30.544,-27.511,-16.537,-19.575,-14.055,-19.541,-7.665,-8.577
-30.622,-26.744,-19.13,-17.04,-17.897,-17.288,-6.251,-3.758
-30.267,-24.17,-17.049,-11.313,-16.371,-10.779,-1.096,3.325
-32.299,-24.802,-14.886,-10.432,-13.922,-8.812,1.806,3.777
-37.572,-30.298,-17.325,-16.476,-16.886,-14.402,0.078,-0.543
-40.425,-34.012,-21.27,-22.871,-21.895,-20.992,-2.735,-2.999
-37.26,-31.876,-22.112,-24.218,-23.998,-22.948,-3.641,-2.947
-31.45,-27.549,-19.484,-20.874,-23.132,-20.09,-3.237,-2.283
-27.288,-24.776,-16.013,-15.678,-20.619,-14.031,-2.66,-0.715
-24.018,-21.962,-13.239,-11.164,-16.615,-7.499,-1.378,2.67
-20.553,-17.984,-11.604,-10.584,-12.6,-5.58,-0.238,4.452
-20.811,-17.574,-12.718,-15.353,-12.656,-10.251,-1.465,1.206
-27.13,-24.648,-16.864,-21.678,-18.08,-17.815,-3.748,-2.004
-34.905,-34.34,-21.228,-25.595,-24.348,-24.291,-4.58,-1.721
-38.226,-38.424,-23.399,-27.334,-26.643,-28.089,-5.571,-4.398
-35.728,-35.513,-23.02,-27.204,-24.284,-28.397,-8.255,-10.378
-31.19,-30.24,-21.207,-23.961,-20.938,-24.273,-10.016,-10.694
-30.141,-27.233,-20.544,-20.369,-20.874,-18.911,-10.151,-7.172
-34.654,-29.593,-22.207,-21.827,-22.697,-19.368,-12.136,-9.678
-41.874,-36.67,-23.943,-26.708,-23.412,-25.436,-15.193,-15.311
-46.105,-41.782,-23.25,-27.79,-24.615,-28.976,-13.606,-13.952
-42.912,-38.506,-19.997,-23.53,-25.669,-26.282,-7.674,-7.148
-34.753,-29.314,-15.689,-18.38,-22.305,-20.229,-3.556,-2.768
-29.493,-22.336,-12.397,-15.007,-16.596,-14.44,-2.811,-1.7
-31.632,-21.369,-12.474,-14.163,-15.886,-12.414,-3.398,-2.814
-38.829,-24.701,-16.678,-16.599,-21.315,-15.443,-5.324,-6.634
-45.039,-29.516,-21.858,-20.66,-26.298,-20.342,-8.169,-10.942
-45.523,-33.119,-24.367,-23.094,-27.227,-23.329,-9.787,-13.021
-41.354,-33.73,-24.991,-22.28,-27.827,-22.509,-9.162,-11.386
-37.222,-31.323,-26.158,-19.179,-30.248,-18.166,-7.651,-6.581
-34.876,-27.114,-27.018,-16.483,-30.298,-13.52,-7.504,-3.359
-32.781,-23.485,-25.578,-15.681,-25.474,-11.482,-8.354,-4.044
-30.638,-22.555,-23.017,-15.869,-20.352,-11.775,-7.738,-4.839
-29.92,-23.361,-21.509,-16.039,-18.974,-12.72,-6.036,-4.54
-30.956,-23.065,-20.291,-15.558,-18.969,-13.034,-5.412,-5.27
-32.511,-22.013,-18.151,-14.036,-17.903,-12.223,-5.475,-5.363
-34.534,-24.391,-16.77,-13.505,-17.147,-11.449,-5.275,-3.65
-37.726,-30.255,-17.458,-15.761,-17.14,-11.462,-5.209,-3.854
-39.542,-31.478,-17.483,-16.539,-15.679,-9.257,-4.688,-5.828
-37.237,-24.099,-14.383,-11.894,-11.711,-4.467,-2.859,-4.036
-33.227,-17.127,-10.912,-6.581,-8.255,-2.84,-0.591,1.122
-31.002,-18.492,-10.712,-5.184,-9.287,-4.774,0.805,3.943
-30.919,-23.338,-12.576,-4.338,-13.271,-3.972,1.021,4.355
-32.511,-25.197,-13.854,-0.893,-15.845,0.506,0.715,6.117
-35.966,-26.099,-15.474,1.922,-17.552,3.386,0.261,7.867
-40.504,-28.145,-17.838,0.503,-19.52,2.147,-0.408,5.88
-42.952,-26.864,-17.113,-2.868,-17.806,0.157,-0.678,2.011
-40.487,-20.151,-12.327,-3.683,-11.394,1.831,-0.997,0.322
-34.577,-13.6,-8.982,-1.586,-6.985,7.472,-2.971,-0.009
-28.947,-11.273,-9.836,0.198,-9.091,11.734,-4.861,-0.186
-25.527,-10.719,-10.952,-0.736,-13.076,9.282,-3.141,2.196
-25.001,-10.389,-10.604,-4.05,-13.849,2.129,0.864,5.701
-27.214,-12.202,-12.297,-7.506,-14.927,-4.8,3.004,5.545
-28.604,-14.713,-15.823,-7.807,-19.301,-7.604,2.431,3.053
-24.923,-13.543,-15.216,-3.772,-19.171,-3.392,0.149,2.04
-18.721,-9.632,-10.083,-0.515,-10.982,1.131,-3.539,1.633
-17.021,-7.964,-8.463,-3.315,-7.766,-3.43,-6.224,0.883
-21.167,-9.142,-12.763,-8.851,-16.167,-11.353,-4.472,1.229
-26.259,-10.135,-15.037,-11.103,-22.303,-13.011,1.133,2.549
-28.307,-10.902,-11.045,-9.925,-17.591,-10.459,7.541,4.139
-26.423,-13.077,-6.459,-7.888,-12.145,-7.72,12.107,6.492
-21.473,-13.532,-5.749,-4.697,-12.654,-2.402,12.308,8.761
-15.661,-7.392,-5.454,1.101,-11.631,6.869,9.509,9.918
-11.305,2.042,-2.192,6.582,-5.396,12.825,8.912,11.667
-9.788,5.705,1.054,6.518,-1.912,7.992,10.656,14.16
-11.827,1.122,1.139,1.808,-4.094,-1.051,9.509,13.048
-16.017,-5.705,-0.254,-1.426,-5.277,-2.295,4.432,7.248
-18.695,-9.666,-1.286,-1.686,-4.007,1.322,-0.026,2.274
-18.972,-12.16,-2.917,-3.959,-5.218,-3.079,-0.921,0.336
-19.762,-15.315,-4.638,-8.657,-8.555,-12.969,1.611,-1.686
-21.533,-15.493,-3.108,-7.682,-7.749,-10.66,7.398,-4.067
-21.015,-9.321,1.402,0.589,-2.12,3.718,12.392,-5.294
-17.76,-2.339,3.398,5.827,0.057,9.027,10.351,-4.133
-15.273,-3.176,1.135,3.693,-4.06,1.152,4.617,2.267
-13.402,-9.33,-0.085,2.924,-6.451,-1.243,3.583,11.759
-8.765,-9.133,3.886,9.031,-1.534,8.695,6.219,16.659
-4.373,-1.647,10.229,14.99,7.893,15.982,6.441,15.309
-6.865,-0.205,11.676,12.3,13.182,9.136,4.122,12.221
-13.801,-9.521,5.001,4.141,7.032,-2.145,2.608,10.384
-17.181,-17.315,-4.056,0.889,-4.641,-2.314,2.349,11.079
-16.983,-15.759,-8.81,4.044,-9.987,5.891,2.15,12.938
-17.014,-11.428,-8.712,5.63,-7.872,8.593,2.997,11.283
-15.588,-10.421,-5.939,2.659,-3.844,4.06,5.553,4.938
-12.707,-11.218,-3.522,-1.186,-1.231,-0.115,6.06,-1.995
-14.077,-12.681,-4.766,-4.815,-1.876,-2.56,1.634,-6.65
-19.454,-16.036,-8.747,-8.473,-5.294,-5.395,-3.134,-7.908
-20.644,-19.113,-11.19,-10.412,-8.334,-8.452,-3.075,-5.83
-15.782,-17.614,-10.491,-10.987,-8.429,-11.205,-1.026,-4.58
-10.389,-10.62,-7.005,-9.834,-3.348,-9.303,-0.769,-4.769
-6.402,-2.412,-1.637,-4.409,5.495,1.331,-0.081,-1.414
-5.294,-1.77,0.044,-0.592,6.852,9.875,1.849,0.702
-10.773,-12.262,-5.72,-7.467,-5.172,0.811,1.474,-6.306
-19.283,-23.677,-11.314,-18.118,-16.215,-18.221,-0.859,-12.636
-22.231,-25.546,-8.995,-19.14,-14.061,-25.804,-0.556,-8.116
-18.243,-21.35,-3.042,-14.121,-6.541,-21.622,2.555,-2.884
-12.971,-18.71,-0.637,-13.471,-3.868,-20.632,4.095,-5.145
-10.051,-17.286,-1.083,-13.356,-4.915,-21.73,3.055,-5.711
-9.094,-14.263,-0.3,-6.839,-5.374,-14.571,2.436,0.838
-9.545,-11.577,1.727,-0.166,-4.807,-4.285,3.917,5.081
-10.953,-10.745,3.58,-0.286,-2.951,-2.384,6.855,1.223
-11.534,-8.597,6.278,-1.833,1.814,-5.898,9.564,-1.854
-9.778,-4.498,9.885,1.892,7.965,-3.789,10.03,4.079
-6.841,-3.408,11.185,7.718,10.735,4.993,7.386,12.955
-5.48,-6.562,8.152,8.663,7.851,10.354,3.616,14.379
-7.005,-9.209,3.219,4.194,1.937,5.776,2.816,8.422
-9.949,-9.736,-0.4,0.396,-3.004,-1.78,5.578,2.891
-10.949,-11,-2.267,0.744,-5.035,-2.774,7.625,2.254
-8.937,-13.715,-3.145,1.616,-4.611,0.321,7.387,4.579
-7.084,-15.324,-3.299,-0.359,-2.988,0.17,7.012,5.448
-7.223,-14.168,-3.36,-3.335,-0.824,-1.968,5.826,2.91
-6.867,-11.432,-4.809,-5.106,0.673,-0.949,2.413,-0.699
-5.042,-9.72,-8.941,-6.753,-1.186,0.898,-0.348,-2.491
-4.217,-10.158,-14.255,-9.518,-6.111,-1.808,0.304,-2.88
-3.805,-9.821,-16.041,-11.372,-8.421,-6.906,2.02,-3.739
-1.313,-6.191,-12.981,-11.214,-5.192,-11.026,0.556,-5.235
0.62,-3.66,-10.124,-12.536,-1.075,-16.361,-3.877,-6.632
-0.676,-6.27,-9.813,-15.218,0.127,-20.173,-4.891,-7.16
-1,-8.083,-7.416,-11.907,0.97,-13.84,1.974,-5.099
2.701,-3.787,-1.796,-1.505,2.883,-0.27,9.957,-0.371
4.858,-0.979,0.509,4.729,1.959,4.766,9.565,2.874
1.296,-6.479,-2.141,0.744,-1.762,-3.285,4.148,1.907
-2.221,-12.535,-2.62,-4.015,-1.816,-9.966,2.821,0.471
-1.017,-11.505,1.247,-2.567,2.546,-6.857,3.39,1.114
0.918,-8.499,3.157,-1.505,4.425,-3.606,-1.24,-0.552
0.172,-9.649,0.536,-6.163,1.341,-8.26,-8.092,-6.917
-2.266,-12.949,-2.061,-11.392,-1.402,-14.668,-10.381,-13.059
-5.813,-14.291,-1.429,-10.957,0.256,-13.887,-8.026,-13.165
-8.952,-13.159,-0.04,-6.479,2.781,-7.785,-4.129,-7.514
-7.409,-11.32,-1.239,-4.32,1.002,-5.355,-0.89,-3.696
-0.405,-9.298,-3.191,-5.846,-2.431,-8.245,0.449,-5.849
6.044,-6.33,-2.159,-6.317,-1.907,-9.777,0.483,-6.841
6.965,-2.8,0.265,-4.559,0.29,-8.166,0.219,-3.431
4.321,0.329,0.49,-4.798,-0.32,-8.78,-0.14,-4.186
2.145,2.859,-0.328,-7.155,-1.126,-11.906,0.602,-10.119
1.215,3.702,-0.676,-7.691,-0.655,-12.317,2.275,-11.753
1.146,2.011,-2.724,-6.754,-3.278,-11.033,1.51,-8.595
4.405,0.829,-4.803,-5.264,-6.409,-10.77,-1.295,-6.881
12.109,2.919,-1.024,-0.126,-0.739,-6.877,-0.945,-5.798
17.844,5.558,7.132,8.279,10.942,2.891,3.857,-1.902
16.501,7.27,11.89,14.81,15.124,12.691,9.612,3.355
14.56,12.424,11.932,17.301,10.017,17.466,13.752,7.271
18.379,20.249,11.78,16.396,6.444,15.549,15.201,9.331
21.18,20.556,11.282,11.269,7.92,6.979,12.418,8.104
15.372,9.891,6.919,2.811,7.826,-3.671,5.998,2.662
7.423,-1.054,0.413,-3.693,2.866,-10.076,1.085,-2.134
6.942,-3.551,-3.914,-5.358,-3.631,-11.99,0.74,-2.171
10.998,-1.069,-6.24,-5.405,-8.682,-13.008,1.177,-1.487
12.051,1.461,-7.364,-5.408,-11.136,-12.334,0.51,-3.065
11.718,5.546,-4.557,-2.261,-8.815,-6.972,3.077,-2.424
15.352,12.135,2.364,4.297,-1.521,1.707,9.398,2.665
19.991,16.62,7.594,8.846,5.09,7.805,12.25,6.517
18.579,14.96,6.762,7.515,5.265,6.187,8.547,4.803
13.14,9.586,3.127,3.563,1.414,-0.223,5.049,1.43
12.163,5.906,1.621,2.189,-0.162,-3.303,5.618,1.126
17.208,7.247,2.453,4.992,1.389,0.325,6.805,3.522
21.895,13.221,4.506,11.094,3.554,8.231,8.123,6.68
21.246,18.445,7.197,16.529,5.512,14.888,10.712,8.481
16.339,17.352,7.886,15.72,5.81,14.246,11.445,6.978
11.379,11.725,5.227,9.315,3.542,6.601,8.111,3.801
10.146,7.738,3.702,5.169,2.863,0.499,3.516,3.553
13.622,8.017,6.896,8.016,6.169,2.929,1.635,7.456
17.516,10.445,10.196,13.27,7.85,10.687,3.517,10.743
17.103,12.493,9.326,14.74,4.985,15.794,7.469,9.29
15.263,14.588,8.595,13.388,3.784,15.635,10.589,5.377
17.274,17.875,12.026,13.743,8.193,13.452,10.329,3.796
20.613,20.285,15.441,15.841,12.962,12.197,6.99,4.773
19.941,19.063,13.817,15.851,12.158,11.186,4.118,4.693
17.849,16.047,9.198,13.123,7.751,10.066,4.281,2.367
20.657,15.504,6.631,11.452,6.389,12.063,5.031,-0.397
26.676,16.887,6.756,12.073,9.958,15.519,3.293,-1.484
26.86,15.157,5.324,10.64,11.003,11.746,1.858,-0.284
18.534,10.184,0.047,5.536,2.537,1.743,3.809,0.209
10.152,7.951,-5.255,1.78,-8.83,-3.383,5.497,-2.312
6.842,9.044,-7.903,1.068,-13.566,-3.479,3.505,-4.77
4.802,7.799,-9.21,-0.104,-12.888,-6.002,1.47,-4.117
4.126,5.219,-5.955,0.087,-6.872,-6.871,4.625,-1.21
9.804,8.427,6.019,6.918,8.058,2.26,12.257,2.486
18.516,16.086,18.397,16.49,21.373,15.171,17.007,5.846
19.725,18.663,18.484,18.19,17.814,17.358,13.374,7.576
11.723,13.697,9.855,11.081,5.101,8.809,6.514,7.123
4.621,8.372,5.863,4.736,2.267,3.438,4.387,5.058
5.901,9.123,8.368,4.931,9.161,7.919,6.325,4.744
12.857,16.433,11.255,10.511,14.084,16.683,9.049,10.828
18.738,25.271,13.333,17.712,15.192,22.424,11.531,20.655
19.824,29.06,14.517,20.821,15.191,22.381,11.186,22.611
18.373,26.8,12.809,16.635,13.443,16.859,8.796,11.251
19.117,23.341,10.029,9.525,11.807,7.765,8.688,-2.468
22.607,22.857,9.557,6.749,12.125,1.482,7.923,-5.488
27.826,27.051,11.144,10.303,11.784,4.506,2.502,1.216
34.704,34.612,13.394,15.193,11.496,12.19,-1.261,7.795
37.196,38.601,14.232,14.232,13.891,12.733,-0.874,8.279
29.677,33.99,10.906,6.732,14.771,4.814,-3.999,4.208
20.163,26.8,5.87,0.555,11.324,-0.527,-9.215,0.301
18.361,24.316,4.013,1.053,8.056,2.604,-8.058,-0.883
20.557,23.925,4.005,4.351,5.959,7.206,-3.137,-0.371
20.087,21.844,2.863,6.165,2.206,7.774,-1.614,0.38
17.744,20.654,2.562,8.325,-0.113,8.906,-2.593,2.096
15.601,20.97,5.09,11.591,3.443,11.429,-1.916,4.487
13.565,19.156,8.769,13.126,9.269,10.286,1.599,4.905
12.503,15.933,11.875,14.067,10.989,8.969,7.588,4.465
13.411,15.171,14.294,16.468,9.388,11.351,12.746,6.536
15.879,17.486,15.953,17.049,9.661,10.661,11.361,8.274
18.336,20.708,16.826,14.354,12.71,5.253,5.597,5.841
17.844,20.979,17.324,11.944,15.265,3.355,5.766,3.189
13.17,16.326,17.576,11.656,15.918,5.628,14.006,5.826
7.579,10.578,16.743,12.364,15.024,5.667,18.597,11.383
4.667,6.873,14.76,12.749,12.81,3.655,13.22,12.584
4.016,2.621,15.114,11.586,14.011,2.106,10.977,8.084
2.515,-3.267,18.267,8.447,20.665,-0.965,19.082,2.74
-0.959,-5.87,16.71,5.619,21.349,-3.804,19.318,-0.77
-2.074,-1.471,9.258,6.569,10.925,0.128,2.78,-1.374
2.724,5.243,4.576,9.398,1.841,8.379,-11.178,1.125
8.376,7.2,3.582,7.975,-0.923,9.942,-12.145,2.088
8.505,5.699,1.408,3.455,-3.033,3.966,-11.633,-1.288
4.654,6.031,0.626,2.878,-2.071,0.989,-13.482,-4.185
1.121,6.488,3.162,5.231,3.923,3.22,-10.259,-3.572
-1.067,2.655,3.332,3.757,6.514,2.402,-4.865,-2.874
-1.52,-2.472,-0.17,-0.476,3.3,-2.259,-5.61,-3.456
-0.675,-3.48,-1.361,-1.646,2.584,-3.274,-9.13,-3.206
-1.651,-2.447,0.645,-0.425,5.524,-0.178,-8.207,-2.881
-4.901,-4.658,1.035,-0.785,5.072,0.768,-4.087,-3.206
-7.063,-9.783,-1.101,-3.174,0.99,-2.65,-1.916,-2.706
-6.997,-13.072,-2.607,-6.569,-0.619,-7.775,-2.934,-3.899
-6.225,-13.035,-2.798,-10.553,1.104,-12.204,-4.989,-10.019
-6.707,-14.094,-4.824,-15.436,0.535,-17.021,-6.689,-18.404
-9.877,-18.268,-9.802,-20.769,-4.814,-23.023,-8.497,-25.07
-14.492,-21.484,-14.949,-23.646,-11.382,-26.364,-14.615,-29.002
-17.665,-22.258,-18.708,-23.361,-16.436,-25.753,-27.171,-30.591
-17.417,-22.38,-20.285,-22.098,-18.764,-23.887,-35.06,-29.661
-13.552,-20.702,-17.845,-19.326,-16.459,-19.411,-28.18,-26.919
-8.869,-16.95,-12.997,-15.048,-10.742,-13.36,-14.222,-25.226
-6.201,-14.214,-9.296,-12.408,-5.132,-11.6,-2.529,-24.174
-4.324,-12.883,-7.285,-10.99,-2.037,-11.287,3.261,-20.504
-1.661,-10.922,-6.717,-8.356,-2.659,-7.915,-3.507,-15.43
0.785,-8.528,-6.317,-6.201,-2.923,-7.247,-16.15,-11.131
1.653,-7.642,-4.618,-6.514,0.384,-10.817,-17.048,-7.622
0.239,-9.462,-4.323,-7.431,0.33,-11.392,-10.915,-6.612
-1.812,-11.004,-4.809,-5.047,-3.785,-6.346,-11.647,-7.114
-0.792,-6.507,1.555,2.805,1.342,1.649,-9.896,-3.179
5.377,4.051,17.423,14.007,20.5,9.956,12.108,7.854
15.168,13.467,33.625,22.871,39.587,15.897,45.475,18.633
22.911,15.531,35.942,22.661,40.971,15.524,52.393,16.545
23.422,10.828,22.505,13.263,24.652,7.802,20.195,2.671
17.872,4.177,8.019,4.19,7.491,0.023,-14.488,-6.137
9.375,-1.186,1.002,1.494,-1.979,0.209,-28.7,-5.166
-1.119,-4.796,-3.272,1.732,-7.62,6.406,-35.247,-5.68
-9.131,-5.948,-3.998,3.049,-7.339,10.49,-32.369,-6.253
-7.326,-2.479,4.611,8.362,3.618,11.115,-6.37,4.47
2.441,3.784,13.696,14.212,14.038,12.906,20.594,15.531
9.405,6.064,7.185,10.643,6.85,11.954,10.008,5.03
9.907,3.801,-8.883,-1.428,-9.651,2.328,-28.167,-18.113
8.668,2.374,-13.704,-9.483,-11.776,-8.498,-46.751,-27.334
6.224,1.148,-6.058,-8.891,-0.983,-10.778,-31.044,-20.674
1.739,-2.351,-0.174,-5.733,4.001,-6.919,-6.354,-13.293
2.51,-2.674,3.846,-2.973,6.332,-3.856,12.689,-7.581
13.779,4.946,13.782,1.555,18.418,-1.541,28.269,1.343
24.222,12.553,20.268,4.535,26.779,0.706,26.841,5.156
19.54,9.537,11.323,-0.587,15.08,-3.041,0.239,-4.573
3.73,-1.668,-3.495,-11.069,-3.645,-14.039,-26.285,-17.088
-9.164,-11.212,-10.404,-17.976,-11.668,-22.285,-34.549,-21.075
-12.341,-13.13,-9.515,-16.475,-9.433,-18.452,-34.26,-19.033
-6.239,-6.596,-3.979,-7.9,-1.124,-5.996,-28.999,-12.54
4.702,3.502,4.242,1.574,9.482,3.885,-13.673,-1.198
11.742,7.979,7.693,4.639,11.714,5.716,0.811,5.782
9.556,2.95,1.892,-0.537,1.645,1.344,-0.62,0.39
4.191,-4.544,-4.811,-7.282,-7.48,-4.364,-11.545,-9.733
4.272,-6.105,-3.329,-8.138,-4.145,-6.006,-14.745,-13.762
8.783,-1.866,2.845,-4.597,5.282,-3.428,-6.915,-12.309
11.635,3.125,5.252,-3.557,8.73,-2.983,1.217,-10.195
11.012,4.707,2.116,-7.104,4.526,-7.756,0.765,-8.437
9.01,2.446,-2.396,-10.154,-1.251,-11.112,-5.414,-6.588
8.154,1.979,-3.514,-7.407,-3.067,-6.494,-6.811,-3.95
9.567,7.506,0.065,-0.834,0.901,2.062,0.268,-0.048
11.436,12.683,4.026,2.931,6.326,6.618,6.514,3.669
9.782,9.306,2.831,1.013,6.02,5.036,3.646,4.883
3.502,0.304,-2.892,-3.755,-0.397,-0.29,-2.849,3.256
-2.73,-4.771,-7.254,-7.147,-5.624,-5.537,-3.607,0.726
-5.188,-3.669,-8.095,-8.66,-5.442,-7.77,-0.705,-2.601
-5.004,-2.259,-8.03,-10.174,-2.459,-7.312,-1.589,-7.346
-3.09,-3.012,-7.637,-10.776,-0.298,-6.578,-5.014,-9.045
-1.652,-3.788,-7.624,-9.498,-2.648,-7.322,-6.271,-5.062
-4.515,-4.429,-10.225,-7.816,-9.93,-7.937,-6.092,-1.536
-8.401,-4.656,-12.414,-5.801,-13.944,-6.418,-5.245,-2.392
-6.785,-1.881,-10.057,-2.783,-9.033,-5.049,-2.666,-3.273
-1.675,3.638,-6.787,-0.358,-2.803,-5.145,-1.121,-1.778
0.52,7.002,-7.746,-0.223,-3.533,-3.63,-3.984,-1.12
-1.47,3.97,-11.309,-1.695,-7.783,-0.5,-8.654,-2.575
-5.231,-4.026,-14.003,-3.783,-9.685,-0.893,-10.501,-4.017
-8.394,-9.927,-15.762,-6.508,-10.465,-5.736,-9.413,-4.645
-8.025,-7.745,-16.262,-8.058,-11.684,-8.266,-7.686,-4.516
-2.471,-0.38,-13.801,-6.332,-10.724,-5.019,-5.636,-2.576
5,3.812,-9.9,-3.976,-7.56,-1.985,-3.425,0.408
9.462,2.54,-7.901,-4.117,-5.344,-3.422,-3.262,1.373
9.918,0.799,-7.729,-4.728,-4.581,-4.954,-5.296,-0.261
7.853,1.451,-7.734,-4.333,-4.52,-3.726,-5.857,-2.113
4.514,2.795,-7.622,-5.406,-5.122,-3.315,-3.798,-2.871
1.608,3.598,-7.055,-7.898,-5.429,-4.457,-2.447,-3.148
0.354,3.828,-5.764,-8.455,-4.448,-3.511,-2.549,-3.847
-0.497,2.902,-5.054,-7.339,-2.8,-1.366,-2.144,-5.18
-2.837,0.417,-7.056,-8.214,-3.54,-2.502,-4.045,-6.683
-5.189,-1.889,-10.558,-10.528,-7.725,-6.208,-10.509,-6.674
-3.95,-0.808,-10.053,-9.685,-9.603,-7.315,-14.343,-2.949
0.022,2.311,-4.503,-6.055,-5.346,-5.05,-10.162,2.446
1.239,0.946,-0.215,-5.085,-0.125,-4.077,-4.561,3.795
-2.22,-5.967,-0.567,-7.243,0.483,-5.249,-4.273,1.13
-5.873,-10.673,-2.734,-7.513,-3.012,-3.614,-7.071,0.964
-6.008,-8.199,-4.381,-5.047,-6.809,1.209,-9.213,4.373
-3.696,-2.906,-5.542,-3.592,-8.348,3.573,-10.867,5.305
1.012,1.081,-4.55,-2.483,-6.472,4.43,-9.251,3.695
10.912,6.783,2.365,2.747,2.052,10.5,1.989,6.41
22.556,14.338,12.206,9.663,14.961,17.911,15.441,12.218
24.951,15.276,13.096,9.484,17.852,15.459,11.961,11.357
15.604,6.776,1.8,1.584,4.046,4.679,-7.073,3.014
6.627,-0.315,-8.706,-3.793,-11.504,-2.025,-19.653,-2.175
6.878,2.564,-8.342,-0.99,-13.652,-0.211,-17.81,0.356
11.871,9.356,-1.05,4.652,-4.686,4.902,-10.529,4.007
14.523,10.884,4.89,6.693,4.17,8.449,-4.698,3.406
13.042,8.353,4.976,4.285,5.095,8.286,-4.569,-0.543
9.555,7.403,0.151,0.412,-0.559,4.727,-11.297,-4.541
7.44,7.119,-4.43,-1.945,-5.096,0.123,-17.439,-5.09
7.848,4.982,-4.598,-1.803,-3.946,-2.809,-15.727,-1.548
8.336,3.829,-0.872,-0.009,0.816,-2.016,-8.2,2.767
7.577,5.932,3.375,2.067,4.827,1.935,-1.267,5.816
8.257,9.035,5.454,3.597,6.323,5.842,0.361,7.018
10.545,9.777,4.519,3.181,6.118,6.648,-4.222,3.478
9.134,6.25,0.913,-0.36,3.097,3.527,-10.045,-3.993
2.173,-0.592,-3.744,-5.709,-3.66,-2.536,-10.979,-8.56
-3.581,-6.345,-5.957,-9.894,-8.667,-8.655,-8.243,-7.875
-1.155,-6.453,-3.205,-10.217,-6.683,-10.152,-7.343,-6.088
7.417,-1.28,2.14,-6.939,-1.173,-6.344,-8.286,-5.185
15.104,5.334,5.8,-3.391,2.776,-2.159,-6.6,-3.802
19.646,11.019,7.97,-1.343,6.533,-0.036,-0.225,-1.392
23.518,14.851,12.2,0.627,13.053,2.69,8.851,1.713
26.004,16.101,16.301,3.124,17.418,6.436,12.552,3.851
23.296,14.827,12.529,3.994,11.45,7.344,2.925,1.867
18.686,13.371,2.76,3.125,0.326,6.296,-11.433,-3.477
20.697,15.962,-1.873,3.681,-3.182,8.734,-15.389,-7.244
28.194,22.851,-0.844,4.562,-1.627,11.33,-13.188,-7.862
32.635,28.864,-2.623,1.565,-5.607,6.481,-17.017,-8.053
33.66,31.772,-5.703,-2.245,-11.091,-0.606,-22.056,-9.023
38.057,35.548,-2.165,0.529,-7.229,1.559,-18.17,-9.035
47.77,42.996,7.444,9.241,5.96,12.377,-9.624,-7.191
56.578,49.591,15.793,15.119,19.09,19.953,-5.235,-4.834
55.189,47.778,16.903,12.677,21.397,16.827,-4.394,-3.044
41.632,37.608,11.313,6.02,12.33,8.158,-0.549,-1.222
26.53,26.942,6.268,1.71,4.943,2.028,8.669,0.579
20.185,20.811,4.645,-0.094,4.397,-0.58,12.101,-0.41
19.553,17.941,1.056,-1.94,0.676,-0.728,-2.247,-4.974
17.048,15.333,-4.78,-2.967,-7.137,2.216,-21.556,-9.133
12.784,11.566,-6.532,-2.682,-8.539,5.423,-25.07,-10.89
9.179,6.792,-5.555,-4.204,-6.17,3.812,-17.983,-11.856
4.466,1.382,-8.963,-9.277,-11.635,-4.09,-17.413,-12.658
0.127,-1.602,-14.005,-13.677,-19.912,-13.725,-22.74,-13.322
3.236,3.69,-10.614,-10.539,-15.182,-15.284,-20.613,-12.518
13.656,15.699,1.585,0.634,2.123,-3.997,-7.17,-6.662
21.321,23.773,13.063,12.718,16.444,12.016,8.109,6.317
20.406,22.779,17.595,19.183,19.802,20.784,14.108,20.599
13.06,17.294,13.407,16.106,13.131,16.293,4.002,19.045
2.179,10.945,2.29,3.927,-1.04,3.144,-16.925,-4.692
-8.498,3.814,-6.493,-7.761,-13.028,-6.68,-30.432,-26.976
-15.105,-2.521,-7.128,-10.407,-15.113,-9.422,-29.264,-28.778
-17.909,-5.966,-5.895,-7.146,-13.518,-9.832,-23.441,-21.643
-17.337,-6.753,-6.562,-3.103,-12.354,-6.472,-16.281,-15.781
-10.494,-4.915,-3.47,2.445,-5.487,2.86,-4.157,-5.804
0.666,-0.735,2.172,6.935,3.76,8.755,2.863,2.862
6.12,1.618,-0.148,3.508,1.912,2.375,-7.547,-3.824
2.241,-0.102,-9.23,-4.296,-9.518,-7.903,-21.605,-18.621
-2.618,-1.693,-11.261,-5.102,-14.205,-8.315,-16.05,-20.904
-3.647,-0.008,-4.284,0.298,-7.924,-1.384,0.779,-11.223
-3.286,3.941,-1.015,0.91,-3.777,0.356,1.509,-7.93
-0.748,8.267,-6.085,-5.469,-8.899,-5.048,-14.313,-16.377
4.442,9.209,-11.147,-12.524,-14.957,-11.096,-24.692,-25.976
6.76,3.994,-10.582,-16.507,-14.282,-14.478,-21.792,-28.291
3.922,-2.702,-6.122,-15.473,-8.556,-12.435,-14.123,-22.435
0.83,-5.209,-1.28,-10.058,-2.559,-5.443,-9.014,-13.764
0.548,-5.028,1.222,-6.376,0.663,-2.823,-7.205,-9.923
0.792,-3.848,1.103,-5.956,0.88,-6.63,-5.138,-9.499
-0.092,0.03,0.102,-2.282,-0.368,-3.592,-2.016,-5.112
0.466,4.919,-0.032,5.778,-0.403,9.83,-1.267,1.777
2.391,6.378,1.483,10.547,2.295,17.211,-1.54,6.254
-1.812,3.651,2.526,7.343,3.114,10.316,0.867,8.054
-12.968,0.075,0.644,0.179,-1.417,1.674,2.702,3.826
-18.087,-2.23,-1.056,-3.497,-3.686,1.809,2.013,-5.438
-12.593,-4.337,1.146,-0.52,1.494,6.282,3.432,-7.559
-9.065,-5.775,3.362,5.21,3.736,8.057,5.577,-1.051
-12.438,-3.945,1.123,8.24,-4.608,6.92,2.397,1.791
-12.76,-0.217,-2.257,7.134,-12.432,4.293,-3.597,-1.579
-7.001,1.21,-2.871,3.757,-9.348,-0.862,-5.893,-4.274
-3.631,0.241,-1.897,0.945,-2.656,-7.51,-3.361,-4.075
-5.925,-0.282,-0.22,0.782,-0.683,-9.754,1.337,-3.027
-6.774,1.336,4.163,3.371,2.705,-3.304,5.016,-1.868
-2.105,4.205,10.508,6.16,12.043,6.313,5.822,0.628
-0.334,3.103,12.352,4.633,15.826,8.115,4.466,2.947
-7.389,-4.4,7.393,-1.069,7.188,1.774,3.646,1.356
-12.66,-10.362,3.941,-3.149,-0.491,-0.643,5.055,-2.804
-7.664,-7.807,8.041,1.823,4.158,4.796,6.364,-4.946
-2.782,-1.287,13.682,7.241,12.145,9.211,4.804,-4.031
-8.273,2.25,12.919,9.191,9.652,9.147,2.299,-1.695
-15.152,3.09,7.704,11.194,-0.352,8.728,2.504,1.787
-9.964,5.157,6.452,15.093,-2.818,9.779,5.25,6.752
1.816,7.968,11.333,18.68,5.96,12.619,7.306,10.65
4.398,7.679,15.945,20.782,13.808,17.35,7.461,10.872
-2.133,5.397,16.591,22.244,13.636,22.608,6.995,8.643
-5.559,4.399,15.391,21.706,11.373,25.118,5.502,5.323
-5.453,1.802,11.834,15.683,8.947,19.517,2.503,1.689
-10.575,-4.352,4.326,6.745,0.614,7.494,1.045,0.966
-18.074,-8.175,-1.65,3.332,-8.944,0.773,2.621,4.711
-17.715,-7.145,-0.623,6.091,-8.436,2.61,3.363,8.652
-11.222,-5.732,3.855,7.768,-1.036,4.332,1.818,8.81
-7.887,-4.395,7.169,7.327,2.887,3.93,2.887,7.878
-7.732,-0.942,10.195,9.096,3.896,6.124,7.919,9.648
-3.092,2.951,13.985,13.588,7.078,11.201,11.677,13.449
7,5.268,16.138,17.882,10.477,16.624,11.994,17.201
13.131,6.319,14.115,19.178,9.891,21.343,10.864,17.859
7.602,6.181,8.971,16.447,5.657,23.947,8.596,12.271
-4,3.364,4.281,11.014,1.463,20.512,5.302,4.343
-9.266,-1.232,2.426,6.309,0.682,11.706,3.229,1.917
-7.113,-2.662,2.524,5.538,1.446,6.671,3.989,4.596
-7.598,0.33,2.375,6.837,-0.722,7.622,6.151,5.917
-13.639,0.676,1.457,4.604,-4.106,4.568,6.718,3.986
-17.918,-6.14,1.214,0.091,-3.737,-2.637,6.325,2.877
-15.9,-11.517,4.074,2.401,1.342,-0.06,8.263,6.162
-11.342,-6.412,9.896,12.384,8.084,12.657,10.799,11.46
-8.863,2.933,14.008,18.736,11.164,18.775,10.714,14.957
-6.561,6.495,13.728,16.443,9.337,14.379,9.473,16.51
-2.067,4.951,11.115,12.183,7.658,11.209,7.157,15.273
-0.555,2.319,6.037,9.37,4.521,11.042,2.888,10.311
-6.324,-1.126,-1.909,5.705,-6.079,6.645,0.649,5.781
-13.703,-4.383,-6.572,2.421,-15.843,0.311,1.683,5.19
-15.843,-4.967,-3.876,2.667,-13.306,-0.083,1.103,5.576
-13.344,-2.615,1.02,5.655,-4.571,5.551,-1.252,4.342
-8.512,0.946,3.703,8.451,0.504,11.558,-0.411,4.126
-2.665,3.481,5.307,10.165,2.867,15.452,3.146,6.412
-0.53,2.946,5.579,11.196,3.299,16.741,4.544,8.256
-3.951,0.191,3.461,11.077,-0.172,14.289,3.275,8.172
-6.23,-1.064,1.995,10.654,-3.163,11.787,2.819,8.182
-3.211,0.541,4.412,11.569,0.371,13.006,4.116,9.273
1.418,3.027,9.562,12.265,9.791,12.997,4.539,10.071
4.637,5.363,13.456,11.111,17.752,9.438,3.49,9.69
6.079,7.446,13.171,10.26,16.654,9.42,4.259,9.38
4.541,7.572,9.962,10.851,8.476,13.776,7.497,10.014
0.459,5.213,7.979,11.2,2.398,14.589,9.57,10.549
-1.251,4.184,10.03,12.259,3.257,12.258,9.573,11.154
3.262,7.995,14.971,16.971,9.66,15.482,9.818,12.982
10.274,13.832,18.514,23.291,17.279,24.514,10.095,14.785
13.169,15.538,16.906,24.531,19.301,29.373,8.871,14.474
11.036,12.775,10.843,19.073,12.086,25.804,7.808,12.346
9.321,12.677,6.269,14.034,4.385,21.087,9.033,11.008
13.978,18.163,8.601,14.698,9.444,20.847,9.923,12.346
22.576,21.165,13.976,16.581,21.783,20.898,6.517,13.348
22.628,14.823,11.791,12.815,19.829,14.156,0.693,8.842
7.905,4.731,0.753,4.765,0.729,2.348,-2.619,0.429
-9.075,0.253,-7.246,0.453,-13.402,-2.93,-2.604,-4.543
-13.062,1.555,-5.281,3.316,-10.983,3.668,-1.45,-3.73
-6.055,2.868,0.201,8.508,-2.864,13.273,-0.09,-0.88
-0.029,2.152,2.441,10.72,1.107,15.647,1.7,2.349
1.211,0.387,1.661,8.9,1.469,10.082,2.655,5.569
1.298,-2.153,-0.893,4.18,-0.947,2.473,0.607,5.159
0.146,-4.517,-5.033,-0.954,-6.603,-1.951,-3.447,-0.004
-3.029,-4.364,-7.778,-2.738,-10.281,-1.071,-6.395,-5.064
-3.296,-0.113,-5.484,0.629,-5.113,4.357,-7.762,-6.141
0.168,4.468,-1.376,4.899,3.62,9.443,-8.889,-5.372
-1.587,0.971,-3.289,2.56,2.578,7.759,-10.637,-7.965
-12.01,-10.351,-11.54,-6.196,-8.653,-0.186,-13.062,-13.974
-21.665,-17.953,-18.801,-12.633,-19.439,-7.071,-13.632,-16.136
-22.634,-16.991,-21.526,-12.862,-25.756,-9.132,-10.438,-11.512
-17.283,-13.344,-21.13,-10.247,-27.695,-7.074,-7.329,-6.689
-12.591,-10.365,-19.578,-7.152,-24.92,-2.816,-7.935,-6.249
-13.012,-8.74,-19.688,-5.182,-22.066,-1.669,-9.744,-7.64
-15.888,-10.003,-21.95,-5.642,-22.46,-4.296,-10.218,-9.011
-13.984,-9.126,-21.462,-5.007,-21.41,-1.331,-10.534,-10.996
-5.519,1.019,-14.588,0.593,-15.254,9.434,-10.207,-11.314
2.051,13.734,-5.906,6.498,-8.319,14.867,-7.43,-7.975
2.047,15.24,-2.816,5.315,-6.238,7.63,-4.758,-5.462
-1.989,6.956,-5.241,-0.038,-7.638,-1.186,-5.5,-7.536
-2.583,2.031,-6.452,-0.15,-6.405,0.475,-7.563,-9.492
0.943,4.187,-3.188,6.16,-1.963,9.61,-6.922,-7.059
3.668,6.619,0.594,11.042,-0.678,14.956,-2.872,-4.244
3.129,6.295,1.541,10.612,-3.661,12.758,2.23,-3.926
0.99,6.969,1.542,8.806,-4.585,9.77,3.433,-3.398
-1.833,9.207,1.392,7.165,-2.526,9.713,-3.193,-4.521
-5.146,7.814,-0.83,2.785,-2.934,6.946,-11.643,-10.458
-7.344,1.23,-4.245,-3.27,-6.965,-1.96,-12.1,-15.084
-7.98,-4.66,-5.552,-5.838,-10.412,-9.861,-7.02,-13.572
-6.826,-3.032,-2.495,-2.076,-9.149,-8.251,-4.087,-10.006
-3.169,5.554,3.491,4.951,-3.066,-0.301,-1.873,-6.291
0.802,12.765,6.785,8.138,3.151,3.67,1.679,-2.517
2.94,13.019,4.26,4.676,5.386,1.661,1.371,-3.285
3.104,8.871,-1.228,-0.604,2.695,-0.362,-4.111,-8.861
0.447,4.978,-6.044,-2.245,-4.289,0.141,-6.725,-11.308
-3.524,3.665,-7.94,0.399,-10.967,2.302,-1.807,-7.406
-4.641,4.103,-6.451,3.88,-12.369,5.226,3.791,-3.816
-2.113,3.725,-3.696,5.578,-9.826,7.583,3.314,-3.626
2.075,2.744,-0.387,7.155,-5.572,9.729,1.237,-1.239
7.697,3.996,5.275,10.169,1.345,11.73,4.981,4.656
14.205,7.951,12.721,13.144,10.227,11.888,12.042,8.302
17.459,11.573,18.2,15.696,17.716,12.264,14.091,8.086
14.813,12.445,20.175,19.561,21.168,16.795,13.077,9.055
9.87,11.672,21.064,23.679,20.657,22.779,18.502,13.852
5.62,9.933,19.956,22.024,15.823,21.744,23.681,15.295
0.004,4.888,13.064,11.534,6.048,10.086,14.2,6.768
-4.709,-2.128,6.329,0.859,-0.356,-2.122,0.887,-1.934
-1.052,-3.447,10.64,0.911,7.463,-0.513,4.478,0.873
9.476,4.842,22.633,9.106,22.871,11.744,19.428,8.252
16.981,16.367,28.679,15.144,28.729,17.651,25.279,10.682
17.02,21.681,24.912,15.681,22.871,12.401,19.285,12.423
12.384,18.32,19.184,13.597,17.531,5.822,16.691,17.226
7.912,11.81,16.88,11.471,18.094,4.521,21.069,19.226
6.591,6.883,14.142,9.325,17.294,5.823,17.828,14.259
5.989,2.756,7.732,5.327,10.756,3.973,6.218,7.715
1.888,-0.868,2.006,0.629,4.137,-1.089,3.641,6.524
-4.177,-1.652,-0.789,-1.742,0.013,-4.139,9.768,7.349
-5.417,0.815,-2.178,-2.839,-2.392,-4.662,10.198,3.827
1.43,4.422,-0.638,-4.05,0.362,-4.614,7.519,-0.418
9.27,5.36,1.07,-5.055,4.383,-3.551,5.36,-1.872
8.255,-0.504,-3.275,-8.21,1.192,-5.249,-3.784,-4.793
0.443,-11.361,-9.444,-13.919,-4.488,-12.813,-14.327,-9.024
-5.592,-19.281,-10.554,-17.999,-5.807,-20.265,-16.586,-10.161
-11.062,-20.773,-10.933,-19.615,-8.811,-23.063,-15.454,-10.029
-19.528,-20.119,-14.3,-20.697,-16.398,-23.641,-11.933,-11.389
-23.559,-20.181,-14.074,-19.269,-17.476,-22.189,-1.255,-11.067
-17.42,-18.395,-8.202,-14.256,-8.361,-16.561,6.985,-8.648
-8.159,-12.58,-4.834,-9.806,-2.243,-8.851,1.601,-10.15
-2.858,-4.62,-5.515,-8.08,-3.429,-4.399,-6.03,-14.234
-1.526,0.423,-1.891,-7.028,0.222,-6.875,4.277,-10.84
-3.72,-1.353,6.885,-6.575,10.811,-14.09,28.095,-0.886
-7.753,-6.027,10.526,-8.495,14.457,-19.574,36.711,3.168
-9.584,-6.168,3.867,-12.56,5.022,-20.771,17.755,-1.393
-8.852,-2.118,-6.256,-16.628,-7.715,-20.313,-9.589,-6.564
-7.297,1.137,-11.204,-17.35,-13.5,-18.33,-24.46,-8.621
-5.488,2.223,-10.089,-13.295,-12.771,-12.54,-22.04,-8.341
-6.047,1.662,-9.073,-8.799,-12.787,-6.739,-10.208,-5.893
-9.926,-0.389,-12.296,-9.294,-16.163,-9.126,-1.73,-3.052
-11.441,-2.583,-15.487,-12.689,-16.817,-17.448,-0.078,-1.835
-5.975,-1.727,-12.416,-11.399,-10.277,-17.764,0.911,-1.193
2.951,4.091,-4.618,-4.539,-1.315,-6.464,2.553,-1.038
8.987,11.338,1.49,0.021,3.898,3.223,1.939,-3.006
10.136,13.986,4.481,-0.718,6.691,3.649,2.687,-3.931
9.674,11.965,9.101,0.479,12.743,2.922,13.107,1.593
11.186,11.018,18.065,7.121,23.245,6.744,34.265,11.009
11.831,12.039,23.508,10.541,28.317,7.84,46.59,13.822
7.089,10.064,15.107,4.355,16.888,0.777,26.618,5.286
0.571,4.934,-0.354,-4.594,-2.09,-8.656,-7.876,-5.216
-0.787,2.348,-6.813,-7.813,-9.116,-12.215,-17.712,-7.693
4.781,5.155,-2.778,-5.528,-2.008,-7.528,-5.87,-4.531
13.627,9.933,3.271,-1.958,7.904,0.043,2.569,-1.232
18.657,12.05,7.309,1.221,12.658,3.931,7.859,2.13
14.735,10.768,7.506,3.648,9.725,3.549,14.618,4.538
5.029,7.691,3.896,3,3.638,0.901,14.487,3.142
-0.674,5.546,2.848,-0.038,4.187,-0.868,9.738,1.634
4.3,9.085,9.756,1.179,13.394,2.774,14.909,6.807
15.406,18.686,20.286,8.831,23.256,10.475,31.103,15.911
21.764,25.839,27.033,15.916,29.586,15.669,43.253,19.872
19.906,23.602,28.226,17.128,33.706,16.043,41.496,17.121
15.932,16.247,24.699,14.754,31.92,13.736,30.589,13.194
13.113,11.606,18.256,12.672,21.77,10.528,21.512,11.5
9,10.727,14.626,12.535,13.027,8.96,20.08,11.528
5.661,11.374,18.229,15.069,15.331,11.74,22.956,11.577
7.372,12.976,24.494,18.618,22.07,15.564,21.248,10.022
9.37,13.162,23.856,18.114,19.023,12.876,9.431,6.449
5.5,9.417,15.691,12.313,7.183,4.59,-3.142,3.35
0.622,4.913,11.483,7.811,3.889,0.698,0.818,3.798
0.033,3.291,15.897,7.674,13.864,2.727,19.317,5.985
-0.691,1.834,17.997,5.401,20.225,1.286,29.284,4.89
-4.355,-2.785,11.947,-1.735,15.148,-5.629,20.88,0.423
-5.829,-7.866,6.332,-6.483,10.084,-9.775,8.69,-2.121
-1.87,-8.355,7.745,-3.495,12.013,-7.16,6.343,0.799
3.857,-3.966,13.606,4.067,16.595,-1.817,13.993,7.657
6.028,0.043,18.016,10.066,18.664,2.446,22.9,12.541
3.408,-0.493,17.022,10.789,17.053,5.027,23.321,10.499
-0.17,-3.807,13.333,6.975,15.301,4.715,18.175,5.294
-0.864,-5.485,12.716,2.846,16.531,1.089,18.289,4.69
0.288,-4.657,14.818,0.788,18.146,-3.102,22.231,8.683
-0.166,-4.693,14.654,-0.948,16.088,-5.954,21.131,10.695
-2.94,-7.313,11.247,-3.323,11.615,-7.235,16.005,7.284
-4.229,-8.965,9.52,-3.933,11.26,-5.943,13.257,1.391
0.373,-6.328,12.93,-1.88,18.047,-3.303,13.53,-1.976
8.127,-3.036,16.972,-0.64,24.524,-3.607,14.785,-0.787
10.84,-4.186,15.917,-2.244,22.815,-7.314,17.692,2.995
6.905,-6.788,12.729,-3.699,18.027,-9.831,21.764,6.267
3.51,-4.633,13.345,-1.871,19.711,-7.388,23.652,7.358
4.148,0.102,15.884,1.638,24.949,-2.299,23.568,6.388
2.793,-1.417,13.552,1.08,22.812,-3.593,24.035,4.56
-3.37,-10.034,5.811,-4.421,12.239,-12.515,22.371,2.671
-6.677,-14.84,0.392,-6.52,3.751,-16.133,16.123,1.395
-2.132,-10.107,3.3,-1.112,5.711,-9.152,11.117,2.593
5.513,-3.108,12.209,5.056,16.426,-1.433,13.039,6.73
11.178,0.123,20.007,6.954,26.277,1.062,17.874,10.629
15.163,2.437,22.449,7.837,28.367,2.831,19.768,11.224
18.753,7.117,21.943,11.488,27.103,8.246,19.685,9.491
19.588,11.813,21.004,15.511,26.964,13.613,19.755,8.928
16.103,13.622,17.849,16.307,23.846,13.913,19.002,10.995
14.091,15.285,14.04,16.32,18.713,13.331,17.619,13.157
18.77,19.596,14.805,18.307,19.301,14.993,17.903,13.361
23.083,21.14,17.841,18.683,22.691,12.251,19.582,12.905
18.186,14.305,15.785,15.066,19.706,5.006,19.358,12.087
10.435,5.199,9.372,11.316,12.36,2.357,16.725,9.924
10.005,2.622,4.819,9.443,7.372,3.57,14.495,7.914
13.242,4.282,4.06,7.243,5.996,1.061,14.233,7.758
13.867,4.203,5.476,5.332,7.637,-2.899,15.399,8.616
15.057,3.123,7.104,5.919,10.829,-2.292,16.349,9.034
17.739,3.04,7.474,7.42,13.297,1.074,15.743,8.267
15.97,2.612,6.242,7.25,13.771,3.546,12.682,6.162
11.103,2.059,5.653,5.705,14.359,5.097,8.521,4.734
10.486,2.404,7.974,3.894,18.014,4.894,8.015,6.346
10.261,-0.127,7.922,0.462,17.674,0.513,10.085,7.475
2.126,-7.675,0.659,-5.062,6.96,-5.795,8.675,3.341
-6.683,-13.114,-4.898,-8.195,-1.133,-7.653,6.157,-1.791
-4.82,-11.219,-1.239,-7.102,3.857,-6.603,7.805,-1.19
2.325,-7.618,3.928,-6.2,10.815,-9.086,10.565,2.59
4.356,-7.461,3.479,-7.021,9.91,-11.517,8.556,3.129
2.928,-8.588,0.508,-7.891,5.979,-9.752,3.039,1.335
4.731,-7.662,-0.107,-8.301,5.997,-8.204,1.859,2.621
8.588,-4.297,1.104,-7.587,8.102,-7.673,5.009,6.004
7.117,-1.899,-1.191,-7.899,4.22,-7.576,2.332,4.668
1.418,-3.159,-7.343,-12.087,-4.991,-11.668,-6.727,-2.247
2.79,-4.281,-8.784,-15.158,-7.223,-16.345,-11.397,-7.054
12.732,-1.367,-1.6,-10.985,2.007,-13.842,-7.853,-4.895
17.777,1.547,5.213,-3.986,9.572,-7.312,-0.479,0.308
10.762,-0.724,3.363,-2.184,5.193,-4.601,5.228,2.154
0.343,-6.956,-3.317,-6.415,-2.711,-6.81,3.887,-1.139
-4.321,-13.712,-7.918,-12.661,-4.972,-11.596,-2.595,-4.974
-4.688,-18.477,-9.361,-16.033,-5.281,-15.349,-5.085,-4.293
-5.481,-19.305,-8.887,-13.673,-6.735,-13.873,-0.696,-0.977
-5.645,-17.401,-6.68,-9.96,-4.987,-10.551,5.763,0.413
-2.844,-16.136,-3.217,-11.285,1.683,-13.468,9.97,0.225
-0.801,-16.62,-1.512,-16.099,6.278,-21.232,7.546,-0.529
-3.335,-17.743,-4.692,-18.707,2.166,-24.319,-2.476,-3.749
-5.852,-17.233,-8.922,-16.273,-4.372,-17.498,-9.552,-6.719
-2.719,-12.624,-7.075,-9.093,-3.024,-5.225,-4.257,-3.034
1.622,-6.068,-0.921,-1.62,2.631,2.381,6.199,5.266
-0.613,-3.717,1.715,0.069,3.138,0.516,10.668,9.773
-7.802,-7.514,-0.748,-4.264,-0.014,-5.825,8.607,7.708
-11.195,-12.639,-3.65,-8.791,-0.125,-9.836,4.295,3.189
-7.413,-13.818,-5.258,-10.376,0.976,-10.902,-0.324,1.027
-3.458,-12.001,-8.738,-12.516,-3.772,-13.59,-5.054,0.627
-6.149,-12.496,-14.088,-17.23,-12.676,-19.156,-8.69,-2.415
-12.955,-17.726,-17.04,-21.022,-17.079,-23.11,-10.683,-8.388
-18.088,-24.573,-17.794,-22.443,-15.478,-23.413,-13.677,-14.062
-18.477,-27.323,-19.578,-23.438,-13.242,-23.24,-17.561,-16.888
-14.507,-24.491,-21.831,-23.971,-13.994,-24.636,-18.232,-16.338
-11.417,-20.932,-23.518,-22.953,-18.689,-25.503,-14.793,-15.425
-13.097,-20.011,-24.898,-21.289,-24.363,-24.86,-8.777,-15.48
-15.863,-20.406,-25.036,-21.264,-26.057,-25.956,-3.77,-13.908
-15.038,-19.776,-23.845,-22.165,-24.872,-27.52,-6.867,-11.746
-10.864,-16.714,-21.855,-19.494,-24.087,-22.363,-17.06,-11.493
-7.125,-13.8,-19.707,-14.143,-23.337,-13.191,-23.616,-10.914
-8.518,-15.3,-20.128,-13.59,-23.788,-11.624,-24.508,-10.198
-13.811,-18.975,-22.195,-18.343,-24.733,-17.538,-25.796,-13.13
-14.196,-18.306,-19.153,-19.252,-19.582,-18.931,-24.247,-16.011
-7.109,-12.441,-11.892,-12.431,-10.438,-11.688,-14.611,-12.848
-1.852,-7.227,-11.537,-5.798,-10.485,-4.75,-6.439,-6.919
-3.625,-6.552,-19.761,-5.361,-20.822,-4.229,-10.111,-2.146
-6.363,-7.927,-24.54,-7.07,-26.76,-5.723,-17.726,1.535
-6.034,-8.082,-20.469,-8.201,-21.426,-7.094,-17.93,-0.039
-5.784,-7.382,-14.917,-11.202,-13.454,-11.634,-13.633,-7.966
-6.662,-7.501,-14.056,-14.924,-11.439,-17.595,-12.612,-13.607
-6.737,-9.195,-16.325,-16.196,-14.096,-20.651,-14.924,-12.333
-7.48,-11.907,-17.983,-15.416,-16.55,-20.779,-15.247,-8.508
-10.211,-14.167,-17.725,-14.005,-17.307,-18.817,-11.486,-5.016
-11.417,-14.917,-15.273,-12.418,-15.257,-14.708,-6.825,-1.379
-8.709,-12.971,-9.702,-10.985,-7.28,-10.591,-4.962,0.433
-4.241,-7.061,-2.526,-9.038,4.33,-7.792,-6.294,-1.455
-0.635,-0.695,0.382,-6.554,8.16,-4.192,-7.831,-3.872
-0.128,-1.673,-4.782,-6.677,-1.788,-1.68,-7.368,-3.086
-3.906,-10.051,-12.346,-10.095,-13.555,-5.449,-5.822,1.299
-8.71,-15.834,-13.979,-11.991,-13.966,-11.679,-4.946,5.76
-10.524,-14.419,-10.918,-10.701,-8.278,-12.636,-5.621,4.3
-11.023,-11.854,-9.765,-10.539,-7.757,-11.737,-6.892,-2.545
-13.1,-12.762,-11.669,-13.437,-11.779,-15.468,-7.883,-7.895
-13.696,-14.359,-13.056,-15.343,-13.291,-18.514,-9.113,-9.265
-10.369,-13.32,-12.324,-12.715,-10.917,-13.462,-9.717,-7.859
-9.205,-11.708,-12.301,-9.065,-9.825,-5.769,-9.298,-4.453
-15.454,-13.298,-15.237,-10.173,-13.332,-5.759,-9.699,-1.952
-24.071,-16.793,-18.793,-14.271,-18.2,-11.907,-11.193,-2.988
-27.433,-17.493,-20.983,-14.948,-21.054,-12.822,-12.801,-5.699
-23.895,-15.109,-22.574,-12.274,-22.031,-6.161,-14.411,-7.407
-16.671,-13.71,-22.774,-12.199,-20.235,-4.487,-15.211,-7.192
-11.465,-14.646,-20.981,-15.597,-16.523,-13.317,-14.517,-4.659
-12.121,-15.709,-19.856,-16.635,-16.339,-19.114,-13.4,-1.276
-15.806,-15.977,-20.284,-13.943,-19.97,-14.428,-12.603,0.424
-17.561,-16.851,-20.446,-13.613,-21.742,-10.887,-12.18,-0.742
-15.599,-17.817,-19.898,-16.951,-20.3,-13.601,-12.65,-4.01
-9.675,-15.21,-17.546,-16.954,-16.782,-12.234,-13.477,-6.183
-2.815,-8.882,-12.13,-11.173,-10.975,-4.434,-13.011,-4.686
-0.743,-4.045,-6.464,-5.622,-5.513,-0.411,-10.264,-0.538
-1.794,-2.436,-3.426,-4.014,-3.238,-3.651,-5.553,3.913
2.139,-0.511,-2.025,-3.853,-2.492,-7.117,-1.687,6.686
10.362,2.778,-1.52,-2.462,-1.943,-5.247,-2.261,6.302
13.206,5.357,-2.042,0.376,-2.465,1.249,-5.584,3.711
8.383,6.184,-0.987,3.85,-1.915,7.46,-5.519,2.927
3.327,4.44,2.533,5.94,0.846,7.57,-1.158,6.244
2.289,0.256,3.028,4.965,-0.06,2.777,1.225,9.968
2.912,-2.403,-2.316,3.215,-6.758,1.553,-1.554,10.65
3.572,0.283,-7.179,4.469,-10.907,6.591,-5.175,11.471
5.447,6.741,-6.232,8.539,-7.809,12.686,-5.459,14.781
8.073,12.142,-2.359,11.801,-2.545,17.028,-3.749,16.013
8.145,12.838,-0.354,11.082,-0.063,18.679,-3.523,10.965
3.832,8.092,-1.625,6.117,-1.929,14.027,-5.135,2.958
-1.914,0.4,-4.811,-0.334,-6.543,3.281,-6.267,-0.739
-4.416,-5.4,-6.98,-4.634,-8.431,-5.69,-6.436,1.34
-2.88,-5.85,-6.249,-4.196,-5.672,-5.564,-6.616,4.072
-0.091,-2.443,-3.685,1.205,-2.852,2.942,-5.4,6.368
1.699,0.35,-1.576,7.481,-2.674,11.617,-2.147,10.999
0.596,-0.986,-2.24,7.003,-3.668,10.734,-1.94,12.638
-4.638,-6.136,-6.645,-2.549,-5.863,-0.308,-8.387,3.608
-10.271,-9.63,-11.049,-11.38,-8.882,-8.951,-15.422,-8.939
-9.609,-6.656,-9.192,-9.228,-7.334,-5.25,-15.431,-10.812
-2.459,-0.059,-1.79,-0.043,-0.754,3.881,-9.699,-2.472
2.605,2.436,2.023,4.569,0.734,6.192,-4.922,3.925
0.427,-1.572,-1.649,1.909,-6.086,2.326,-4.939,3.259
-2.812,-5.242,-5.559,-0.228,-11.561,2.968,-7.972,-0.131
-1.937,-4.013,-4.54,1.75,-10.705,9.635,-9.917,-1.918
-1.425,-3.003,-2.257,1.855,-7.799,11.089,-9.665,-0.67
-3.403,-4.627,-1.489,-1.537,-5.53,4.663,-9,2.736
-2.902,-3.267,-0.087,-1.72,-2.938,1.585,-8.38,5.263
-1,0.656,1.582,2.148,-1.594,4.501,-6.689,5.606
-5.206,-0.981,0.059,3.479,-4.428,4.658,-4.041,6.126
-14.049,-8.409,-3.905,0.671,-8.853,1.404,-2.533,7.318
-17.16,-12.46,-6.111,-1.749,-9.695,1.378,-3.368,6.747
-11.429,-8.391,-5.103,-0.959,-7.208,5.213,-4.515,5.699
-5.604,-1.472,-2.993,1.182,-5.434,7.914,-4.237,6.859
-6.812,1.175,-2.033,1.705,-5.5,6.43,-3.671,7.937
-10.584,-0.769,-1.135,2.04,-3.931,4.48,-3.32,6.967
-10.025,-3.543,1.708,4.709,1.242,6.874,-2.435,6.33
-7.419,-6.761,2.916,5.618,4.057,9.054,-2.388,6.435
-8.15,-11.689,-2.628,0.062,-1.585,4.389,-5.121,4.415
-10.746,-15.417,-11.228,-7.367,-10.304,-2.403,-9.006,0.32
-10.655,-13.905,-14.329,-9.109,-12.28,-2.843,-10.524,-2.512
-6.832,-8.612,-10.48,-5.675,-6.687,1.798,-9.598,-2.36
-1.793,-5.266,-5.535,-3.161,-1.283,5.002,-9.239,-0.763
0.413,-6.79,-3.659,-3.739,-1.507,5.386,-9.813,0.201
-0.868,-9.554,-2.885,-4.784,-2.96,3.889,-9.066,1.053
-1.59,-8.524,-0.451,-4.818,-0.054,0.514,-7.857,2.305
0.194,-3.833,2.054,-3.809,4.203,0.482,-9.084,1.148
2.191,0.743,2.346,-1.449,5.322,6.876,-11.091,-2.489
1.001,1.212,0.356,-0.363,2.964,8.413,-9.618,-3.457
-4.8,-3.527,-3.183,-3.494,-1.684,-1.891,-5.715,-0.887
-11.033,-7.754,-6.098,-6.407,-5.562,-9.508,-3.44,1.346
-12.537,-5.788,-6.072,-3.261,-5.383,-3.768,-2.488,3.829
-11.007,-1.862,-4.479,1.655,-2.322,3.742,-1.471,7.753
-10.212,-2.523,-4.648,0.245,-1.269,2.203,-2.857,8.406
-8.915,-4.814,-6.496,-5.419,-3.796,-1.944,-7.027,3.949
-5.073,-1.98,-6.9,-6.028,-5.237,0.755,-8.585,0.765
-0.92,4.002,-4.856,0.265,-1.876,8.163,-5.009,3.288
0.263,4.706,-2.373,6.108,3.546,12.456,-1.324,7.771
-1.481,-1.648,-1.226,6.854,5.686,11.979,-1.149,9.167
-4.256,-8.254,-1.679,4.218,2.739,9.422,-0.405,8.176
-6.793,-9.743,-3.056,0.329,-2.18,5.079,3.636,8.184
-7.761,-6.587,-4.596,-3.913,-6.092,-1.136,4.549,7.903
-5.513,-1.377,-4.217,-5.869,-7.273,-5.341,-0.252,5.67
0.402,4.366,1.35,-2.409,-1.635,-2.758,-2.548,5.762
6.991,9.245,9.049,3.518,8.709,3.962,-1.351,7.554
8.352,9.271,9.492,3.954,10.401,5.753,-4.382,3.455
2.989,1.864,1.317,-2.296,-1.307,0.087,-9.54,-4.091
-2.338,-6.069,-5.529,-6.475,-12.2,-4.473,-9,-5.273
-1.778,-4.666,-4.382,-1.605,-11.111,-0.165,-3.716,0.023
1.799,3.876,1.291,8.815,-3.354,10.014,0.296,5.548
2.882,8.434,5.796,15.509,3.436,16.761,0.763,8.54
-0.247,3.539,6.396,13.017,7.028,14.306,-0.652,8.207
-7.382,-6.749,2.245,4.127,4.91,4.755,-1.667,5.667
-15.689,-14.278,-3.597,-2.788,-1.687,-3.149,-1.223,5.352
-18.424,-14.15,-4.409,-1.592,-4.254,-1.023,0.503,8.719
-13.018,-9.214,1.451,5.043,0.582,8.385,2.775,11.353
-6.247,-5.664,7.701,9.949,5.607,14.263,4.697,10.861
-4.675,-4.68,10.086,11.972,6.43,15.023,5.997,10.888
-6.386,-2.64,11.099,15.124,7.681,18.855,6.637,13.441
-7.184,0.467,11.776,18.775,11.22,25.493,4.948,14.809
-6.684,0.348,9.56,19.502,11.833,26.843,1.054,13.995
-5.507,-2.352,6.288,19.437,9.136,24.287,0.502,15.439
-3.455,-1.737,6.14,20.592,8.898,23.367,5.363,17.588
-0.615,3.43,6.972,18.759,10.167,20.901,8.402,12.507
2.826,8.836,5.072,13.423,7.642,16.408,5.482,2.658
6.053,11.772,2.891,10.896,4.5,16.609,1.932,-0.605
6.236,11.76,2.534,11.394,4.841,17.736,1.646,3.355
2.881,9.457,1.944,10.071,5.041,12.226,3.374,7.362
1.905,9.422,1.696,10.133,4.598,9.374,5.912,10.62
6.693,15.343,2.443,15.265,4.683,16.338,7.296,13.546
11.453,21.772,1.037,18.638,0.637,21.064,5.539,13.353
10.912,21.414,-2.005,15.184,-6.118,17.224,2.427,10.425
6.76,16.314,-2.862,9.51,-7.737,12.183,0.059,6.758
2.487,12.483,-2.035,6.901,-5.333,9.348,-1.758,4.139
0.651,11.76,-1.418,8.748,-4.905,9.284,-2.039,5.885
2.589,12.552,0.046,12.036,-5.151,11.883,-0.276,9.219
5.824,12.166,2.124,11.544,-3.424,12.355,0.462,6.001
6.416,9.656,2.363,8.154,-2.809,10.127,-1.007,-0.941
5.162,7.723,2.118,8.027,-3.705,10.316,-0.332,0.732
6.421,10.34,6.277,13.362,0.145,15.148,5.701,11.916
10.166,17.825,14.063,20.674,9.251,22.615,13.4,19.948
11.308,24.982,17.573,25.809,13.397,27.95,16.676,19.654
9.933,27.769,14.853,28.974,8.865,29.737,15.813,20.781
11.81,27.265,12.781,31.146,5.731,30.5,15.599,26.43
15.729,24.221,12.264,27.936,8.495,27.544,14.217,22.463
15.765,19.773,7.961,18.936,9.021,19.438,7.202,5.984
12.732,17.802,0.971,12.456,2.578,12.355,-0.225,-3.364
9.963,18.265,-3.91,11.488,-5.406,9.085,-1.901,1.615
8.075,17.409,-5.58,11.87,-7.752,8.511,-1.181,6.818
7.776,14.858,-5.082,12.538,-4.307,11.017,-0.698,6.971
9.064,13.243,-3.596,14.207,-0.72,14.472,2.24,8.321
11.25,14.861,-1.242,15.899,1.259,16.101,6.371,10.429
13.43,18.741,1.3,16.47,2.941,16.281,6.374,8.525
12.731,20.065,1.032,15.53,1.227,14.741,2.12,4.472
8.909,16.721,-0.956,15.075,-3.714,12.047,-0.47,5.109
7.219,12.137,0.559,16.788,-3.907,11.531,1.047,10.323
10.508,9.377,4.329,17.187,2.006,12.565,1.903,10.359
13.636,8.055,4.377,13.28,5.322,12.569,-1.027,2.657
9.706,5.412,0.233,8.057,2.095,12.245,-4.621,-2.835
-0.322,-1.092,-4.505,3.964,-3.032,9.663,-5.788,-1.712
-7.908,-8.546,-7.477,1.236,-5.766,5.056,-4.22,1.91
-6.991,-10.013,-6.823,2.362,-4.487,6.639,-1.514,5.197
1.014,-4.241,-1.462,7.183,2.082,13.9,-1.256,4.836
10.651,1.704,5.094,10.089,10.403,15.429,-4.326,-0.55
14.549,0.571,5.55,6.776,10.564,7.681,-7.374,-7.407
8.751,-6.179,-1.42,-1.36,0.602,-3.758,-8.314,-13.442
-0.11,-9.58,-7.999,-7.648,-8.04,-11.045,-7.356,-16.479
-2.664,-5.938,-9.482,-6.945,-9.655,-9.154,-5.35,-13.527
1.563,-0.884,-9.289,-2.813,-10.073,-3.973,-3.704,-6.984
7.553,2.317,-9.61,-0.921,-10.611,-3.49,-2.298,-2.259
11.49,6.237,-8.091,0.377,-6.468,-3.419,0.495,0.148
11.89,10.355,-3.754,4.578,1.47,2.566,3.734,3.332
9.448,9.883,-0.393,8.444,5.625,9.423,4.198,6.19
5.292,4.102,-2.165,7.298,1.785,10.29,0.959,3.974
0.528,-0.772,-6.624,3.232,-4.883,6.934,-3.059,-2.415
-2.167,0.515,-7.32,1.327,-7.886,4.783,-3.355,-4.995
-0.395,5.597,-2.958,3.011,-7.18,6.681,-0.075,-0.782
5.191,9.005,2.468,5.342,-3.992,8.133,0.474,3.541
9.621,7.82,5.214,3.366,-0.687,0.262,-3.656,3.643
6.085,1.909,3.714,-3.736,-3.359,-13.522,-7.427,0.993
-3.529,-4.864,1.398,-8.456,-9.1,-17.966,-8.222,-1.05
-7.689,-6.791,5.069,-3.686,-5.15,-9.117,-5.692,4.088
-2.832,-3.779,13.455,4.517,7.899,-0.357,0.522,11.63
1.527,-1.334,16.384,3.91,13.772,-2.418,5.064,3.679
-0.787,-2.572,9.698,-4.21,4.676,-9.788,1.177,-14.711
-4.495,-5.012,0.181,-8.263,-10.205,-13.504,-7.533,-17.82
-4.374,-5.919,-5.999,-7.294,-19.329,-15.837,-11.967,-7.524
-4.717,-6.813,-10.161,-10.276,-21.74,-21.836,-11.2,-9.359
-8.413,-8.183,-13.155,-15.894,-21.26,-25.204,-9.354,-21.684
-8.859,-6.706,-11.62,-13.505,-16.85,-16.879,-6.745,-19.548
-3.972,-3.809,-7.158,-4.854,-9.28,-4.331,-4.127,-5.127
-0.813,-4.116,-5.097,-0.16,-4.512,-0.031,-3.467,-0.076
-1.493,-5.32,-3.922,1.463,-2.8,0.598,-2.182,-1.775
-1.432,-3.578,0.14,3.995,1.27,4.693,1.166,2.076
0.971,-0.361,3.968,3.375,6.915,6.761,1.702,4.354
2.61,1.451,2.113,-2.442,6.347,2.725,-3.034,-2.78
-0.221,-1.652,-5.399,-9.033,-4.072,-3.106,-8.097,-11.031
-7.574,-10.298,-13.231,-11.904,-17.199,-5.94,-8.492,-10.189
-13.849,-16.891,-16.246,-10.504,-22.649,-5.039,-4.856,-3.085
-12.991,-15.085,-12.983,-8.388,-17.44,-4.107,-0.948,-1.552
-6.804,-9.673,-5.928,-8.214,-7.036,-5.787,1.47,-7.209
-2.178,-7.763,-0.403,-8.804,0.193,-7.443,5.254,-8.051
0.14,-7.164,1.432,-7.606,1.613,-6.533,15.183,1.701
3.927,-2.841,2.137,-3.772,1.404,-4.169,27.314,13.021
6.892,2.058,0.432,-1.909,-0.156,-3.511,25.009,13.419
4.399,2.088,-6.911,-7.423,-6.233,-7.347,3.235,1.088
-0.411,-0.406,-14.559,-15.765,-12.213,-13.609,-16.13,-11.794
-0.988,0.796,-14.59,-16.64,-11.073,-14.902,-17.163,-12.524
1.583,5.103,-9.349,-8.739,-6.751,-7.166,-9.881,-1.428
0.024,4.528,-7.135,-2.147,-7.728,1.303,-3.636,9.766
-6.43,-2.612,-9.177,-4.584,-11.605,-0.868,2.302,9.252
-9.115,-6.203,-9.584,-10.403,-8.696,-8.884,3.292,-1.475
-5.09,-1.942,-7.172,-11.704,-0.246,-11.395,-4.883,-10.719
-3.611,0.285,-8.107,-11.802,-0.929,-11.696,-12.754,-14.274
-9.081,-4.572,-12.649,-13.304,-13.138,-14.366,-8.827,-13.031
-14.827,-9.678,-13.327,-10.044,-19.135,-11.479,2.214,-4.928
-18.268,-11.949,-11.365,-2.918,-14.863,-1.371,6.978,3.592
-21.494,-13.728,-13.945,-1.349,-14.807,4.183,3.109,1.613
-21.61,-13.37,-17.485,-5.639,-18.664,0.36,-1.686,-5.415
-17.011,-9.552,-15.386,-8.061,-15.216,-4.967,-2.909,-4.296
-13.288,-6.764,-11.64,-7.733,-8.016,-7.146,-1.111,2.484
-14.566,-8.5,-12.451,-9.486,-7.912,-8.961,1.381,3.187
-17.498,-12.038,-15.473,-13.336,-12.94,-11.109,1.923,-3.217
-16.759,-13.316,-14.105,-14.103,-10.876,-8.149,0.34,-7.731
-11.428,-11.711,-7.787,-8.273,0.193,5.537,-0.636,-4.04
-6.113,-9.371,-3.209,0.039,6.59,20.465,3.055,5.229
-7.693,-10.125,-5.797,-0.318,-0.966,13.768,9.587,9.02
-18.351,-16.799,-15.564,-14.286,-17.538,-16.044,7.075,-1.665
-31.175,-25.772,-27.623,-30.422,-32.372,-40.36,-7.285,-18.228
-36.017,-28.648,-33.3,-34.816,-36.048,-41.991,-16.567,-23.219
-30.42,-22.504,-28.242,-27.818,-27.773,-31.443,-9.738,-14.124
-20.835,-13.695,-18.307,-17.275,-16.767,-18.399,3.783,-0.462
-13.519,-8.752,-11.469,-8.508,-10.34,-4.647,12.804,9.894
-10.182,-7.515,-9.892,-6.933,-7.86,-0.177,14.166,9.343
-10.806,-8.521,-13.353,-15.445,-9.217,-12.308,5.541,-4.775
-13.621,-11.805,-19.98,-26.714,-15.239,-27.607,-9.88,-21.37
-14.453,-13.85,-23.03,-30.183,-18.558,-29.432,-20.415,-26.885
-11.771,-11.421,-18.991,-25.524,-13.147,-20.047,-20.77,-20.444
-9.407,-8.449,-13.941,-19.734,-8.041,-10.448,-14.287,-9.355
-9.205,-8.614,-12.12,-15.984,-10.651,-5.675,-3.776,1.281
-7.074,-8.912,-10.426,-14.549,-12.702,-7.544,5.344,7.326
-2.817,-7.207,-9.591,-17.079,-9.939,-15.258,5.684,3.592
-3.686,-6.189,-14.451,-22.022,-11.11,-21.866,-2.823,-6.639
-12.081,-7.88,-22.906,-24.897,-19.258,-22.92,-12.248,-13.135
-20.707,-11.018,-27.718,-25.857,-25.713,-23.709,-15.185,-16.809
-22.442,-12.673,-25.614,-27.069,-24.006,-27.673,-12.101,-23.619
-17.004,-10.423,-18.812,-25.277,-17.391,-26.819,-9.414,-25.379
-8.692,-5.993,-11.283,-17.077,-10.853,-15.005,-10.223,-12.722
-2.495,-4.695,-6.226,-7.844,-5.606,-2.022,-9.303,4.712
-1.455,-7.417,-5.872,-6.775,-4.087,-2.504,-2.432,7.469
-5.381,-9.315,-9.414,-14.833,-7.111,-15.527,3.664,-9.716
-10.307,-7.986,-12.392,-22.443,-9.957,-23.887,1.263,-29.116
-10.583,-4.872,-12.111,-20.3,-11.052,-16.256,-5.76,-30.5
-5.498,-1.182,-9.031,-10.107,-10.82,-1.28,-8.436,-15.172
-0.156,1.712,-3.3,-1.657,-4.485,6.082,-5.423,-1.092
1.157,1.672,2.793,-1.402,6.264,0.824,-3.005,0.25
-2.515,-1.855,4.034,-6.055,8.408,-9.428,-3.445,-5.529
-8.471,-6.361,0.117,-8.736,-1.054,-14.093,-2.332,-10.18
-11.474,-8.998,-2.924,-8.826,-8.334,-14.254,0.615,-13.855
-9.388,-9.306,-1.908,-8.501,-5.634,-15.695,0.919,-14.269
-4.756,-6.652,0.651,-4.845,-0.238,-12.333,0.291,-6.998
-1.928,-0.745,2.482,3.709,0.944,1.169,5.307,3.173
-4.594,3.159,2.556,8.973,-1.692,11.536,13.04,7.629
-11.14,0.02,-0.704,3.753,-6.184,5.535,11.82,2.976
-14.142,-4.817,-5.391,-4.4,-10.015,-7.178,1.549,-6.093
-10.383,-4.019,-6.349,-5.059,-9.965,-11.31,-5.272,-9.465
-6.194,-1.061,-3.652,-1.887,-6.754,-8.881,-5.297,-6.035
-6.094,-0.502,-1.24,-1.675,-3.554,-6.915,-4.56,-5.568
-4.701,3.221,2.653,-0.51,1.61,-2.894,-2.167,-7.982
0.807,12.435,9.497,4.621,9.277,4.361,4.659,-3.358
2.341,16.428,10.971,6.54,9.121,7.764,9.099,5.339
-5.031,7.43,1.34,-1.109,-4.461,-0.124,4.754,4.771
-13.841,-6.412,-10.619,-14.48,-18.956,-18.132,-2.466,-5.905
-15.275,-11.541,-13.416,-22.328,-20.618,-31.211,-4.194,-13.487
-9.888,-5.443,-6.926,-17.484,-11.27,-24.926,-1.684,-9.505
-3.284,3.53,1.508,-6.465,-0.744,-7.143,0.835,0.318
3.704,10.167,7.988,-0.281,6.656,3.282,3.656,4.992
12.423,16.232,13.437,1.061,12.477,2.924,7.528,2.427
16.894,20.154,16.9,2.912,16.209,0.818,10.154,-0.87
11.359,17.547,15.629,4.376,15.059,1.029,9.28,-1.844
3.785,12.199,12.609,4.297,11.872,2.157,7.224,-0.318
4.445,10.444,13.304,4.798,12.696,2.459,7.277,4.628
9.146,10.273,15.991,4.131,15.955,-0.574,7.441,6.973
9.656,8.377,15.912,-0.278,15.375,-7.177,5.296,-0.449
8.642,7.547,14.713,-3.333,11.862,-10.277,4.231,-9.876
11.836,10.535,17.236,2.286,12.288,-0.808,7.29,-8.573
17.055,15.217,22.835,13.398,18.205,16.294,10.906,-0.097
20.23,19.044,27.7,19.64,24.863,22.324,12.896,5.168
21.629,21.792,31.163,19.395,28.644,13.128,16.909,8.606
20.687,22.222,32.368,19.258,27.851,6.614,21.636,14.2
17.102,20.257,29.7,20.194,23.306,10.317,20.788,17.265
16.156,20.508,26.58,18.624,20.615,13.188,15.918,13.199
20.192,24.571,27.332,16.304,23.576,12.53,13.759,5.771
22.997,27.197,30.46,17.303,30.172,15.625,14.085,2.829
19.012,23.963,30.792,19.264,34.786,19.222,12.048,6.46
8.647,15.044,24.161,15.558,28.679,12.298,7.869,8.632
-1.705,6.043,13.979,6.329,12.186,-3.824,5.968,2.513
-3.741,4.75,10.516,0.98,1.745,-12.934,8.056,-4.637
1.297,9.516,15.83,4.201,6.091,-6.266,10.936,-4.206
3.438,10.086,20.156,7.448,13.482,3.323,9.966,-1.732
-1.157,3.86,18.531,3.303,14.7,1.452,5.291,-3.159
-6.488,-1.31,16.878,-2.653,16.149,-7.006,2.133,-4.362
-7.632,-2.017,17.939,-3.688,21.902,-10.902,2.072,-4.164
-6.506,-3.21,16.173,-2.664,22.316,-10.264,1.548,-7.472
-4.849,-5.565,11.273,-3.479,12.852,-9.314,0.779,-13.574
-0.834,-3.913,10.905,-3.475,7.26,-6.353,1.981,-16.102
3.52,0.699,15.881,0.041,14.066,-0.934,2.719,-12.054
2.261,1.499,17.796,3.846,18.965,0.783,2.689,-3.915
-3.125,-1.307,14.532,4.335,12.354,-2.784,5.625,3.64
-4.06,-0.623,13.439,3.513,7.495,-3.862,9.664,5.826
-0.063,3.683,16.066,4.21,11.235,-0.178,9.142,0.589
-0.3,3.109,15.084,4.329,10.673,-1.938,4.468,-5.897
-5.991,-3.405,9.089,2.452,1.718,-11.159,1.296,-4.681
-6.574,-4.883,6.078,2.899,-1.696,-12.947,2.066,2.083
0.973,2.627,9.43,6.981,6.592,-4.351,2.229,3.697
4.554,6.123,11.012,6.839,13.026,-3.335,-3.076,-4.534
-5.324,-4.855,2.798,-3.101,4.046,-16.508,-10.172,-15.882
-21.382,-20.339,-9.427,-15.016,-12.309,-27.565,-12.28,-20.746
-30.744,-25.825,-14.219,-18.737,-19.331,-25.952,-10.089,-18.971
-31.949,-24.139,-12.339,-16.61,-19.013,-21.804,-7.773,-16.732
-28.527,-22.812,-9.253,-13.426,-19.757,-22.382,-5.452,-13.028
-18.89,-18.175,-2.378,-6.279,-15.769,-19.186,-1.99,-4.178
-3.93,-7.276,9.13,3.372,-2.078,-9.176,0.5,1.882
9.797,4.851,19.353,8.819,13.584,-1.223,-0.367,-3.735
16.342,13.26,24.048,12.414,20.398,3.339,-1.858,-11.536
15.266,17.758,24.742,21.592,17.402,12.089,1.417,-5.516
12.521,20.586,25.455,32.869,15.425,23.371,8.209,9.843
11.962,19.547,24.721,33.313,17.231,23.718,9.704,12.772
11.209,11.464,18.616,21.018,12.918,8.288,3.502,-0.484
10.073,3.401,12.754,11.139,5.205,-7.296,-1.682,-8.633
11.886,4.712,15.674,13.76,8.087,-6.212,0.22,-2.577
15.765,11.984,24.511,22.374,20.658,9.487,8.134,6.972
16.536,14.819,28.401,26.064,27.34,23.479,14.747,11.684
12.221,10.068,21.428,18.335,19.559,20.045,7.821,5.374
6.999,4.463,11.076,3.646,8.045,2.281,-8.047,-8.72
5.991,6.105,9.77,-3.886,8.049,-8.239,-12.247,-14.088
9.813,14.332,16.278,-0.304,16.209,-2.374,-4.869,-10.139
14.871,20.654,20.199,5.274,20.509,7.691,-1.404,-8.387
16.326,19.634,19.532,7.723,20.45,10.951,-0.748,-5.578
12.74,14.473,17.218,7.002,17.75,6.122,2.734,-0.181
8.942,11.059,12.538,2.943,9.071,-1.975,2.286,-2.886
10.106,11.043,6.957,-0.61,-1.279,-5.363,-3.865,-10.96
14.363,13.196,6.106,2.406,-2.578,-0.084,-6.398,-9.149
16.445,16.995,11.44,11.318,6.961,10.234,-2.047,2.14
16.425,22.162,17.937,18.179,17.865,17.935,4.315,7.723
17.804,25.933,20.307,17.329,20.515,16.579,9.626,3.462
20.93,25.706,19.878,13.739,17.819,9.589,14.048,3.027
24.198,24.322,22.213,15.447,20.376,8.256,18.081,12.468
25.201,24.259,24.399,18.116,23.905,11.561,16.811,15.592
21.772,22.394,18.334,13.199,15.377,8.286,4.655,4.19
16.099,17.714,8.254,4.844,1.891,0.33,-9.214,-7.116
12.839,14.671,5.145,1.084,-0.087,-2.26,-11.915,-10.846
14.282,16.37,9.742,2.667,7.523,1.995,-7.17,-11.451
18.36,20.287,15.318,6.48,13.034,6.926,-3.18,-7.678
20.403,22.163,17.92,7.907,13.862,6.088,0.982,-0.623
19.55,21.553,18.357,5.158,14.799,1.282,4.559,0.924
17.789,19.581,18.304,1.874,17.308,-0.395,1.588,-5.537
13.908,16.472,17.205,0.852,16.62,0.626,-5.537,-10.9
9.233,15.165,15.665,2.425,12.007,1.03,-5.646,-6.525
9.412,17.434,15.868,5.836,10.416,2.914,3.11,3.431
14.02,19.017,15.91,7.016,13.24,4.889,8.122,8.037
18.163,18.832,13.27,4.224,14.571,3.307,2.106,5.119
20.447,22.092,10.446,3.28,12.654,3.418,-4.684,1.515
21.362,28.934,10.382,8.444,11.166,11.435,-0.86,1.747
21.653,32.285,12.427,15.425,13.512,22.539,10.054,5.255
20.757,27.263,12.17,16.771,15.817,24.649,16.499,9.31
15.479,17.312,5.463,10.99,9.17,13.819,12.593,10.182
6.459,11.101,-2.702,6.279,-3.364,3.699,4.284,8.315
0.291,11.813,-2.789,9.98,-7.389,6.385,2.503,9.552
0.228,14.08,3.411,17.049,-0.509,13.807,7.433,14.251
1.767,14.057,5.408,18.873,4.41,15.397,9.053,14.741
0.899,13.119,1.342,15.87,1.201,13.327,4.596,8.67
0.128,11.531,-1.159,12.513,-2.392,11.111,0.994,2.449
2.118,7.647,0.957,9.733,-0.566,7.893,1.606,0.424
4.94,3.615,4.171,8.429,3.761,5.516,3.324,1.57
6.299,4.727,6.989,11.2,7.435,8.513,3.887,3.841
5.318,10.855,10.181,16.596,10.817,15.94,3.034,4.652
2.811,16.119,13.066,19.688,15.36,20.417,0.685,2.648
1.809,17.003,13.79,18.756,18.857,18.144,-0.774,1.049
2.308,14.153,10.472,15.25,15.106,13.391,0.47,2.15
0.686,10.154,3.851,10.908,4.784,11.165,1.656,2.943
-1.942,7.812,-1.898,8.428,-2.952,12.536,1.707,1.922
-0.209,7.474,-3.711,9.732,-3.962,16.411,2.778,1.485
5.132,7.22,-2.205,12.406,-1.406,19.346,4.111,2.587
6.743,6.012,0.262,12.136,1.637,16.971,3.636,3.785
1.984,4.499,1.59,8.768,2.871,10.35,1.563,3.154
-3.379,3.11,1.269,5.883,1.602,4.845,-0.544,0.097
-4.615,1.939,-0.085,4.595,-0.005,1.457,-1.159,-2.694
-2.979,1.722,-2.162,3.551,-0.98,-1.381,-0.909,-2.423
0.361,2.976,-3.513,3.918,-1.524,-1.081,-1.683,-0.307
6.792,5.844,-1.077,7.703,1.063,4.63,-2.495,1.303
14.61,10.173,4.861,13.011,7.969,12.05,-1.434,1.745
18.05,14.479,9.189,16.103,13.31,15.556,0.352,1.264
15.649,17.573,9.737,16.843,12.899,15.171,1.219,0.825
13.496,19.812,10.7,18.315,12.325,16.479,1.439,1.224
15.518,20.803,15.036,21.448,17.147,21.025,2.187,2.694
17.333,19.192,19.082,22.78,22.431,22.377,4.135,4.85
14.978,14.828,17.464,19.095,19.352,16.556,6.024,6.231
13.685,11.504,12.495,14.183,11.295,10.845,6.067,6.33
20.062,15.191,12.42,14.94,11.518,13.216,4.605,6.288
28.647,22.82,16.539,19.059,18.916,18.369,3.327,6.128
28.277,23.037,15.021,18.125,18.242,17.191,3.561,5.201
20.764,15.819,7.255,12.835,8.685,12.155,5.517,5.032
18.209,13.656,2.975,11.436,4.117,11.399,7.259,6.808
22.154,19.501,4.254,15.27,6.38,15.412,7.216,8.778
22.528,22.995,4.736,17.768,6.558,17.938,7.174,9.81
17.77,19.643,4.214,15.951,5.832,16.627,8.289,10.287
16.895,16.344,6.741,13.7,10.06,15.642,8.435,9.492
21.468,17.434,10.051,13.971,14.965,17.159,6.889,7.605
24.346,20.097,10.867,15.996,15.448,19.523,6.641,7.894
23.829,22.705,12.072,19.358,15.918,23.083,9.706,12.362
24.242,25.553,14.85,22.282,19.434,26.516,13.255,17.361
26.756,27.049,15.081,20.891,21.324,24.689,13.68,18.356
28.597,26.42,11.575,15.716,18.114,17.792,11.494,15.832
28.371,25.456,7.539,11.456,11.633,12.082,9.49,12.267
29.016,27.098,6.713,11.805,7.827,12.277,10.098,10.163
34.632,34.188,11.524,17.897,12.702,18.472,12.711,12.193
43.084,44.289,19.544,27.099,23.085,27.643,14.042,17.773
46.419,48.634,24.06,34.008,27.646,36.465,14.221,23.648
43.144,45.111,22.242,34.91,22.738,40.882,14.567,26.258
41.362,43.125,19.192,32.352,17.612,39.738,14.376,25.728
43.209,45.834,19.321,31.132,17.435,36.794,15.807,26.032
39.978,44.004,19.553,27.742,16.855,30.267,18.107,22.317
28.465,33.7,16.686,17.557,13.862,17.219,14.372,7.371
16.901,22.245,12.786,8.748,11.574,6.99,5.736,-6.606
13.38,16.868,10.826,10.133,11.539,7.997,1.453,-4.945
18.159,18.854,12.249,16.631,15.41,14.554,4.413,4.302
24.697,23.801,15.962,19.626,21.238,17.869,11.305,8.774
25.683,24.386,17.424,18.362,20.397,16.801,17.283,10.037
20.72,19.019,14.847,17.075,11.394,16.312,16.396,12.462
16.756,14.257,12.954,19.326,4.82,19.236,9.837,16.709
19.18,14.398,14.737,24.232,6.117,22.156,6.109,20.727
24.875,16.345,17.08,26.058,10.334,20.687,6.716,17.323
26.512,16.448,17.817,21.605,14.456,14.977,5.919,4.902
21.539,14.082,17.744,15.169,18.206,8.994,2.089,-4.895
14.557,9.87,16.32,11.246,18.15,5.191,-0.595,-5.788
11.999,6.881,14.551,10.743,14.01,4.679,2.035,-2.964
14.449,7.999,16.647,14.463,12.846,9.547,7.438,2.874
16.434,10.66,22.646,20.603,18.338,16.751,9.766,12.738
15.485,12.144,27.603,24.695,24.471,20.067,10.142,19.115
14.468,14.279,28.771,25.349,24.929,19.877,11.756,14.938
14.534,16.796,26.88,24.514,20.618,19.908,11.889,6.13
14.627,16.476,23.479,24.358,16.121,20.748,9.837,5.843
15.633,14.699,20.048,24.774,14.8,21.619,9.48,14.584
16.766,14.298,16.462,22.009,15.753,20.228,10.355,18.632
13.299,12.429,11.168,13.291,14.089,13.171,9.375,12.789
5.194,7.033,5.429,3.421,8.796,4.096,7.634,6.955
0.94,3.439,4.383,0.74,7.539,3.503,6.662,7.774
5.888,6.402,10.282,6.772,15.92,14.968,5.586,11.103
12.922,11.312,16.675,13.805,24.988,27.386,5.052,11.518
12.978,10.529,15.887,12.761,22.455,25.481,6.216,8.543
8.579,5.611,10.336,4.662,12.256,11.115,6.944,5.461
6.938,4.236,6.793,-0.313,5.941,1.801,4.462,4.641
9.168,7.94,6.059,1.956,5.396,3.154,0.987,6.006
13.914,12.897,7.1,6.115,8.022,6.046,2.223,9.546
20.593,18.2,10.656,9.205,13.594,8.515,7.68,13.852
26.318,24.313,14.484,12.941,18.9,14.967,10.006,15.627
27.243,28.069,14.305,15.337,18.722,20.064,7.543,14.021
24.901,27.577,10.772,12.678,15.048,16.102,6.555,11.716
25.298,26.78,8.797,8.806,14.249,9.965,9.627,12.356
27.753,27.348,9.029,8.678,15.022,10.926,11.762,15.451
24.669,24.844,7.136,7.928,11.063,12.841,8.03,13.568
16.016,19.254,3.234,4,3.59,9.604,1.527,4.603
11.151,18.168,4.068,5.147,1.116,9.758,1.278,-0.104
15.056,24.614,12.33,14.817,8.168,17.951,8.732,5.445
22.947,31.4,20.502,23.543,19.206,24.511,13.536,11.456
27.992,32.213,20.475,24.76,24.331,24.665,9.785,11.403
28.441,30.572,13.674,22.984,19.05,25.515,4.413,9.857
27.429,32.038,7.317,22.904,8.221,29.019,3.403,8.815
28.62,34.301,6.501,22.915,2.616,27.775,4.616,6.907
31.648,32.471,11.128,21.053,7.926,21.177,5.997,6.247
31.565,28.386,16.617,18.927,17.507,17.949,7.84,8.007
25.656,26.039,18.292,17.422,21.783,18.91,9.386,11.2
18.331,23.759,14.388,13.699,18.148,15.273,8.966,13.569
14.308,18.962,6.329,6.389,9.758,6.203,6.093,10.2
11.934,13.523,-0.847,0.241,2.595,0.946,3.3,3.034
7.613,8.778,-3.512,-0.657,-0.407,1.843,2.42,1.524
1.274,2.652,-5.058,-0.9,-3.542,0.28,0.959,5.152
-5.555,-5.472,-10.335,-6.534,-10.185,-7.028,-3.228,3.457
-11.593,-12.093,-17.211,-13.749,-15.801,-11.681,-8.425,-5.418
-13.843,-13.158,-18.522,-13.979,-14.31,-8.24,-10.674,-11.309
-10.58,-9.485,-12.32,-7.215,-7.128,-2.304,-7.937,-7.921
-5.98,-6.014,-5.251,-1.122,-1.552,0.685,-3.545,-1.948
-5.836,-5.585,-2.688,0.45,-0.515,2.682,-2.17,-1.222
-11.786,-8.786,-4.058,-2.109,-1.325,3.367,-3.955,-3.839
-21.04,-16.509,-8.757,-8.904,-4.18,-2.069,-5.681,-5.161
-28.177,-25.968,-15.407,-15.856,-9.854,-9.192,-5.139,-5.061
-28.927,-29.774,-18.406,-16.157,-12.004,-8.226,-2.332,-4.017
-24.295,-25.224,-14.537,-11.019,-5.598,-2.561,0.704,-0.877
-19.918,-20.15,-9.301,-8.105,1.171,-1.777,0.184,2.103
-19.286,-22.287,-9.903,-10.83,-2.251,-5.433,-4.627,-0.237
-19.339,-27.134,-14.248,-15.45,-10.138,-9.043,-8.792,-6.675
-17.013,-27.194,-15.33,-16.385,-10.375,-10.925,-8.978,-8.694
-17.231,-27.149,-14.815,-14.672,-8.15,-11.878,-7.184,-3.459
-27.343,-35.79,-20.334,-18.53,-16.81,-17.377,-6.51,-0.952
-43.716,-49.277,-30.504,-29.466,-31.686,-28.942,-9.446,-8.789
-54.531,-57.609,-36.344,-37.866,-37.931,-37.575,-15.042,-18.071
-56.977,-61.291,-36.289,-38.84,-35.518,-37.55,-17.853,-19.78
-56.586,-65.054,-35.836,-36.623,-34.624,-32.96,-16.196,-19.331
-53.328,-63.533,-35.081,-32.248,-35.774,-26.292,-14.328,-20.601
-44.64,-51.531,-29.838,-23.088,-32.389,-16.415,-12.9,-17.298
-33.933,-37.964,-21.114,-12.032,-24.986,-7.55,-8.089,-7.246
-25.799,-32.925,-13.371,-5.535,-18.08,-5.93,-1.377,2.448
-21.902,-33.592,-8.07,-5.114,-10.188,-9.649,0.928,5.627
-23.42,-34.121,-6.029,-7.027,-1.628,-11.431,-2.873,2.635
-30.036,-35.905,-10.809,-8.585,-3.357,-8.401,-8.556,-3.187
-37.566,-41.683,-21.546,-12.105,-18.671,-7.109,-11.742,-8.547
-41.555,-48.765,-29.681,-20.424,-31.097,-15.22,-12.207,-11.459
-42.518,-52.509,-30.99,-29.262,-30.848,-26.72,-12.422,-12.048
-43.18,-53.15,-30.022,-32.394,-28.452,-30.839,-12.432,-10.76
-43.27,-53.804,-29.194,-32.016,-29.822,-30.706,-10.828,-8.39
-41.152,-52.427,-25.93,-32.148,-27.663,-32.186,-8.648,-6.762
-37.573,-45.641,-20.955,-29.735,-21.366,-29.401,-6.914,-5.883
-35.715,-39.701,-19.294,-24.114,-19.472,-20.66,-5.627,-5.403
-36.069,-42.008,-21.463,-21.524,-22.711,-17.233,-6.26,-6.024
-33.939,-45.692,-20.593,-21.605,-21.635,-20.913,-6.475,-4.128
-28.4,-41.862,-13.298,-17.848,-12.133,-19.491,0.385,2.947
-27.752,-38.875,-9.284,-15.251,-6.35,-15.143,7.758,4.365
-36.995,-48.59,-19.402,-24.789,-17.734,-23.223,-2.471,-11.047
-47.487,-63.081,-35.629,-39.795,-35.887,-38.245,-25.708,-30.615
-49.953,-66.667,-40.505,-43.946,-38.972,-41.118,-35.959,-34.381
-49.003,-62.007,-35.234,-39.462,-29.585,-35.408,-30.414,-27.995
-52.815,-62.454,-35.416,-40.2,-28.129,-36.425,-29.047,-28.314
-58.206,-67.726,-42.161,-45.218,-35.796,-40.539,-34.16,-33.023
-57.375,-67.675,-43.361,-43.797,-37.379,-37.899,-32.568,-30.599
-52.826,-62.891,-39.257,-38.327,-33.412,-34.65,-25.664,-23.747
-53.738,-63.249,-40.14,-40.194,-35.417,-39.687,-25.582,-23.907
-59.178,-69.527,-44.161,-47.081,-40.017,-45.958,-30.771,-29.068
-58.564,-71.852,-41.506,-46.13,-36.987,-42.046,-28.007,-25.419
-48.992,-65.289,-32.434,-35.97,-27.914,-30.114,-15.562,-11.869
-39.718,-56.998,-25.11,-27.107,-20.232,-20.344,-6.724,-3.535
-38.946,-56.179,-23.779,-25.748,-17.272,-17.786,-9.187,-8.011
-43.756,-60.78,-25.325,-28,-17.847,-18.896,-14.457,-14.321
-45.598,-61.438,-24.545,-27.769,-17.821,-17.011,-12.713,-11.918
-43.905,-58.209,-22.861,-26.753,-16.54,-14.139,-7.821,-7.869
-47.29,-60.024,-26.542,-31.259,-19.819,-19.098,-9.052,-12.458
-57.235,-67.207,-33.959,-38.685,-27.939,-29.759,-15.894,-19.415
-63.521,-71.374,-36.448,-40.513,-31.644,-35.817,-19.99,-17.521
-61.717,-71.173,-32.708,-37.977,-27.66,-36.908,-17.505,-10.742
-58.322,-71.741,-28.891,-37.865,-22.845,-38.062,-12.185,-9.108
-55.956,-72.164,-27.07,-38.589,-20.737,-36.702,-8.269,-11.604
-50.01,-67.183,-25.389,-35.486,-19.43,-29.897,-7.75,-13.328
-41.179,-58.947,-25.16,-31.452,-20.13,-24.566,-11.294,-15.019
-37.959,-55.968,-28.226,-31.762,-24.631,-27.815,-15.603,-16.374
-43.898,-59.92,-32.251,-35.508,-29.466,-35.067,-16.313,-14.592
-51.463,-63.703,-34.221,-38.113,-30.277,-37.738,-13.865,-11.146
-51.545,-62.851,-33.694,-37.434,-26.691,-34.677,-10.344,-9.678
-43.675,-58.422,-31.578,-34.211,-21.165,-29.444,-7.377,-10.242
-34.045,-51.458,-28.283,-29.146,-15.8,-22.509,-8.544,-11.459
-27.642,-44.897,-24.551,-24.556,-12.34,-15.286,-14.414,-13.154
-26.227,-44.742,-23.885,-26.58,-14.036,-17.702,-19.011,-13.295
-29.004,-50.555,-27.48,-35.889,-20.434,-32.362,-18.115,-10.749
-32.295,-54.185,-29.573,-43.123,-24.527,-43.318,-14.062,-10.552
-33.768,-53.449,-27.526,-44.011,-23.81,-43.186,-10.329,-16.328
-34.987,-54.321,-27.499,-44.448,-24.539,-43.125,-9.564,-22.235
-36.309,-57.937,-32.394,-46.325,-29.153,-46.183,-14.016,-21.875
-36.322,-59.199,-37.096,-46.348,-32.287,-45.6,-21.188,-19.674
-35.731,-56.627,-38.479,-45.089,-31.916,-42.45,-24.257,-21.545
-34.979,-52.666,-38.036,-43.72,-31.651,-40.22,-20.4,-22.656
-33.482,-48.702,-36.378,-40.673,-31.955,-36.145,-14.411,-18.717
-33.198,-45.935,-33.645,-36.635,-30.158,-28.849,-12.161,-15.422
-35.51,-45.685,-31.211,-34.393,-26.239,-24.1,-13.76,-16.331
-36.709,-46.503,-28.715,-33.443,-21.71,-26.1,-14.594,-15.73
-32.972,-44.875,-24.423,-29.761,-17.924,-28.442,-10.757,-9.283
-27.347,-40.723,-19.926,-23.202,-16.014,-25.069,-4.636,-2.579
-27.21,-40.494,-20.851,-21.589,-16.834,-22.641,-4.325,-3.743
-34.135,-47.843,-29.479,-29.078,-22.283,-26.918,-10.596,-10.761
-40.554,-54.471,-38.367,-36.33,-30.731,-30.341,-12.366,-13.742
-40.841,-52.848,-39.853,-35.446,-35.101,-26.917,-7.617,-11.522
-38.379,-48.701,-37.963,-33.902,-34.088,-24.256,-10.207,-14.327
-36.15,-48.338,-39.266,-38.738,-33.934,-29.053,-22.42,-24.077
-31.675,-47.388,-40.665,-42.377,-35.242,-34.027,-29.214,-29.134
-26.003,-42.223,-38.692,-39.391,-34.741,-32.936,-27.035,-25.505
-24.508,-39.105,-37.807,-37.584,-34.34,-32.906,-25.576,-21.356
-25.713,-41.347,-38.217,-38.682,-32.838,-36.14,-24.718,-17.532
-23.62,-41.49,-33.795,-33.4,-26.691,-32.316,-20.209,-10.534
-20.843,-36.96,-27.73,-23.963,-22.461,-21.635,-18.463,-9.966
-23.633,-35.499,-27.652,-22.648,-24.755,-18.389,-21.275,-20.727
-28.365,-38.995,-29.352,-29.304,-24.831,-27.012,-17.062,-27.158
-28.089,-41.304,-27.326,-35.196,-19.943,-38.195,-8.274,-23.256
-25.013,-41.162,-27.882,-38.436,-21.746,-44.969,-15.312,-23.286
-24.704,-41.537,-34.518,-40.291,-33.356,-45.857,-35.018,-30.239
-26.701,-41.674,-38.872,-39.468,-40.902,-41.192,-41.782,-32.21
-28.14,-39.445,-36.148,-36.339,-36.289,-35.256,-33.867,-27.578
-27.133,-34.58,-30.435,-31.726,-26.682,-31.148,-27.051,-23.649
-21.062,-26.507,-23.972,-23.063,-18.629,-24.794,-20.264,-19.741
-10.751,-16.674,-17.148,-11.701,-12.609,-14.863,-9.24,-13.658
-2.52,-11.089,-13.179,-6.009,-9.901,-8.408,-4.984,-11.247
1.019,-12.109,-13.028,-8.11,-11.514,-8.17,-12.783,-14.909
5.367,-12.585,-11.695,-8.472,-12.575,-7.81,-17.661,-16.016
12.738,-7.555,-5.381,-2.093,-7.006,-4.977,-7.7,-7.481
14.247,-4.642,-0.805,0.936,-1.975,-6.88,3.554,2.293
2.853,-12.245,-8.269,-8.74,-11.225,-17.963,-2.915,-1.688
-13.208,-24.628,-23.602,-22.921,-29.148,-30.442,-20.094,-17.277
-19.746,-28.932,-30.551,-26.939,-35.703,-33.498,-26.129,-26.263
-13.722,-22.424,-23.178,-20.331,-25.677,-27.099,-16.695,-22.142
-3.908,-13.994,-12.368,-14.356,-12.401,-20.171,-5.828,-16.299
2.311,-9.959,-8.705,-13.865,-6.739,-17.649,-4.196,-15.243
5.408,-8.391,-10.955,-14.333,-6.477,-15.865,-10.512,-14.647
6.717,-6.963,-12.691,-12.321,-5.628,-10.433,-15.012,-11.823
4.477,-6.043,-11.914,-9.028,-4.831,-4.279,-10.726,-8.32
-1.836,-7.5,-13.537,-9.335,-8.868,-6.046,-7.199,-9.301
-9.737,-13.392,-22.119,-16.128,-18.443,-16.695,-15.853,-17.377
-16.021,-21.022,-33.054,-23.399,-29.074,-24.896,-27.07,-23.7
-20.081,-25.983,-38.179,-25.776,-35.61,-25.712,-27.294,-22.065
-22.535,-28.665,-36.628,-27.041,-36.129,-27.46,-21.888,-20.374
-20.638,-29.491,-31.952,-28.815,-32.023,-32.453,-19.989,-22.267
-12.399,-25.987,-24.448,-25.316,-23.912,-31.011,-17.5,-19.285
-2.619,-18.439,-14.818,-15.859,-13.912,-19.548,-10.054,-10.125
2.034,-12.31,-8.977,-9.983,-9.644,-9.719,-4.102,-4.902
2.181,-11.913,-9.069,-13.289,-12.391,-11.167,-3.738,-6.23
5.712,-12.279,-7.011,-16.977,-9.857,-15.568,-3.104,-5.665
14.99,-6.151,2.087,-11.859,3.591,-12.023,0.917,0.084
20.271,1.927,9.349,-4.309,12.91,-5.91,3.351,3.216
14.451,3.12,5.543,-4.804,4.802,-5.688,0.619,-3.042
5.524,0.97,-2.469,-7.877,-8.771,-4.276,-3.453,-9.682
4.467,4.097,-1.066,-1.155,-8.336,6.286,-1.708,-2.135
9.239,9.443,8.177,9.438,2.928,13.098,5.748,11.124
10.838,9.129,12.92,8.384,9.069,3.563,11.364,9.601
7.756,4.947,11.132,-1.385,8.26,-8.946,13.467,-2.927
5.353,2.613,8.565,-6.455,7.023,-10.489,13.912,-8.288
6.634,2.482,5.528,-5.32,4.077,-7.661,8.002,-4.993
9.654,3.328,1.407,-3.002,-1.308,-6.199,-3.73,-3.122
11.127,5.78,-0.966,-0.344,-4.211,-2.853,-11.099,-5.035
8.929,9.391,-2.23,2.344,-5.821,0.947,-12.012,-5.808
3.264,11.479,-4.461,3.381,-9.45,1.144,-11.02,-2.871
-1.543,10.503,-4.54,3.357,-9.747,0.398,-6.302,0.752
-0.519,8.415,-0.093,4.044,-2.72,3.337,1.574,0.62
4.802,6.992,4.06,4.155,4.357,6.231,3.276,-2.604
8.354,4.97,2.424,1.525,3.091,2.641,-4.791,-4.009
8.617,2.648,-2.28,-1.118,-3.11,-1.975,-12.712,-1.451
8.837,3.268,-3.476,-0.319,-5.103,1.126,-11.061,1.54
10.152,7.684,-0.481,1.132,-2.055,6.761,-3.587,-0.017
12.766,14.761,4.567,1.689,2.975,8.116,0.651,-3.971
18.503,23.132,11.296,4.65,10.632,8.691,-1.005,-4.103
24.498,27.578,15.495,6.924,16.293,8.269,-5.1,-3.357
25.016,24.68,13.554,3.933,13.31,4.083,-5.875,-6.161
21.794,21.049,11.381,2.06,7.321,3.259,-0.421,-5.267
20.266,22.564,13.216,5.976,5.948,9.041,6.007,3.321
20.518,24.293,13.415,8.101,6.162,11.094,6.011,9.092
19.791,21.786,9.423,4.329,4.676,6.203,1.101,5.214
17.69,19.664,7.691,2.853,4.694,6.13,0.044,0.474
16.068,21.993,12.223,9.005,8.43,14.374,7.175,5.014
16.184,25.536,18.067,15.998,12.965,19.262,15.824,15.369
17.24,26.486,18.916,16.531,14.667,15.876,15.877,18.13
18.131,25.387,15.698,13.123,14.258,13.469,8.637,8.062
19.723,25.45,13.714,12.769,14.505,18.589,3.627,-2.973
22.905,28.821,14.381,17.146,14.338,25.428,1.868,-2.15
25.289,31.703,15.988,22.17,12.38,26.725,-0.042,7.656
24.257,29.103,18.331,24.798,11.629,25.201,1.164,14.329
21.42,24.333,20.509,24.723,12.633,24.957,6.967,12.985
20.13,22.312,20.089,20.683,11.61,20.174,11.018,7.375
20.168,20.107,16.294,12.444,7.638,7.687,8.325,0.854
19.411,15.871,10.807,5.405,3.088,-0.939,1.01,-2.95
20.383,17.491,8.688,6.083,1.807,3.856,-4.412,-1.518
26.434,29.919,14.27,13.472,7.085,14.684,-2.843,1.422
33.257,43.209,22.602,20.355,14.891,20.61,2.6,3.445
35.257,46.438,25.23,22.661,17.477,21.784,4.124,6.08
34.609,43.454,23.127,22.661,15.779,23.533,1.621,7.639
35.098,42.972,22.321,23.392,15.988,26.903,1.054,6.724
35.39,44.705,22.816,24.818,17.926,30.544,2.47,6.324
34.585,45.523,22.544,26.759,19.205,34.762,3.757,9.041
35.318,47.285,24.463,31.362,22.651,39.453,9.072,15.929
37.752,50.573,30.488,39.538,29.745,45.047,18.536,24.845
38.472,50.716,35.903,45.857,36.247,50.404,23.599,27.009
35.894,44.603,36.141,41.588,39.08,44.99,21.942,17.312
31.789,36.631,31.484,27.699,36.588,25.267,16.786,5.956
28.873,34.162,24.576,17.22,26.422,11.06,7.43,4.917
29.167,37.598,20.904,17.694,16.094,16.739,1.438,10.699
33.112,41.616,26.598,24.319,20.366,30.001,15.567,18.075
38.734,44.659,39.111,32.549,37.589,38.239,44.318,30.593
41.607,47.191,44.207,38.109,45.218,42.592,50.136,36.592
38.09,45.864,31.978,32.616,29.449,40.245,15.444,16.047
29.089,38.909,13.251,17.124,6.873,25.031,-22.621,-15.649
19.226,31.829,3.957,5.361,-2.078,6.408,-29.03,-25.473
14.006,31.122,4.362,6.217,-1.053,2.332,-15.995,-12.592
15.569,34.631,9.112,14.402,2.464,11.845,-4.415,2.691
20.387,35.813,17.771,20.411,12.641,19.336,5.338,11.523
24.695,35.392,26.649,22.37,25.902,21.553,14.095,17.02
28.54,38.129,27.881,22.979,27.934,24.478,12.813,20.413
32.405,42.883,21.99,22.64,18.305,26.947,0.346,17.761
34.447,45.049,18.649,21.559,12.97,26.361,-6.714,10.547
33.991,45.039,21.992,21.874,18.568,26.003,3.61,8.158
35.17,48.485,26.773,24.761,25.709,28.899,18.86,12.776
40.277,56.276,27.349,27.416,25.585,31.866,18.164,13.361
43.614,60.246,23.571,25.79,20.297,28.558,1.442,5.022
40.797,55.358,20.572,22.196,17.901,21.322,-8.163,1.654
36.687,48.991,22.096,23.115,19.752,21.214,4.961,12.582
37.651,49.339,26.758,28.321,21.774,28.559,27.831,26.919
42.081,50.977,30.319,30.28,22.508,30.884,37.699,33.3
42.336,45.189,26.848,23.891,18.238,23.263,27.76,28.965
35.145,37.668,16.165,13.631,7.486,13.647,10.366,14.671
27.001,38.297,8.018,8.711,-0.055,9.749,1.535,-0.053
25.14,42.74,8.216,10.403,2.116,10.333,2.405,-3.789
26.624,40.425,10.961,11.867,6.665,10.866,2.709,-0.095
25.8,33.583,12.06,11.77,7.64,12.619,1.204,2.485
26.314,34.92,15.397,16.101,9.603,18.56,6.882,8.142
31.688,45.646,21.015,24.559,14.523,25.517,18.403,18.829
34.586,50.298,22.341,27.996,17.262,26.295,21.498,21.844
28.803,40.759,17.598,22.255,15.233,17.487,10.463,11.351
19.382,28.784,11.5,14.466,8.696,6.726,-3.177,0.448
14.376,26.579,9.391,13.432,1.514,6.548,-4.284,3.188
15.447,30.038,12.674,18.021,1.641,15.568,7.451,14.729
17.333,28.763,15.179,18.545,6.941,18.736,16.073,17.042
16.373,24.101,11.752,12.952,6.757,13.142,12.895,7.615
16.103,24.937,7.617,10.574,1.823,11.087,8.88,3.745
18.908,29.651,7.209,13.266,-0.209,12.459,11.889,10.231
21.254,30.367,6.171,13.384,-0.794,7.847,12.467,12.676
20.085,28.264,2.882,11.376,-4.172,3.088,4.84,7.207
16.634,28.733,2.554,13.442,-7.218,6.793,-2.367,4.466
15.18,31.214,7.259,18.594,-5.166,12.651,-2.631,7.701
17.721,31.131,12.268,21.2,-0.143,13.372,1.02,10.618
20.339,26.606,13.332,19.443,2.92,11.966,3.517,8.9
18.351,21.415,11.365,15.936,3.569,12.336,3.517,3.802
11.957,19.203,8.055,12.506,2.512,11.813,2.301,-0.463
6.885,19.379,4.679,10.374,0.225,9.847,0.288,-0.015
9.351,21.896,4.428,12.162,-0.094,12.318,-1.395,4.989
17.371,26.132,7.414,15.372,3.284,17.86,-0.947,7.275
22.863,27.086,8.741,12.685,6.621,15.352,0.932,1.849
23.378,23.289,6.033,4.833,4.247,3.719,3.54,-3.263
22.788,20.539,2.878,0.903,-2.535,-3.506,6.708,-0.913
22.579,21.763,4.288,4.266,-3.188,1.046,8.203,4.794
20.887,22.954,10.393,8.843,6.288,9.271,8.2,10.865
17.706,21.001,15.057,8.356,14.408,10.263,10.139,15.268
14.524,17.757,12.915,2.929,10.817,3.078,11.938,11.495
9.738,14.894,5.379,-3.707,-0.291,-4.551,7.942,-0.368
2.432,12.358,-0.914,-7.941,-6.57,-6.428,0.47,-11.039
-1.21,12.848,-0.214,-5.656,-1.756,-0.976,-3.945,-12.568
4.486,19.022,6.181,4.891,7.613,12.366,-4.336,-4.858
15.022,27.433,12.224,17.87,13.046,28.49,-1.972,4.905
20.325,29.881,14.001,21.854,14.027,31.053,2.232,9.705
15.203,21.351,10.547,12.049,11.026,12.013,4.475,7.888
4.659,8.102,3.637,-0.597,2.452,-9.405,2.457,2.328
-1.698,1.468,-1.479,-2.641,-7.18,-12.632,0.55,-0.392
-1.329,3.116,-0.247,4.653,-7.992,-2.277,3.862,3.988
-0.818,5.261,5.262,11.072,1.455,7.541,10.283,10.2
-7.159,1.004,6.229,10.381,6.92,10.149,12.888,9.63
-18.39,-8.413,-2.045,3.897,-3.225,5.461,8.201,2.098
-23.394,-13.013,-11.126,-0.703,-17.642,1.031,-0.194,-3.783
-17.017,-7.199,-10.628,3.518,-18.428,6.771,-3.378,-0.106
-9.039,0.764,-2.473,14.366,-7.08,20.085,4.031,11.455
-8.064,2.28,4.939,23.499,3.191,28.59,14.122,19.307
-10.451,-0.617,7.351,24.583,6.057,26.133,14.622,14.221
-12.064,-3.162,5.294,17.308,3.673,14.987,6.381,3.402
-14.816,-5.076,1.677,7.47,0.918,1.387,-1.129,0.588
-18.693,-7.732,-1.874,0.438,-1.147,-7.249,-4.903,2.409
-18.401,-7.994,-5.146,-2.6,-4.807,-6.824,-5.397,-1.794
-12.66,-2.09,-5.781,-1.173,-7.141,1.617,-1.31,-6.419
-8.501,5.343,-3.127,2.782,-4.317,10.041,4.894,-2.77
-9.452,7.095,-1.583,3.829,-2.16,8.181,9.637,3.727
-10.264,2.968,-4.015,0.047,-7.148,-1.723,11.959,5.253
-7.234,-2.669,-6.939,-3.952,-12.939,-7.208,10.222,2.972
-3.278,-6.246,-5.604,-3.189,-10.293,-4.021,6.409,2.643
-2.014,-6.291,-0.181,1.957,-1.401,2.862,6.219,5.437
-2.546,-3.362,5.33,6.602,6.186,8.49,8.074,6.362
-1.513,-0.503,7.587,7.063,8.648,9.325,7.414,4.87
0.86,-0.473,6.725,5.921,6.642,7.613,7.567,7.822
-0.098,-2.031,5.814,7.163,4.777,8.607,11.355,15.761
-7.018,-4.09,6.105,7.412,5.321,7.603,14.822,18.868
-16.059,-8.193,5.556,2.99,4.531,0.462,16.025,13.247
-19.936,-11.349,4.425,0.134,1.726,-2.258,16.402,8.368
-15.521,-8.198,5.084,2.967,1.148,3.603,14.818,10.313
-7.613,-1.807,6.066,4.468,2.294,5.82,11.184,13.059
-1.498,1.571,5.604,2.6,2.079,2.986,10.823,13.584
2.529,3.179,6.522,6.128,3.356,9.033,17.642,18.32
3.918,6.24,9.092,15.527,7.833,23.317,25.565,26.25
1.174,8.49,6.571,17.453,7.283,25.922,21.422,22.805
-3.346,6.689,-3.725,6.62,-4.073,10.314,4.018,6.195
-4.507,3.004,-12.207,-3.831,-15.664,-4.35,-8.113,-4.719
0.214,3.273,-9.475,-2.611,-14.033,-2.395,-3.456,-2.746
8.411,10.178,0.202,5.87,-2.455,9.846,4.974,1.209
16.596,19.879,7.698,13.122,7.656,19.245,4.243,3.027
22.613,25.549,11.613,16.874,13.117,21.92,1.68,7.182
24.889,25.04,13.979,18.306,14.361,22.19,6.574,12.765
24.421,23.059,15.563,19.014,12.594,24.33,15.31,15.456
23.656,23.303,18.302,20.396,14.73,27.603,23.248,15.934
22.539,23.396,21.605,21.399,21.812,27.304,27.257,16.38
19.765,19.776,20.834,19.471,23.7,21.399,20.629,16.221
16.135,14.162,16.142,15.319,18.288,14.339,5.587,14.644
15.041,13.576,14.353,13.695,16.002,12.036,-2.707,14.411
18.461,21.7,19.042,17.992,20.863,16.386,4.272,20.491
22.792,31.736,25.566,23.708,25.657,22.175,16.389,26.341
23.022,34.171,27.69,23.181,25.079,21.348,19.53,19.932
19.247,28.961,25.627,18.895,22.13,16.423,16.047,10.49
14.571,22.301,23.882,19.632,21.588,17.993,16.917,14.326
11.7,17.673,24.24,24.84,23.712,25.545,20.429,23.822
12.741,16.058,25.675,27.071,26.48,27.76,18.536,22.997
15.986,17.425,27.094,25.764,28.476,22.702,15.061,15.973
18.257,21.091,28.098,26.947,28.975,20.437,18.393,16.749
21.952,26.314,28.402,30.876,28.163,23.477,23.392,22.535
28.649,29.736,26.625,30.469,25.97,23.179,19.389,19.92
31.496,27.941,23.293,25.254,23.184,20.094,11.881,12.104
26.879,24.409,22.815,24.85,23.209,25.119,14.649,13.882
21.741,24.205,26.155,30.49,26.786,33.715,23.005,21.634
19.195,23.936,27.129,28.829,28.512,27.152,19.409,17.59
14.666,19.399,23.372,16.88,25.9,8.38,6.235,4.817
10.598,16.587,22.703,11.821,26.056,4.072,4.981,5.144
13.201,20.485,28.871,20.953,31.958,19.626,19.234,20.367
17.658,23.551,32.059,27.854,32.362,28.441,28.996,29.179
17.564,20.452,25.795,22.139,21.637,18.277,23.99,22.992
16.877,17.537,18.342,14.194,11.848,7.194,14.679,14.587
18.655,17.507,16.666,11.808,11.478,5.367,11.903,13.583
19.488,16.766,16.794,11.168,14.322,4.477,15.438,16.721
16.541,16.058,13.966,9.881,13.61,2.111,18.673,17.338
9.007,15.651,8.372,7.906,9.04,2.03,15.276,11.808
1.065,12.869,3.993,6.117,4.14,3.707,7.279,4.473
-0.04,9.502,5.786,8.339,4.635,6.449,4.935,5.506
3.02,7.867,11.934,13.104,10.463,9.262,11.119,14.141
2.005,6.032,14.785,13.337,12.944,8.228,16.296,17.048
-0.867,3.517,13.173,8.835,8.994,2.195,14.939,11.291
0.453,2.085,12.457,6.411,5.397,-3.13,12.496,7.901
2.288,1.168,13.438,8.8,5.147,-1.959,13.738,11.318
-1.365,-0.96,12.385,11.582,5.261,2.179,16.638,15.41
-5.681,-2.575,9.599,11.487,6.889,3.816,17.151,15.515
-1.449,0.246,9.284,11.055,12.85,4.872,13.476,12.568
7.309,5.252,10.592,11.005,17.338,4.8,7.714,9.035
8.424,5.364,8.453,8.413,13.453,0.207,5.186,7.027
2.697,2.004,4.926,5.45,6.945,-2.808,9.547,9.164
-0.125,2.313,6.244,6.365,7.057,1.727,17.467,14.337
1.285,4.865,10.168,8.252,11.743,6.766,21.54,16.249
2.798,4.847,10.306,6.854,13.44,5.093,19.794,13.52
3.834,4.985,7.47,4.386,11.162,0.75,16.84,12.095
5.563,8.84,6.477,3.942,10.196,-0.387,15.4,13.289
7.417,11.999,7.471,4.182,13.305,1.843,13.062,11.265
7.805,8.798,6.597,3.236,15.831,4.84,7.46,4.078
7.131,3.36,2.89,1.722,12.295,4.471,1.546,-2.081
7.638,4.01,0.082,0.716,5.556,-0.697,0.246,-1.713
9.691,9.662,0.655,0.842,2.614,-4.432,2.071,1.939
11.439,13.187,3.184,3.402,4.594,-1.32,2.958,3.499
11.382,13.444,6.903,9.508,8.732,7.19,5.102,5.812
10.172,14.087,12.316,17.13,14.646,17.695,10.71,12.256
8.677,14.105,15.856,20.119,19.83,22.355,14.138,15.415
5.278,9.239,12.874,14.221,18.822,12.207,9.406,8.856
0.142,2.335,6.92,4.791,13.321,-5.482,1.1,0.805
-3.523,-0.415,5.266,1.51,9.849,-12.237,0.769,2.264
-5.514,-1.642,8.256,4.942,10.731,-5.107,11.256,11.322
-6.791,-6.336,11.701,6.89,15.316,1.049,21.729,17.133
-3.682,-8.704,14.375,5.098,20.904,-0.841,21.436,15.248
4.603,-2.789,16.688,6.16,22.429,-1.276,11.7,13.831
8.138,2.419,15.855,10.713,16.52,4.719,1.613,17.812
0.594,-1.632,10.022,10.24,6.003,7.204,-3.769,14.797
-8.86,-7.384,3.378,2.448,-1.725,-0.987,-6.082,-3.307
-10.507,-6.826,1.186,-3.748,-2.202,-11.492,-6.544,-18.751
-6.717,-3.495,3.825,-2.104,2.351,-13.094,-4.068,-16.313
-4.624,-2.325,7.056,2.874,6.045,-7.526,0.055,-8.663
-6.215,-2.249,7.51,6.038,6.401,-2.828,2.647,-7.532
-6.852,0.242,6.853,9.772,6.373,1.801,3.15,-4.544
-3.403,4.029,7.277,15.552,7.595,10.873,2.853,3.787
0.252,3.36,7.599,17.242,9.222,17.447,2.727,8.459
1.756,-0.926,7.708,12.437,12.563,13.354,5.333,9.018
4.366,-0.245,9.69,10.851,18.409,10.279,13.15,14.908
7.18,6.407,11.478,18.247,20.781,20.259,21.657,26.759
5.066,9.927,8.093,22.706,13.274,26.356,22.621,31.454
0.068,7.5,1.612,14.381,2.527,12.692,19.162,22.239
1.382,8.99,1.894,6.789,3.128,0.098,27.823,15.06
12.593,20.643,13.468,14.042,18.173,8.015,51.932,23.247
22.973,29.836,22.532,20.658,29.306,15.766,58.142,26.044
19.804,21.911,12.298,8.041,17.643,3.54,21.509,3.601
9.041,6.777,-5.44,-8.624,-2.416,-10.888,-17.701,-18.795
4.789,2.883,-7.797,-8.66,-4.87,-9.847,-16.033,-13.829
3.689,5.777,-1.96,-1.797,1.355,-4.794,-0.639,1.379
-4.419,1.325,-7.687,-4.601,-6.316,-8.195,-9.331,0.522
-12.82,-6.418,-19.879,-12.33,-21.247,-13.609,-27.381,-13.331
-10.082,-4.689,-21.369,-12.323,-23.034,-11.101,-27.212,-20.071
-1.141,5.465,-12.68,-4.571,-12.423,-2.396,-15.093,-12.093
2.458,12.38,-6.724,1.251,-5.309,3.599,-11.411,-0.891
0.473,10.705,-5.721,1.522,-4.585,4.535,-12.679,4.581
-0.399,5.774,-1.685,2.306,0.049,6.232,-1.877,8.474
0.38,3.39,4.635,5.889,8.608,9.838,14.881,12.782
-1.313,1.652,3.234,4.59,8.973,7.489,14.355,10.608
-5.191,-3.241,-5.754,-5.052,0.149,-4.258,-2.347,0.738
-6.273,-6.856,-8.926,-11.999,-3.468,-13.218,-8.027,-3.513
-1.75,-1.822,-0.021,-5.442,4.613,-5.518,6.474,7.738
3.89,6.515,10.363,6.52,13.902,10.973,19.065,19.851
3.035,4.641,10.6,7.703,14.423,15.847,12.487,13.255
-5.186,-7.192,2.786,-2.27,8.351,4.677,-2.485,-3.155
-13.182,-14.249,-2.461,-9.471,3.947,-7.825,-4.905,-6.459
-13.399,-8.897,0.946,-5.172,6.99,-7.032,8.924,6.065
-7.734,0.613,8.078,4.156,14.398,3.877,21.412,18.249
-5.171,4.137,9.287,6.247,15.852,8.394,17.588,17.565
-7.605,2.795,3.341,0.321,8.281,2.132,5.088,7.302
-6.982,3.334,-1.464,-3.241,1.532,-1.599,1,0.878
-0.065,6.909,-0.333,-0.04,2.662,3.487,8.066,5.146
5.547,9.554,1.798,3.689,5.31,7.468,13.987,12.305
4.909,8.96,0.142,3.39,2.86,4.023,9.999,12.345
3.184,6.883,-2.326,1.529,0.392,-0.75,1.719,6.597
3.736,5.873,-2.735,1.02,2.673,-0.46,-1.105,2.489
2.995,6.648,-3.389,2.29,4.212,4.564,3.13,3.314
0.595,8.406,-4.883,4.033,1.606,9.172,8.937,6.853
-0.07,8.458,-5.174,2.948,-0.04,7.678,9.949,8.565
