EEG 1,EEG 2,EEG 3,EEG 4,EEG 5,EEG 6,EEG 7,EEG 8
20.547,16.127,11.688,4.198,18.761,6.06,3.919,2.881
22.586,14.812,9.528,1.889,16.064,3.824,2.881,2.81
25.031,15.454,9.773,-1.105,16.728,0.881,3.233,-0.223
23.531,15.471,8.906,-4.347,16.897,-1.51,3.377,-3.127
18.847,14.037,5.611,-6.231,14.251,-2.373,3.114,-2.47
14.673,12.287,1.522,-7.557,10.24,-3.351,2.622,-0.005
11.96,10.528,-1.724,-10.501,6.837,-6.244,1.164,-0.405
9.408,8.507,-3.31,-14.199,4.509,-9.382,-0.872,-3.776
7.855,7.428,-2.907,-14.972,3.203,-9.268,-1.527,-4.751
9.102,8.658,-1.232,-11.221,3.014,-5.276,-0.032,-0.911
11.317,10.515,-0.061,-6.128,3.709,-1.035,2.091,3.748
10.832,9.944,-0.916,-4.5,3.81,-0.881,2.854,4.712
8.774,7.835,-2.563,-5.931,2.343,-3.613,2.966,3.221
9.448,7.155,-1.805,-4.802,1.363,-2.666,4.949,5.311
11.224,5.95,0.139,-1.133,1.729,2.003,7.348,10.296
8.364,0.54,-1.861,-2.561,0.275,0.858,5.946,8.01
1.26,-6.627,-7.221,-9.88,-3.363,-7.565,2.152,-1.665
-4.369,-10.219,-9.801,-13.631,-4.788,-11.167,1.474,-4.834
-6.048,-9.572,-7.926,-9.918,-2.753,-5.468,3.809,1.365
-7.118,-8.909,-6,-5.905,-1.259,-0.874,4.392,5.062
-11.071,-11.006,-6.935,-6.366,-2.919,-2.781,2.393,2.358
-16.432,-14.251,-8.856,-8.356,-5.682,-5.5,0.299,-0.734
-19.903,-17.121,-9.556,-10.403,-6.593,-7.187,-1.727,-3.466
-19.981,-18.413,-9.25,-12.89,-5.646,-10.065,-3.958,-7.62
-16.314,-15.309,-8.406,-12.501,-4.728,-10.674,-3.972,-8.447
-11.207,-9.495,-7.794,-8.708,-4.652,-6.873,-1.005,-3.47
-9.38,-7.913,-9.816,-7.559,-5.343,-4.377,0.824,0.409
-11.789,-11.874,-14.829,-10.903,-7.192,-6.122,-1.452,-1.237
-14.093,-14.798,-18.557,-12.908,-9.792,-7.533,-4.467,-3.878
-13.956,-13.611,-18.087,-11.708,-11.857,-7.201,-4.755,-4.811
-13.268,-11.856,-15.506,-11.302,-12.427,-8.392,-3.8,-5.532
-12.13,-10.299,-12.305,-11.422,-10.301,-9.657,-2.906,-4.429
-9.198,-6.456,-7.869,-9.311,-5.892,-8.008,-1.6,-1.006
-6.942,-3.175,-4.501,-8.09,-3.006,-7.243,-1.275,-0.542
-7.775,-4.927,-5.216,-10.948,-3.723,-10.53,-3.295,-4.709
-6.834,-6.751,-6.188,-11.818,-3.751,-11.223,-4.965,-5.176
0.928,-1.161,-1.764,-5.456,1.604,-4.451,-3.267,1.901
9.729,7.194,4.327,0.69,8.802,1.659,-0.307,6.13
11.162,8.961,5.629,-0.882,10.979,-0.419,1.11,2.145
6.389,4.514,4.166,-6.866,9.06,-7.298,1.582,-3.018
0.609,-1.263,3.384,-13.519,7.876,-14.754,0.822,-8.826
-4.601,-7.682,1.093,-20.789,6.554,-21.848,-2.226,-18.612
-8.763,-14.465,-4.258,-25.831,2.334,-25.762,-5.848,-24.444
-11.226,-19.305,-10.116,-26.475,-3.152,-25.391,-8.591,-20.316
-12.826,-21.531,-13.827,-25.993,-6.749,-24.897,-11.121,-14.831
-14.257,-21.547,-15.189,-26.005,-8.275,-25.609,-12.994,-14.335
-15.372,-19.636,-15.933,-23.783,-10.247,-23.966,-12.617,-13.402
-16.375,-17.808,-17.505,-20.546,-13.208,-21.32,-9.873,-10.054
-16.57,-16.868,-18.554,-20.161,-13.326,-21.294,-6.097,-9.428
-14.428,-14.061,-16.948,-20.227,-8.748,-19.908,-3.014,-10.779
-10.518,-8.619,-14.314,-16.633,-5.041,-13.528,-2.118,-8.239
-7.222,-4.093,-13.456,-11.548,-6.717,-7.472,-2.972,-1.838
-6.154,-3.108,-13.558,-8.999,-9.511,-6.854,-4.063,2.194
-7.234,-4.923,-13.172,-9.438,-8.881,-9.679,-6.011,0.321
-8.768,-7.505,-12.597,-10.606,-6.338,-11.611,-9.037,-3.107
-10.078,-9.26,-12.371,-10.575,-5.005,-11.196,-10.447,-3.367
-12.933,-9.836,-13.625,-10.33,-6.889,-10.71,-9.275,-3.334
-17.636,-10.294,-16.056,-11.647,-10.363,-12.29,-8.036,-6.054
-21.287,-12.12,-16.161,-13.431,-9.831,-14.505,-8.574,-8.926
-21.581,-15.107,-12.775,-13.654,-4.485,-15.217,-9.836,-10.592
-20.02,-17.078,-10.641,-12.002,-2.413,-14.043,-9.427,-10.407
-20.044,-16.608,-12.886,-8.02,-8.466,-9.683,-6.93,-3.977
-22.842,-14.967,-16.341,-3.611,-16.319,-4.122,-6.836,4.26
-26.125,-14.621,-18.71,-6.305,-19.897,-7.5,-13.141,-1.527
-25.72,-15.008,-19.996,-16.733,-19.903,-21.191,-18.984,-19.759
-20.157,-12.636,-17.836,-22.819,-16.645,-29.275,-14.999,-28.581
-13.742,-8.04,-12.418,-19.676,-10.706,-24.882,-6.609,-23.122
-10.353,-5.889,-8.728,-15.271,-6.57,-18.455,-4.445,-17.167
-8.906,-7.035,-8.645,-13.022,-6.561,-14.72,-6.553,-13.646
-9.083,-9.156,-10.474,-11.047,-8.817,-11.083,-6.863,-8.683
-12.276,-12.648,-14.098,-12.351,-12.261,-11.193,-7.754,-7.967
-15.844,-17.268,-18.264,-18.598,-15.71,-17.568,-11.833,-15.301
-16.146,-18.56,-19.066,-22.753,-16.324,-22.148,-14.007,-20.982
-15.029,-14.913,-16.141,-19.523,-14.315,-18.471,-11.27,-16.547
-15.774,-11.301,-13.088,-13.682,-12.473,-11.074,-9.054,-7.877
-17.474,-11.854,-11.503,-11.328,-11.335,-6.738,-10.507,-4.272
-17.489,-14.629,-10.576,-11.742,-10.703,-7.177,-10.972,-5.521
-14.976,-15.316,-9.669,-10.463,-11.133,-9.112,-7.675,-5.624
-12.004,-13.205,-9.239,-6.135,-13.329,-8.333,-4.31,-3.043
-11.701,-10.774,-10.445,-1.917,-17.429,-5.287,-4.175,-0.856
-13.483,-8.663,-11.757,0.513,-19.513,-2.087,-5.524,1.517
-13.42,-6.125,-9.357,2.548,-15.239,1.384,-4.96,5.907
-10.452,-4.845,-4.727,2.444,-9.216,2.294,-3.161,6.952
-7.312,-6.424,-4.102,-3.033,-9.688,-3.668,-3.332,0.734
-5.947,-8.796,-7.978,-11.029,-15.06,-13.516,-5.198,-6.402
-6.844,-9.861,-11.158,-16.346,-17.658,-20.834,-7.024,-10.213
-8.294,-8.529,-10.352,-16.935,-14.561,-22.717,-8.038,-12.635
-5.968,-2.411,-5.341,-11.094,-7.354,-16.46,-4.962,-9.475
0.047,6.965,0.246,0.002,-1.185,-2.5,3.054,3.314
5.157,13.478,1.85,9.702,-1.362,9.889,9.264,15.833
8.376,15.02,1.216,14.087,-4.869,12.885,9.114,16.865
9.504,13.91,1.856,14.855,-5.597,9.447,6.041,9.985
5.934,11.174,1.519,13.442,-5.143,5.875,3.971,4.798
-0.816,6.254,-2.3,10.451,-7.377,3.959,3.399,4.262
-6.078,-0.566,-7.22,6.099,-10.003,1.144,2.913,4.421
-8.119,-6.595,-10.394,-0.606,-9.483,-5,0.557,0.247
-6.75,-8.396,-10.85,-7.384,-6.26,-11.041,-3.09,-6.527
-2.701,-6.439,-8.031,-9.08,-1.859,-11.24,-4.785,-8.777
0.466,-4.178,-3.111,-5.029,2.506,-5.893,-3.002,-3.998
-0.256,-2.993,0.773,0.192,5.402,-0.186,0.375,2.646
-3.445,-3,1.611,2.018,5.922,1.657,2.351,4.423
-5.895,-5.429,-0.005,-0.249,3.774,-0.46,1.523,1.293
-6.649,-10.003,-2.335,-3.8,0.114,-3.664,-1.61,-2.032
-5.578,-12.564,-3.795,-5.678,-2.21,-5.589,-4.761,-4.121
-1.517,-8.614,-2.623,-4.206,-0.621,-4.501,-3.767,-3.207
4.84,0.285,1.562,0.152,4.251,0.013,1.964,3.853
9.958,7.527,5.6,3.242,7.851,3.525,6.348,10.712
11.939,10.362,6.868,2.479,7.363,2.021,5.577,8.934
13.019,12.536,7.238,2.767,5.53,1.001,3.225,5.504
15.38,16.529,8.404,7.112,4.706,5.398,2.232,7.902
17.66,19.517,8.597,9.801,3.311,8.652,1.644,9.25
18.228,19.425,6.935,8.515,1.051,6.989,2.018,6.975
17.858,18.814,5.493,7.401,0.473,5.345,4.044,4.983
17.813,20.465,6.85,8.464,3.323,5.962,5.71,3.041
17.907,22.885,11.68,12.559,9.234,9.721,6.799,5.932
16.216,22.038,16.553,18.115,14.711,16.545,8.072,16.357
12.664,18.398,17.263,19.345,15.481,20.047,7.657,22.891
11.373,17.684,15.405,15.681,12.946,16.171,5.374,17.721
13.727,20.184,14.779,12.501,11.796,9.546,3.478,7.72
15.318,19.737,14.535,11.056,11.892,5.239,2.146,0.553
14.424,16.781,13.494,9.653,10.683,3.768,1.237,-4.621
13.367,16.898,13.927,9.433,9.8,4.133,1.749,-9.73
11.2,17.54,15.306,10.351,10.722,4.806,2.462,-11.3
6.495,13.789,14.188,9.899,10.381,4.433,2.014,-7.155
3.697,10.764,11.882,9.443,7.938,4.785,2.29,-1.255
7.138,14.257,12.018,12.594,7.029,8.327,4.145,3.307
13.923,19.277,13.475,17.916,8.729,13.647,5.44,8.11
18.353,19.733,13.561,20.916,10.706,17.912,5.482,13.779
18.626,18.22,12.696,20.445,11.482,20.171,5.017,17.22
15.881,18.249,11.208,18.076,10.2,19.594,3.02,15.696
11.283,18.126,7.953,15.121,6.804,16.107,-1.018,11.339
6.069,16.208,3.547,12.606,3.2,12.879,-4.241,9.146
0.749,12.56,-0.657,10.755,-0.222,12.555,-3.779,10.233
-2.618,8.398,-2.694,11.033,-3.28,15.317,0.183,15.389
1.392,7.856,0.897,16.637,-1.659,21.678,5.486,27.191
11.327,11.996,7.549,22.312,4.881,25.108,8.48,32.406
14.125,13.258,8.676,16.637,7.807,13.414,5.587,12.009
1.747,4.58,2.407,2.979,2.116,-6.796,-2.946,-18.205
-15.035,-8.653,-4.642,-3.243,-6.635,-13.144,-11.799,-25.33
-18.729,-13.622,-5.685,2.653,-9.675,-1.392,-13.344,-8.124
-8.175,-7.586,0.065,11.551,-5.426,10.84,-6.183,10.489
2.274,-0.051,6.137,13.453,-0.758,10.72,0.51,12.451
5.161,2.974,7.141,7.61,-0.639,2.948,-0.393,-1.999
3.642,3.846,4.686,0.09,-3.235,-4.367,-4.924,-17.555
0.515,6.058,3.389,-4.325,-3.693,-9.803,-7.634,-23.117
-0.485,10.207,6.024,-2.268,0.857,-9.079,-7.698,-15.998
4.269,13.033,10.173,6.293,6.351,2.117,-4.999,0.763
11.653,12.247,12.083,14.752,8.354,15.08,-0.742,13.738
15.831,10.628,12.13,16.6,9.215,18.953,1.13,10.88
15.264,9.87,10.679,12.161,8.936,16.804,-1.584,-4.449
12.485,7.828,7.052,7.004,3.578,14.796,-5.822,-16.319
10.016,5.431,4.237,6.069,-3.474,10.542,-5.484,-9.204
8.447,7.296,5.39,8.465,-4.562,4.192,0.369,11.309
6.463,12.247,6.941,9.131,-1.376,0.73,4.101,21.881
0.943,12.151,2.778,5.125,-2.945,-2.075,-0.148,14.094
-7.233,5.975,-4.602,-0.582,-9.203,-6.267,-8.309,1.254
-8.13,4.615,-5.127,-0.448,-9.144,-3.385,-10.424,-2.341
4.009,12.756,4.173,8.298,1.021,9.785,-1.565,6.713
16.206,19.061,13.762,17.905,10.405,22.303,10.191,18.438
12.993,13.42,14.118,19.459,9.116,25.22,13.389,17.831
0.62,1.076,6.794,12.839,1.193,19.629,7.991,5.041
-4.384,-6.874,-0.354,4.555,-4.419,9.019,1.768,-2.826
-0.705,-8.262,-3.042,-1.293,-5.315,-4.297,-1.661,0.405
3.054,-8.866,-2.384,-7.204,-3.294,-18.003,-3.367,-0.581
5.294,-12.156,-2.035,-15.41,-2.049,-29.349,-3.563,-12.723
7.118,-16.657,-4.399,-21.142,-5.766,-32.647,-2.632,-19.855
6.601,-18.322,-6.865,-17.896,-11.985,-22.163,-2.227,-10.527
4.199,-13.548,-5.305,-7.216,-13.045,-4.53,-2.233,4.616
1.21,-5.787,-1.519,0.692,-8.257,2.641,-1.999,9.534
-3.906,-4.254,-0.9,-1.255,-5.306,-5.426,-2.414,0.596
-10.55,-11.231,-4.175,-7.303,-7.996,-13.583,-3.686,-10.805
-13.51,-18.048,-6.872,-7.217,-11.708,-10.222,-4.446,-9.941
-8.563,-16.618,-5.36,0.128,-11.545,0.744,-3.372,3.163
2.849,-8.65,0.051,7.233,-7.268,8.649,0.049,13.973
15.232,-0.362,7.218,7.785,0.264,5.852,4.389,12.576
22.789,5.05,13.359,3.941,9.527,-2.234,5.93,4.3
21.393,4.684,15.062,2.283,15.352,-3.415,2.904,1.227
10.34,-4.585,10.94,2.353,12.5,0.614,-1.889,4.482
-3.134,-16.937,3.709,-0.667,1.967,-0.842,-4.057,3.051
-7.057,-20.818,-0.335,-2.839,-7.014,-6.185,-1.33,-3.377
-2.449,-15.889,2.956,4.191,-6.307,-3.582,4.746,0.297
-1.13,-9.928,10.441,18.776,1.571,11.546,10.191,15.374
-0.221,-2.955,18.459,31.221,13.193,30.205,11.284,22.134
8.023,4.789,25.16,33.548,24.999,35.695,8.021,13.022
10.092,2.612,23.386,22.842,21.725,17.927,5.103,2.037
-4.828,-12.297,10.958,6.252,-1.217,-9.683,5.182,-0.86
-19.933,-24.809,0.476,-2.555,-19.802,-21.952,4.792,0.892
-18.748,-22.882,0.681,0.017,-18.061,-15.289,2.445,1.56
-7.576,-11.589,5.452,6.827,-8.981,-5.538,2.643,1.198
-0.089,-3.278,7.833,13.086,-4.53,0.912,5.74,2.55
-0.282,-3.352,8.456,18.515,-0.488,8.946,6.674,4.853
-3.303,-7.469,9.811,20.962,7.102,15.912,5.34,2.962
-6.213,-11.334,9.466,15.997,11.216,12.009,4.208,-5.195
-9.791,-15.398,4.532,6.27,5.236,0.561,2.896,-9.64
-10.645,-17.3,1.322,3.103,-1.016,-0.287,2.219,-0.958
-6.675,-12.923,7.226,10.227,6.161,14.722,3.154,10.512
-6.144,-7.75,14.62,14.791,17.193,24.213,3.435,7.897
-14.54,-11.594,10.501,5.81,10.896,10.129,2.004,-5.571
-23.531,-20.858,-0.22,-6.443,-6.695,-11.056,1.28,-11.387
-24.355,-23.193,-1.249,-5.805,-8.534,-12.52,2.054,-4.167
-17.641,-17.868,8.183,3.896,6.865,0.712,2.401,2.425
-8.676,-14.575,14.163,8.301,14.215,6.163,2.623,0.845
-5.482,-17.294,11.018,5.295,5.399,1.714,4.411,-0.212
-12.55,-21.054,5.949,1.373,-2.382,-1.304,5.686,3.291
-21.194,-20.465,5.394,-0.601,1.385,-1.033,4.437,4.954
-20.889,-16.736,7.456,-1.137,7.766,-0.838,4.326,4.811
-15.675,-15.419,7.041,-1.776,6.968,-0.65,7.115,6.81
-14.084,-18.295,2.952,-3.84,1.294,-0.434,7.6,6.533
-12.54,-19.942,-0.903,-4.884,-1.535,0.108,4.288,1.358
-6.479,-15.284,-1.415,-2.752,1.465,1.914,2.012,-3.351
-7.111,-10.637,-3.378,-3.026,3.051,0.704,1.28,-7.921
-23.221,-16.39,-12.197,-9.949,-6.54,-7.77,-0.114,-14.404
-38.612,-27.541,-20.29,-14.875,-21.014,-15.036,0.223,-13.627
-33.834,-28.744,-16.037,-8.238,-22.273,-8.437,3.694,-1.684
-16.004,-18.595,-3.192,4.561,-9.18,6.985,6.889,9.035
-4.471,-9.318,5.055,12.005,0.877,15.045,7.854,11.165
-3.105,-6.569,5.316,11.779,1.201,12.552,7.67,8.143
-3.588,-7.25,3.682,8.622,0.732,7.572,6.957,2.079
-3.462,-9.571,3.212,6.822,2.956,5.777,5.677,-2.079
-9.357,-15.203,1.003,6.361,1.857,6.238,2.995,1.35
-22.937,-24.683,-5.203,2.543,-5.057,2.374,-2.314,6.19
-31.849,-31.345,-11.147,-5.456,-10.999,-6.618,-8.196,0.875
-24.987,-26.677,-9.6,-9.198,-6.85,-9.238,-9.535,-10.682
-10.311,-15.392,-2.24,-2.936,3.897,0.114,-4.395,-8.407
-1.736,-10.018,1.405,4.487,7.04,7.347,3.224,7.164
2.922,-10.682,0.104,1.204,1.357,-1.759,8.359,6.668
8.654,-9.768,-0.078,-8.77,-2.176,-17.743,8.547,-14.224
4.218,-9.217,-0.225,-12.41,-2.446,-19.491,2.225,-25.833
-16.611,-14.585,-5.423,-9.123,-6.23,-6.536,-7.516,-20.149
-35.589,-20.544,-12.157,-7.78,-12.469,1.435,-11.627,-14.088
-33.138,-15.782,-10.446,-7.161,-11.607,-1.315,-6.513,-8.774
-13.51,-0.123,1.285,-0.132,-0.038,-1.209,2.358,2.855
5.089,12.45,12.301,8.527,12.734,4.645,8.475,10.16
12.458,10.503,14.275,8.552,16.974,4.684,8.335,3.043
7.953,-2.016,9.285,1.395,11.624,-2.691,4.315,-6.338
-4.907,-11.705,2.636,-3.454,0.726,-6.978,2.729,-3.416
-15.193,-10.426,-1.47,-2.495,-7.456,-4.268,4.368,7.087
-13.071,-1.993,-1.049,0.34,-7.032,-0.483,5.036,12.768
-2.696,5.448,2.167,2.297,-1.893,1.451,4.081,11.032
6.058,8.931,5.398,4.254,2.532,3.855,3.055,6.479
10.229,10.395,6.87,6.599,5.072,7.113,1.898,3.576
10.588,11.214,5.852,8.807,4.813,10.166,1.405,6.394
8.289,11.658,4.479,10.272,3.205,11.733,1.91,12.637
9.969,14.567,7.003,11.104,5.516,11.07,1.739,12.329
19.716,20.956,12.825,11.786,12.185,10.258,1.265,1.909
26.773,24.54,15.502,9.842,17.806,9.535,0.856,-11.316
20.555,20.361,12.963,4.375,19.555,7.019,-1.142,-17.94
6.838,11.861,8.834,0.827,15.338,5.101,-1.74,-12.755
-3.501,5.191,4.933,2.626,4.735,7.33,2.967,-0.368
-5.465,4.121,2.315,5.915,-3.621,11.069,7.485,6.403
0.227,8.025,2.682,6.539,-2.849,10.182,5.169,3.035
6.33,10.39,4.444,3.884,1.398,2.49,-0.264,-0.746
5.406,4.694,3.99,-1.291,1.797,-7.804,-2.004,0.153
-0.638,-5.407,1.703,-4.157,-0.699,-11.109,1.752,3.658
-5.017,-8.656,2.619,2.883,-0.56,0.121,11.647,18.099
-4.541,-1.929,8.479,17.21,4.068,18.897,25.925,43.277
0.391,5.61,12.136,22.846,7.265,25.212,31.628,45.846
6.051,6.323,7.02,10.233,3.76,9.724,16.491,6.596
6.719,2.38,-1.24,-7.299,-1.355,-9.687,-5.784,-32.512
0.603,-1.793,-4.143,-11.12,-2.452,-11.666,-11.586,-27.5
-8.334,-6.378,-3.477,-4.24,-3.304,-2.295,-3.991,0.76
-14.047,-11.234,-3.341,-1.256,-5.779,0.218,0.396,10.297
-13.066,-11.434,-1.764,-3.043,-4.123,-3.97,0.745,1.469
-6.402,-3.996,3.236,-1.617,5.032,-3.688,1.051,-3.812
2.353,4.808,7.927,1.284,15.874,0.848,-3.234,-7.449
7.551,5.044,4.563,-1.804,14.038,1.508,-10.279,-18.513
3.329,-4.065,-7.484,-8.089,-4.893,-1.274,-9.748,-21.718
-8.939,-13.395,-16.497,-9.1,-20.758,-0.727,-1.952,-6.782
-19.277,-16.416,-14.277,-5.996,-16.745,1.757,6.861,6.182
-19.927,-15.405,-6.527,-5.966,-3.005,-1.499,15.932,1.307
-14.378,-15.976,-3.852,-10.959,2.742,-10.936,15.669,-11.961
-12.77,-19.794,-10.159,-17.002,-3.512,-19.235,-3.179,-19.868
-18.455,-22.615,-17.618,-18.333,-12.07,-20.485,-21.722,-19.017
-23.487,-19.957,-17.204,-13.771,-13.95,-15.296,-19.782,-14.791
-19.774,-12.319,-11.512,-8.263,-11.246,-8.142,-10.153,-12.925
-8.63,-3.561,-5.677,-4.429,-5.972,-2.211,-8.832,-11.063
1.4,0.965,0.948,-1.028,4.394,-0.583,-7.784,-4.431
3.225,-2.085,5.657,0.512,12.352,-4.965,0.4,4.385
-1.404,-8.038,3.943,-1.77,7.879,-10.805,6.437,8.32
-6.4,-9.152,0.509,-4.957,-1.193,-12.666,8.831,6.75
-7.805,-3.346,4.551,-3.087,1.581,-8.664,22.894,8.711
-1.758,6.961,14.67,5.692,15.904,2.181,41.88,16.615
8.395,13.402,14.83,11.637,19.288,12.628,30.395,16.207
8.972,5.497,-4.152,2.24,-2.482,7.358,-11.734,-0.723
-1.714,-10.061,-24.913,-15.161,-28.007,-11.681,-38.153,-18.974
-7.008,-14.217,-26.3,-20.206,-29.161,-22.516,-29.383,-21.764
1.84,-4.953,-13.557,-11.974,-11.749,-16.813,-13.035,-14.724
16.646,4.435,-3.78,-5.177,1.544,-5.231,-8.774,-11.709
26.053,7.894,-1.256,-3.839,4.612,2.215,-8.372,-13.034
21.317,5.514,-5.568,-7.757,-1.549,-5.358,-8.863,-15.349
3.427,-3.177,-17.415,-18.365,-18.09,-27.308,-17.918,-19.775
-10.503,-11.632,-25.314,-24.323,-30.18,-37.114,-24.872,-19.696
-5.999,-9.632,-16.233,-15.266,-18.987,-22.017,-12.021,-8.616
8.964,-0.084,0.401,-2.628,5.098,-4.438,7.468,1.559
15.829,3.211,5.002,-0.09,14.79,0.555,5.96,-2.566
7.959,-3.945,-4.073,-2.571,3.092,2.592,-11.644,-11.22
-4.844,-10.891,-11.925,-0.814,-11.113,6.753,-16.766,-8.316
-8.907,-8.176,-8.733,3.228,-9.65,6.392,-2.753,2.641
-2.377,-0.107,0.075,5.471,2.194,3.014,11.053,9.183
6.011,3.151,4.97,6.863,9.404,4.105,10.631,8.983
13.028,0.974,6.065,7.484,12.507,7.168,1.872,5.977
19.256,-0.167,7.869,7.318,17.739,8.211,-1.353,4.075
17.255,-0.614,8.603,8.255,20.114,9.321,7.697,8.117
3.419,-4.734,3.617,6.556,12.889,6.886,23.256,13.341
-11.069,-10.015,-8.732,-4.604,-4.513,-4.947,26.089,4.104
-13.756,-10.825,-23.981,-20.233,-24.99,-19.185,3.198,-17.634
-2.197,-5.111,-30.503,-25.573,-33.426,-21.481,-23.533,-28.194
14.728,5.818,-22.143,-15.719,-23.778,-9.834,-24.13,-18.306
21.29,15.931,-8.622,-1.702,-8.06,1.181,-8.067,-2.434
10.77,15.589,-3.824,3.612,-0.444,0.875,-1.893,5.989
-6.02,3.449,-9.264,0.143,-4.123,-2.674,-4.378,7.184
-14.197,-7.518,-14.263,-2.722,-10.055,0.18,-0.92,6.413
-10.186,-6.895,-11.696,-2.288,-8.715,2.747,6.429,4.381
-0.975,-0.57,-6.695,-3.291,-4.176,-2.325,9.023,2.09
6.508,2.732,-5.174,-5.072,-3.454,-6.148,7.728,3.862
12.296,5.455,-3.306,-2.563,-0.707,1.283,7.782,8.877
17.862,12.103,2.857,2.686,9.389,12.659,9.597,9.58
19.05,17.363,6.242,3.007,15.853,12.828,7.398,1.6
14.479,14.125,1.365,-1.265,9.656,3.359,0.133,-4.098
10.866,6.676,-3.403,0.57,1.211,2.974,-3.679,7.13
8.53,2.469,-3.503,6.845,-1.486,12.415,-1.15,18.764
-1.704,-2.055,-8.031,0.859,-7.052,7.32,0.998,2.78
-17.406,-11.257,-17.325,-15.679,-16.43,-15.145,2.51,-20.962
-20.032,-16.906,-18.059,-21.128,-16.233,-26.307,8.39,-15.838
-1.379,-9.295,-6.677,-9.84,-2.266,-13.411,12.679,4.158
20.56,6.654,5.113,2.51,13.773,4.533,5.075,6.028
22.19,14.081,4.572,0.765,14.457,4.141,-9.577,-9.368
4.307,5.266,-8.435,-14.384,-4.803,-16.009,-16.135,-21.414
-10.325,-6.3,-18.446,-25.708,-22.043,-31.853,-11.254,-21.05
-9.239,-7.159,-15.023,-22.744,-18.794,-27.258,-4.763,-15.957
-2.127,-3.219,-7.549,-15.968,-8.062,-16.491,-1.422,-12.47
-0.455,-4.741,-6.812,-15.721,-5.944,-14.847,0.693,-7.292
-4.386,-10.206,-10.5,-18.989,-8.212,-16.535,-0.967,-2.829
-5.836,-11.669,-12.043,-19.987,-6.314,-12.253,-7.781,-7.228
2.17,-5.355,-8.946,-16.496,-0.725,-4.029,-10.181,-14.974
10.815,1.814,-4.285,-10.441,1.977,-0.207,-0.583,-11.284
4.244,-0.526,-3.252,-6.543,-0.876,-3.672,10.769,3.067
-10.803,-8.364,-5.45,-5.612,-3.431,-6.807,10.085,12.055
-14.623,-9.572,-6.982,-6.059,-2.216,-6.081,1.463,8.396
-7.185,-5.39,-7.896,-9.381,-0.99,-9.453,-2.565,-0.816
0.813,-3.377,-8.457,-13.482,-1.552,-15.736,0.736,-6.323
8.811,-1.661,-5.491,-11.74,-0.861,-12.64,7.503,-3.062
17.517,3.344,0.637,-5.616,3.016,-2.17,14.218,5.808
19.125,7.439,2.567,-5.033,5.136,-0.154,14.956,9.269
8.369,4.626,-3.848,-13.496,-0.391,-11.168,6.361,2.093
-3.4,-1.948,-9.657,-21.489,-5.37,-21.318,-2.242,-6.211
1.338,-1.589,-4.383,-18.489,4.269,-16.528,-2.112,-5.456
17.978,5.366,3.499,-9.625,17.762,-3.825,-1.071,-0.391
22.311,4.971,-3.575,-10.324,7.37,-4.209,-4.613,-1.065
8.392,-4.439,-21.08,-21.275,-20.738,-19.384,-3.845,-6.005
-3.525,-7.488,-28.229,-26.65,-30.214,-28.421,1.899,-6.529
-2.91,-0.133,-23.126,-20.523,-17.371,-21.789,1.462,-1.558
-0.277,5.217,-19.814,-12.607,-10.969,-9.354,-5.768,1.355
-1.747,4.661,-19.807,-9.054,-16.148,0.237,-10.232,-3.042
-3.549,4.499,-16.12,-8.038,-15.145,3.105,-8.643,-10.629
-4.169,3.203,-10.591,-7.991,-6.433,-2.314,-4.339,-11.688
-2.423,-2.494,-8.114,-7.422,-2.374,-7.75,-0.42,-4.365
3.005,-5.246,-7.669,-4.089,-4.978,-2.867,1.641,1.323
9.218,0.347,-5.862,1.63,-4.93,6.881,2.436,1.506
13.035,6.788,-2.498,5.84,2.933,7.896,2.472,3.988
11.5,5.655,-3.368,4.432,7.242,0.875,0.916,9.024
3.803,0.547,-12.098,-0.193,-4.747,-1.967,-0.944,8.69
-1.888,0.512,-19.86,-1.855,-19.562,1.271,-1.355,3.052
0.203,3.958,-17.905,-2.25,-16.517,1.065,-1.871,-2.404
1.66,1.282,-12.254,-6.263,-4.002,-3.995,-3.541,-6.164
-3.879,-6.814,-11.98,-10.897,-1.982,-6.005,-4.887,-9.362
-7.34,-9.196,-14.4,-11.018,-8.168,-3.399,-5.522,-11.294
-0.275,-1.939,-11.786,-6.892,-7.958,-1.655,-5.344,-9.015
9.26,6.051,-5.178,-2.765,-0.604,-3.546,-3.128,-2.407
9.241,6.407,-1.925,-2.405,3.085,-6.363,0.496,2.749
2.012,2.368,-2.976,-5.287,0.411,-7.54,3.863,0.521
-2.125,1.622,-2.678,-8.016,-0.099,-9.01,6.119,-6.733
-2.425,3.122,-0.546,-9.348,3.928,-12.582,4.406,-11.149
-6.162,-0.274,-2.387,-10.639,2.648,-15.305,-2.392,-10.923
-12.018,-7.147,-7.368,-11.46,-5.761,-13.903,-7.486,-9.437
-9.22,-8.395,-7.152,-9.428,-8.131,-10.288,-5.533,-6.154
4.358,-2.576,0.424,-3.128,1.103,-5.184,-1.406,1.6
15.286,3.002,8.421,6.398,10.807,5.554,0.21,11.057
12.609,4.605,10.752,13.69,11.456,17.094,2.572,13.418
4.719,6.018,8.79,13.777,7.158,17.042,7.085,4.992
3.978,10.102,6.874,9.845,5.043,7.46,8.956,-4.74
4.751,12.079,5.092,6.695,3.949,-0.017,7.235,-6.755
-1.831,7.013,1.954,3.538,1.088,-3.6,5.693,-4.407
-6.564,0.244,0.621,1.492,1.329,-2.626,4.942,-1.909
2.058,-0.219,4.81,4.38,9.602,7.584,4.411,2.046
14.808,2.639,10.089,7.919,17.832,17.607,4.522,4.385
13.498,1.216,8.143,4.558,13.414,12.37,2.114,-0.33
-1.099,-3.43,0.152,-1.95,1.166,-0.437,-5.986,-8.553
-10.13,-4.614,-4.115,-1.841,-2.742,-2.242,-14.462,-11.785
-5.217,-0.699,-0.932,4.62,2.382,5.582,-15.146,-8.776
1.32,2.882,3.77,8.267,4.31,8.698,-9.315,-5.788
-1.117,2.061,4.784,5.848,0.347,4.024,-4.262,-6.289
-7.003,-0.643,2.396,2.749,-4.031,-1.253,-2.196,-6.884
-9.15,-1.891,-1.154,2.559,-6.926,-1.94,-1.317,-3.696
-9.669,-1.38,-2.886,4.755,-6.937,3.187,-1.395,3.123
-10.708,0.741,-0.481,7.873,-1.598,9.972,-2.083,8.773
-9.753,3.224,3.434,7.812,5.171,9.326,-2.495,5.373
-6.646,3.528,4.399,2.385,6.2,-0.285,-3.777,-7.61
-4.834,3.06,4.474,-1.346,3.39,-7.055,-5.162,-17.441
-6.119,5.153,7.491,3.144,3.561,-2.438,-3.501,-14.118
-6.795,7.756,10.475,9.743,6.815,7.39,-0.87,-4.453
-1.581,7.337,10.775,10.166,11.386,14.323,-2.093,-0.291
4.513,4.524,9.8,6.267,14.442,16.575,-4.871,-1.563
-0.03,0.506,5.895,1.923,7.724,11.263,-3.39,-0.7
-13.324,-3.708,-2.313,-4.114,-8.235,-2.71,-1.516,0.107
-21.804,-5.505,-9.652,-10.094,-19.404,-15.525,-7.366,-6.345
-19.198,-3.95,-9.336,-9.746,-16.258,-16.063,-15.511,-13.113
-10.062,-0.85,-1.3,-4.089,-2.952,-7.617,-16.509,-11.958
-4.122,0.372,5.057,-1.816,6.099,-1.818,-14.394,-11.451
-8.356,-3.267,2.46,-4.597,0.377,-1.744,-13.168,-15.312
-17.28,-9.522,-2.171,-5.136,-9.537,-2.554,-8.012,-11.972
-22.247,-14.463,-1.117,-2.448,-8.458,-4.011,-1.765,-2.151
-25.129,-18.01,0.664,-3.247,-2.95,-8.594,-3.137,-0.728
-28.155,-19.03,-0.652,-6.294,-3.819,-9.586,-9.527,-9.122
-27.473,-16.331,-0.281,-3.864,-5.406,-0.344,-13.718,-16.374
-25.13,-14.956,1.845,2.052,-3.822,7.659,-15.332,-17.87
-27.658,-18.87,-0.473,2.913,-7.286,1.648,-14.773,-15.793
-31.954,-23.248,-5.972,-0.609,-15.227,-8.82,-11.774,-13.326
-28.751,-22.218,-6.123,-0.858,-14.225,-9.782,-8.797,-12.305
-18.067,-16.616,-0.131,3.54,-3.113,-3.588,-6.848,-11.132
-8.61,-9.692,4.461,8.125,4.498,2.318,-4.174,-7.443
-5.848,-3.447,3.237,10.284,1.847,5.199,-1.73,-3.058
-8.11,-0.581,-2.41,10.117,-6.179,4.727,-4.35,-1.978
-9.975,-2.001,-5.952,10.166,-9.137,5.063,-11.919,-2.242
-9.563,-5.092,-2.485,12.141,-2.075,10.353,-17.226,-0.058
-10.885,-7.555,1.371,12.411,3.186,15.975,-17.211,0.94
-14.547,-7.826,-1.438,9.111,-3.308,16.741,-14.944,-1.851
-14.917,-5.808,-5.094,6.03,-9.689,13.934,-12.085,-5.229
-9.206,-4.414,-2.889,5.124,-4.489,9.467,-8.172,-6.251
-1.398,-4.081,1.838,6.281,4.149,7.237,-3.911,-1.862
1.63,-2.686,3.011,7.766,5.569,9.406,-3.089,3.799
-2.186,-1.711,-0.478,3.992,0.774,7.742,-8.944,-2.422
-6.702,-2.376,-4.398,-4.622,-2.572,-1.151,-17.598,-18.549
-8.711,-3.114,-6.329,-9.806,-2.204,-6.725,-22.717,-26.107
-13.404,-5.427,-10.332,-10.506,-6.016,-5.524,-23.115,-21.814
-22.213,-11.819,-17.476,-12.979,-16.186,-6.379,-20.17,-18.65
-28.993,-19.139,-21.979,-17.21,-22.511,-9.901,-17.454,-20.719
-28.043,-20.887,-21.246,-17.189,-21.093,-6.183,-19.117,-21.581
-19.079,-15.691,-18.404,-12.953,-18.496,2.742,-21.684,-18.256
-9.508,-10.03,-16.394,-12.116,-17.035,0.889,-20.035,-14.727
-8.674,-10.22,-16.196,-16.993,-14.576,-12.498,-18.641,-15.798
-16.38,-15.615,-17.795,-21.706,-13.943,-21.378,-21.574,-20.339
-22.947,-20.51,-19.036,-22.589,-17.219,-21.487,-22.384,-21.53
-21.145,-19.633,-16.786,-20.394,-18.115,-19.561,-16.865,-17.176
-13.937,-13.839,-11.854,-16.457,-12.845,-16.722,-11.746,-13.608
-8.185,-8.154,-7.226,-11.101,-5.841,-10.42,-11.652,-13.01
-4.4,-3.696,-2.877,-3.876,0.273,-0.748,-11.082,-8.372
1.407,1.058,0.885,2.18,5.052,7.728,-5.862,1.93
9.088,4.752,2.191,2.998,7.01,11.341,0.192,9.583
13.136,5.935,2.052,1.586,6.994,13.597,2.958,9.784
8.828,4.586,0.57,0.32,4.064,14.058,0.186,2.958
-1.353,0.293,-3.628,-4.715,-2.615,5.743,-8.238,-7.943
-9.346,-4.003,-5.973,-9.75,-5.303,-4.295,-13.53,-11.375
-11.555,-3.735,-1.914,-5.83,0.708,-2.122,-4.814,0.116
-10.393,-0.707,4.94,4.02,8.735,7.598,14.77,14.536
-4.873,1.461,9.902,10.803,14.104,13.941,26.944,16.408
6.69,3.471,10.513,10.199,15.793,15.692,14.286,2.766
15.4,3.812,3.84,-0.013,9.206,9.546,-16.601,-18.663
11.157,-0.309,-7.461,-14.936,-4.858,-6.545,-37.819,-32.34
-0.484,-5.077,-15.55,-21.404,-17.41,-19.513,-38.344,-25.789
-5.038,-4.508,-16.914,-12.301,-22.181,-13.801,-32.715,0.819
2.892,2.747,-10.974,8.156,-17.039,9.117,-26.136,33.608
13.385,11.255,-0.155,25.601,-5.292,28.755,-11.428,42.599
14.329,12.165,5.669,21.808,2.5,23.718,0.778,11.427
8.142,5.31,0.293,-2.025,0.095,-1.658,-8.001,-31.111
4.054,-0.439,-9.442,-22.104,-8.679,-21.318,-26.057,-48.377
4.037,-0.362,-12.345,-22.655,-14.425,-21.195,-24.699,-36.54
6.349,2.777,-5.115,-10.654,-8.636,-9.777,-6.548,-13.009
7.922,4.489,3.661,-0.767,3.226,-0.876,0.607,1.203
6.269,4.042,4.638,0.585,6.228,-0.326,-8.884,-3.881
5.098,3.605,0.548,-1.711,0.113,-1.902,-14.943,-15.88
6.395,2.323,-1.127,-0.146,-3.255,3.125,-6.469,-15.744
5.194,-0.858,-0.441,4.626,-2.464,10.254,6.181,-2.354
0.312,-2.364,-1.146,5.635,-3.57,9.295,7.515,7.963
-2.478,0.633,-1.837,1.668,-4.096,2.292,-3.142,4.694
-0.05,5.195,0.899,-2.221,0.757,-2.786,-9.532,-5.165
3.997,7.213,4.825,-4.18,6.644,-4.175,-2.128,-10.338
5.45,7.401,5.406,-4.39,7.3,-3.204,7.525,-6.398
4.889,8.066,2.416,-1.937,2.259,-2.088,6.837,3.447
6.364,9.641,0.093,1.635,-2.922,-2.141,-1.03,9.71
12.156,13.426,3.831,3.788,1.659,-0.736,-6.445,6.697
19.389,18.824,13.274,4.55,16.953,2.771,-3.639,0.646
25.21,21.809,21.38,6.305,29.174,6.201,7.153,2.748
31.053,22.148,23.327,10.933,28.714,10.237,15.873,13.379
34.096,22.61,18.946,14.437,18.597,13.105,10.324,16.753
28.373,23.112,12.065,12.391,6.844,11.176,-3,6.237
18.862,22.916,10.017,9.796,2.576,7.76,-6.82,-1.609
13.928,21.321,12.828,11.246,5.051,5.531,-1.814,2.346
11.848,17.022,13.079,13.061,4.326,3.574,0.2,7.801
10.643,11.928,10.973,13.528,1.238,4.999,-0.545,9.096
13.425,10.053,11.862,13.79,3.475,8.536,1.384,8.949
19.999,12.971,15.119,12.722,9.145,8.03,3.285,7.38
28.823,20.373,19.794,13.407,15.654,8.687,2.811,6.497
39.22,29.934,27.519,20.595,25.436,18.49,5.101,12.1
45.298,36.258,34.122,28.516,33.305,29.093,12.923,22.839
42.353,36.304,34.109,28.138,32.12,28.947,20.036,28.741
34.747,32.074,29.089,20.405,25.609,20.474,19.391,22.544
27.526,26.188,22.26,12.17,18.245,11.723,12.68,8.655
21.726,20.49,16.28,8.53,10.727,6.891,7.681,-0.765
18.411,16.774,16.169,10.156,9.218,5.938,8.879,1.397
18.858,16.593,21.932,13.344,16.791,5.657,11.539,10.476
21.092,18.969,24.373,13.789,21.475,3.767,6.885,15.966
19.769,18.656,17.943,10.528,12.826,1.664,-2.706,13.4
15.189,13.809,10.657,7.014,2.426,1.931,-4.73,8.678
14.521,9.935,11.389,6.807,5.977,4.338,3.952,8.367
17.344,9.044,14.029,7.202,13.759,4.057,10.67,9.725
15.283,6.848,8.521,3.318,7.727,-2.45,3.195,7.127
8.197,3.845,0.714,-1.597,-4.623,-8.844,-11.261,3.652
5.406,5.263,2.283,-0.64,-4.74,-6.051,-15.626,4.632
11.196,10.944,10.474,4.824,5.847,3.163,-8.555,7.006
18.016,15.115,15.138,8.262,12.829,7.901,-0.837,7.547
15.899,13.184,13.559,7.184,10.251,4.05,3.117,8.7
7.041,7.366,10.246,4.732,4.1,-0.5,4.472,9.77
2.844,5.014,10.673,5.985,4.378,3.282,3.629,8.345
4.192,6.71,13.516,10.796,10.469,11.399,2.261,7.052
2.396,6.304,12.828,13.278,11.422,13.085,4.208,8.934
-0.525,4.928,11.326,11.537,8.868,8.044,10.215,13.505
2.64,6.514,13.692,8.068,12.832,3.406,12.816,15.458
6.874,6.596,12.184,2.433,15.089,0.015,4.887,9.071
5.397,2.68,2.842,-4.07,5.233,-4.114,-5.993,0.492
1.209,-0.088,-3.114,-5.697,-4.784,-5.526,-6.901,0.805
-3.202,-0.878,-1.653,-2.729,-4.883,-2.722,-0.21,6.94
-9.611,-3.277,-2.252,-1.925,-3.683,-1.715,2.677,8.942
-15.813,-6.353,-6.446,-4.438,-5.444,-5.074,0.308,7.383
-16.429,-7.688,-6.113,-5.125,-2.752,-6.564,-1.334,7.335
-10.264,-8.136,-0.223,-2.407,5.335,-2.081,-0.284,7.85
-0.437,-7.6,6.594,1.154,13.926,5.325,2.572,7.845
9.223,-4.158,13.346,4.622,23.19,11.405,6.32,9.995
13.354,-0.656,16.811,6.825,28.189,12.292,8.075,13.516
7.997,-2.652,12.037,5.187,19.075,6.765,6.243,14.024
-2.458,-9.008,3.979,1.017,3.438,0.674,3.4,10.726
-10.962,-14.533,0.154,-2.484,-2.254,-2.046,1.382,6.844
-17.566,-18.402,-1.709,-5.88,-0.107,-5.92,-0.189,5.839
-23.938,-21.62,-4.559,-10.029,-0.671,-12.299,-0.705,7.301
-26.643,-22.263,-5.45,-13.006,-2.628,-16.037,0.264,7.137
-23.435,-18.808,-3.96,-13.404,-1.515,-15.414,1.397,5.028
-18.624,-13.752,-3.354,-11.673,0.081,-12.756,1.426,4.786
-18.541,-11.678,-4.677,-9.908,-1.55,-10.182,0.596,5.768
-24.835,-15.233,-7.18,-11.126,-6.037,-9.858,-0.222,4.011
-32.544,-22.04,-10.348,-15.082,-9.985,-11.925,-0.947,1.176
-35.499,-26.013,-12.974,-17.57,-9.627,-12.673,-2.017,1.018
-33.012,-24.701,-13.969,-16.775,-4.789,-9.669,-4.252,0.242
-29.105,-22.117,-14.64,-15.622,-1.876,-6.025,-7.212,-3.707
-27.383,-21.592,-16.751,-16.555,-7.311,-6.498,-6.858,-3.923
-27.311,-22.068,-18.447,-19.435,-15.645,-12.133,-2.248,1.814
-25.984,-22.367,-17.531,-23.998,-17.274,-20.597,-0.645,3.141
-24.181,-22.345,-16.126,-28.563,-15.32,-27.124,-6.073,-3.825
-25.209,-20.857,-15.631,-28.848,-16.012,-26.185,-11.896,-9.185
-28.418,-18.273,-14.339,-24.138,-15.822,-20.147,-11.813,-6.97
-29.184,-17.16,-12.289,-19.088,-11.664,-17.349,-8.414,-1.973
-25.181,-17.625,-10.502,-16.196,-7.517,-17.615,-6.684,0.986
-20.181,-17.695,-8.588,-14.248,-7.292,-15.815,-6.254,2.081
-16.63,-15.574,-5.597,-11.451,-8.276,-11.959,-3.607,2.668
-9.529,-9.244,-0.621,-5.822,-4.221,-5.665,0.98,2.929
1.778,-1.082,4.378,0.767,3.176,2.356,2.101,3.155
7.182,1.956,5.724,3.441,5.809,5.224,-2.382,5.714
1.819,-0.555,5.028,3.308,3.227,1.541,-5.654,10.583
-6.923,-2.137,6.442,4.722,0.266,-2.115,-1.455,12.039
-12.097,-1.059,8.872,7.072,-2.196,-2.845,5.87,9.511
-12.133,0.502,9.508,9.321,-3.8,-0.345,8.224,9.743
-7.382,2.965,8.45,12.916,-3.912,4.986,5.715,11.849
-1.287,5.473,5.773,15.961,-4.819,7.998,4.208,9.669
1.675,5.565,1.647,15.473,-7.169,6.881,4.615,7.194
1.517,5.32,-1.269,13.639,-7.748,8.24,2.634,10.931
1.241,7.265,-1.214,12.635,-5.057,14.619,-2.508,13.264
3.223,9.077,0.86,10.793,-0.695,19.53,-6.131,5.182
8.529,9.848,5.016,9.641,4.57,18.865,-4.718,-2.511
13.643,10.584,10.358,11.327,9.277,14.574,0.194,2.485
10.507,7.455,11.105,10.332,8.846,7.83,4.389,10.161
-2.74,-1.578,4.338,3.388,2.454,-0.143,5.434,9.679
-15.706,-9.227,-4.066,-2.478,-3.739,-4.758,4.179,6.741
-17.47,-9.638,-8.34,-2.783,-5.529,-4.366,2.248,5.603
-9.427,-6.332,-9.119,-1.971,-4.411,-3.182,0.391,2.836
0.012,-2.815,-8.207,-2.589,-2.166,-2.981,-1.109,-1.313
6.769,2.471,-5.266,-1.305,0.894,-0.788,-0.993,-2.184
8.337,7.417,-2.414,1.903,2.301,2.669,1.406,1.308
0.708,5.038,-5.21,1.675,-2.659,2.64,1.746,4.617
-10.63,-4.271,-12.861,-2.826,-11.848,-0.486,-3.185,3.554
-12.573,-10.713,-16.03,-5.371,-14.482,-1.062,-7.45,-0.068
-4.723,-8.456,-11.143,-2.512,-6.806,2.788,-5.646,-0.32
1.44,-1.723,-5.043,1.492,2.366,6.509,-1.818,3.746
1.412,2.054,-3.668,1.938,4.098,6.388,-0.088,6.469
-2.404,-1.742,-8.072,-1.631,-4.046,2.78,1.155,4.561
-8.522,-10.969,-16.048,-8.479,-16.07,-4.043,1.634,-0.986
-13.082,-16.933,-21.338,-15.691,-20.682,-11.608,-0.605,-7.102
-11.183,-15.656,-19.667,-17.541,-16.069,-12.618,-3.19,-8.168
-4.258,-12.564,-13.518,-12.846,-9.234,-4.952,-3.585,-3.309
1.334,-11.317,-6.429,-6.768,-1.8,2.962,-2.019,0.651
2.348,-9.954,-0.265,-3.376,4.801,3.898,1.101,0.47
1.525,-8.978,2.625,-3.172,4.389,-0.674,3.968,-1.216
1.901,-11.387,1.946,-4.667,-1.256,-5.499,4.673,-2.598
2.746,-15.633,0.634,-4.329,-3.951,-5.414,3.86,-1.229
2.733,-17.672,0.742,-1.87,-2.23,-1.367,1.618,2.985
1.502,-17.768,1.636,-2.822,1.125,-2.265,-1.667,2.18
-1.357,-18.923,1.851,-7.925,4.574,-9.661,-2.612,-6.008
-4.794,-21.616,1.074,-9.77,5.938,-12.383,-0.332,-9.476
-5.309,-23.043,0.532,-5.73,4.629,-5.505,1.613,-1.997
-0.466,-20.359,0.987,-2.149,3.995,1.329,1.542,5.956
5.283,-15.606,-0.125,-4.095,3.602,-0.776,1.112,5.432
3.841,-13.787,-5.959,-9.783,-3.024,-8.569,1.461,-0.632
-3.566,-14.094,-12.78,-14.112,-13.306,-13.031,2.008,-5.592
-6.345,-11.758,-13.546,-14.422,-15.07,-11.413,1.564,-7.617
-0.948,-8.343,-9.48,-12.802,-8.742,-9.852,0.557,-8.226
4.535,-9.185,-6.482,-11.331,-5.518,-11.951,1.411,-5.583
4.687,-12.5,-4.375,-7.654,-6.081,-10.43,3.988,2.055
3.897,-11.398,-0.555,-0.68,-4.37,-0.75,5.467,8.598
6.199,-4.904,3.274,4.709,-0.018,7.098,5.924,6.851
8.02,1.158,4.897,6.322,4.382,6.336,7.071,1.857
4.868,2.353,4.913,7.183,5.966,3.986,7.22,2.561
-1.318,-0.288,4.593,6.035,3.07,1.528,5.146,5.229
-5.754,-3.219,5.241,1.648,-1.014,-5.874,6.956,4.749
-8.099,-4.433,7.282,-0.455,-1.957,-12.407,16.179,3.986
-9.873,-3.393,8.885,2.099,0.303,-10.52,20.966,1.817
-7.765,-0.256,9.028,5.613,3.994,-3.195,11.027,-3.467
1.107,2.178,8.827,7.553,7.268,2.674,-3.283,-7.306
10.063,0.256,7.805,5.961,6.944,2.161,-8.084,-8.579
8.952,-4.827,4.633,-0.372,2.135,-5.121,-4.834,-9.041
-0.075,-7.37,2.141,-6.302,-1.364,-10.956,-0.22,-6.245
-3.544,-4.188,5.263,-3.953,3.494,-5.053,4.524,0.336
1.876,0.875,12.639,4.913,13.619,8.26,9.307,5.918
4.861,1.569,16.458,9.704,17.149,13.64,12.245,8.249
1.733,-2.397,13.404,6.223,10.944,8.293,11.772,9.508
2.09,-5.309,8.907,0.698,5.319,2.84,9.094,10.029
10.475,-1.604,9.482,1.014,8.131,4.577,9.369,10.648
19.849,8.501,16.014,9.349,16.398,12.685,15.339,15.289
21.78,16.993,21.962,17.926,21.091,18.955,20.377,20.776
15.943,16.948,19.617,17.061,15.71,16.136,16.727,19.034
9.493,11.673,11.159,9.349,5.233,9.312,7.671,11.853
7.248,8.222,5.586,4.572,0.481,7.233,2.888,7.661
7.709,8.453,5.429,5.661,2.826,9.883,5.228,9.805
10.051,11.564,6.344,9.287,5.478,13.349,9.101,14.36
14.911,17.795,6.373,13.02,5.165,17.034,10.477,15.618
18.119,24.716,7.081,16.15,3.695,21.899,11.22,12.852
15.128,26.557,8.059,17.168,3.343,25.42,12.711,8.297
7.842,21.902,6.526,14.663,4,22.757,13.079,4.287
0.7,17.362,2.827,11.036,4.473,16.252,11.868,4.387
-1.762,20.29,2.281,11.509,6.883,15.654,12.575,10.059
4.24,29.404,8.009,17.653,13.729,23.875,18.449,19.343
14.624,35.791,14.568,24.031,20.072,32.432,24.866,27.258
19.189,34.109,13.342,22.992,16.824,31.803,22.239,26.455
16.603,29.021,4.5,14.825,4.955,22.565,11.275,16.7
15.555,27.933,-1.185,9.501,-1.712,16.164,4.471,8.768
17.055,29.851,1.788,11.632,2.65,18.271,7.898,10.058
13.941,28.291,4.997,13.885,6.027,21.127,13.415,14.859
7.997,23.707,1.962,11.887,0.715,19.718,12.614,14.998
6.149,21.531,-2.01,9.717,-5.13,17.299,8.049,11.349
7.253,22.71,-1.297,10.385,-3.69,17.184,5.897,9.527
8.046,25.527,2.61,13.112,2.42,19.917,7.055,10.893
9.533,28.313,6.732,15.907,7.536,22.281,10.905,12.897
12.366,29.324,11.749,19.018,11.436,24.154,18.28,15.047
15.037,28.618,18.112,24.497,15.84,29.659,24.931,18.998
16.01,26.031,21.354,29.305,17.706,33.419,22.41,22.493
15.764,21.958,19.292,29.583,15.939,28.725,12.511,21.026
15.313,20.117,16.183,28.389,14.445,22.75,7.155,15.696
12.297,20.489,13.45,27.959,11.96,22.135,9.151,10.793
5.529,17.463,9.666,26.126,6.097,22.802,11.532,8.859
0.052,10.669,7.319,23.108,2.202,20.824,12.008,10.339
-0.705,5.821,7.096,20.391,2.356,17.206,10.714,10.972
0.95,4.933,5.698,18.015,1.045,14.766,7.484,7.955
4.086,5.763,3.675,17.081,-1.564,15.384,6.517,6.364
8.392,6.212,3.356,17.957,-0.597,17.028,7.282,8.001
9.027,5.227,3.363,18.866,1.987,17.44,3.451,7.983
2.8,4.596,2.706,18.988,1.104,17.457,-1.226,6.239
-5.023,7.349,2.807,17.986,-1.907,16.08,1.94,6.619
-6.595,11.856,4.604,15.504,-0.39,13.8,9.567,8.365
-1.394,12.686,7.129,12.144,7.036,14.634,12.372,6.961
4.227,8.677,7.953,7.906,12.6,15.663,8.988,1.489
5.969,4.233,7.065,3.879,12.141,12.301,4.235,-1.754
6.407,3.561,8.344,3.921,11.628,10.416,2.624,1.971
10.128,8.202,13.298,8.634,15.51,14.948,6.025,8.45
15.247,15.039,17.766,12.269,20.5,19.391,12.043,12.312
15.341,17.52,17.656,10.39,21.552,16.944,16.768,12.773
11.472,14.03,14.359,5.285,18.09,9.768,18.462,10.451
11.27,9.783,12.527,2.023,14.886,4.6,16.78,7.811
14.773,9.435,13.473,3.358,14.507,5.238,13.436,9.24
16.246,13.902,15.007,8.956,15.428,11.346,12.049,14.431
15.872,20.846,16.623,16.167,18.515,20.502,13.462,16.531
15.64,23.717,17.694,19.673,21.639,24.81,15.149,12.652
13.376,18.354,15.273,17.387,17.417,19.231,15.647,9.663
8.023,9.904,10.129,15.808,8.211,15.015,15.013,12.296
3.152,4.917,8.132,18.688,5.944,20.821,15.119,15.635
3.754,3.752,12.166,20.044,12.832,24.853,20.405,15.261
9.026,4.476,17.483,16.517,18.735,16.944,28.928,13.087
10.719,5.99,18.099,12.084,17.612,5.036,31.362,12.56
5.351,7.02,15.254,9.896,14.287,-0.172,25.417,15.166
0.416,6.114,12.925,9.34,11.927,1.183,15.905,16.018
2.668,4.207,11.375,10.118,8.319,5.351,7.484,9.64
10.006,5.588,12.654,15.095,9.139,14.364,6.359,3.995
15.66,11.021,18.421,22.539,19.724,25.75,12.409,6.839
14.072,13.029,21.514,22.596,27.066,25.928,15.474,9.791
5.793,5.929,16.515,13.422,19.569,12.365,11.928,7.176
-1.599,-4.291,9.602,6.099,7.22,1.85,8.842,4.863
-1.761,-7.838,6.669,6.654,1.117,3.977,8.879,4.982
2.6,-3.524,6.953,10.717,1.035,10.984,8.083,5.299
5.098,2.145,10.202,14.665,7.067,15.104,7.019,7.399
4.76,3.282,15.261,17.681,16.623,16.09,9.781,12.008
3.438,-0.999,16.686,17.137,20.073,14.561,14.268,14.578
0.88,-6.773,11.953,11.609,14.232,10.196,14.622,12.29
-0.088,-8.165,6.269,5.925,7.832,6.685,10.59,8.31
6.754,-2.128,6.794,6.593,9.92,8.835,7.877,7.061
18.123,7.572,12.285,11.754,16.161,13.36,10.344,8.655
20.749,12.707,12.957,12.782,13.253,12.605,14.744,9.503
11.708,9.725,6.639,8.422,2.422,7.589,15.778,9.154
3.252,2.854,2.394,5.753,-1.559,5.736,12.7,9.358
1.788,-2.911,3.058,5.282,2.372,6.298,8.101,7.069
2.493,-4.362,3.845,2.472,4.271,3.511,6.052,0.929
4.983,0.865,6.035,1.035,5.676,0.713,9.269,-1.035
11.967,8.97,11.904,5.309,11.194,3.221,14.066,5.662
17.671,11.324,14.475,8.364,12.796,5.255,13.731,10.281
14.793,6.348,8.527,3.993,5.189,0.684,7.483,3.082
5.671,0.82,0.684,-1.908,-2.287,-4.928,1.701,-7.37
-2.59,-1.457,-2.481,-3.399,-3.513,-6.196,1.105,-8.721
-6.849,-3.472,-3.71,-4.187,-4.204,-7.287,2.237,-4.272
-6.827,-7.322,-6.01,-7.586,-7.47,-10.98,0.626,-3.584
-1.788,-9.561,-6.146,-9.995,-8.159,-14.005,-0.934,-5.88
6.577,-6.865,-2.487,-9.033,-3.561,-15.008,1.083,-4.995
11.798,-2.811,-0.717,-7.566,0.246,-14.697,3.095,-2.004
9.435,-3.811,-4.676,-8.198,-1.619,-13.39,1.908,-2.263
3.626,-8.977,-8.929,-9.874,-4.353,-12.243,1.648,-5.859
-0.651,-11.925,-8.323,-10.255,-3.505,-11.182,4.791,-8.457
-6.096,-12.066,-6.899,-10.049,-3.682,-10.411,6.19,-7.027
-14.485,-12.884,-9.224,-11.753,-8.24,-11.834,2.573,-4.093
-19.273,-13.066,-12.635,-14.887,-12.847,-15.077,-2.995,-6.138
-15.398,-11.12,-15.019,-17.337,-16.062,-18.55,-8.721,-12.328
-5.597,-9.275,-16.376,-17.015,-18.714,-20.406,-13.102,-13.076
4.649,-6.995,-13.101,-12.33,-15.922,-18.312,-11.261,-6.495
9.394,-3.47,-5.721,-6.66,-7.961,-14.177,-4.675,-2.651
5.091,-2.732,-1.991,-5.132,-3.938,-11.715,-1.707,-6.106
-3.737,-5.406,-3.812,-6.551,-5.549,-11.095,-3.822,-9.353
-8.757,-5.716,-5.494,-7.669,-6.338,-12.449,-5.996,-8.242
-8.057,-2.579,-5.788,-8.055,-6.401,-13.906,-6.945,-7.913
-5.354,-1.698,-7.817,-6.203,-9.729,-9.771,-6.987,-9.982
-3.201,-4.732,-10.132,-2.135,-12.296,-2.995,-1.9,-8.747
-4.143,-8.403,-10.962,-1.474,-10.507,-4.118,9.335,-3.763
-9.403,-12.687,-14.87,-8.002,-11.87,-13.432,14.519,-3.905
-13.413,-18.04,-23.264,-17.261,-20.579,-20.821,2.181,-12.57
-11.548,-19.689,-27.776,-21.405,-25.678,-19.105,-16.364,-20.311
-8.178,-14.715,-23.421,-18.789,-19.466,-11.888,-22.551,-20.45
-8.774,-9.769,-19.08,-17.092,-14.253,-11.402,-21.378,-18.521
-11.679,-12.823,-23.257,-21.916,-21.821,-22.229,-24.973,-17.848
-11.884,-20.374,-29.071,-26.494,-31.208,-31.907,-25.353,-12.546
-8.694,-22.868,-27.065,-23.116,-28.487,-29.624,-15.675,-2.407
-3.951,-18.442,-20.239,-16.102,-19.255,-21.702,-8.357,1.899
2.551,-11.178,-14.802,-12.013,-13.373,-16.191,-9.269,-3.687
7.913,-3.34,-10.062,-9.063,-8.461,-10.528,-5.352,-9.127
5.683,1.571,-5.296,-5.449,-1.495,-4.094,7.204,-8.59
-3.056,-1.243,-4.786,-4.412,0.545,-2.795,11.898,-7.524
-9.613,-8.747,-10.529,-6.799,-8.056,-7.899,1.22,-8.002
-10.505,-12.821,-17.346,-9.721,-19.801,-13.743,-9.682,-7.287
-9.989,-12.265,-20.234,-11.222,-24.181,-14.875,-9.911,-6.717
-11.991,-12.423,-21.757,-12.752,-23.259,-14.702,-8.997,-9.94
-14.686,-14.843,-24.68,-16.99,-22.536,-21.382,-13.672,-16.994
-12.794,-15.297,-25.522,-20.967,-20.418,-29.208,-15.075,-21.608
-5.442,-12.196,-21.395,-17.791,-16.804,-23.689,-4.873,-16.949
2.971,-8.579,-13.882,-8.765,-12.972,-8.667,13.809,-7.499
8.281,-7.15,-10.148,-5.762,-10.864,-5.028,18.418,-6.813
8.129,-8.028,-16.629,-13.676,-15.739,-17.921,-9.427,-16.818
1.224,-9.202,-25.092,-20.342,-23.114,-27.313,-41.391,-23.376
-12.112,-11.109,-24.93,-17.805,-22.97,-21.34,-42.974,-20.487
-25.229,-15.939,-21.224,-14.929,-18.291,-13.476,-28.74,-16.525
-25.977,-19.348,-18.719,-16.306,-14.141,-15.554,-19.674,-13.399
-12.984,-16.247,-12.191,-15.039,-7.12,-20.633,-7.771,-5.125
-2.304,-13.138,-5.152,-12.68,-1.563,-22.717,6.149,3.252
-6.697,-18.248,-8.946,-18.207,-8.31,-27.84,2.635,-1.641
-18.293,-25.432,-19.345,-25.871,-21.094,-34.003,-15.083,-16.076
-21.319,-23.418,-20.12,-20.502,-22.052,-26.921,-18.489,-19.233
-13.857,-14.467,-9.725,-4.096,-10.721,-7.169,-0.116,-5.45
-5.887,-9.265,-2.102,5.955,-2.566,5.408,14.959,6.731
-2.587,-8.775,-2.862,3.928,-2.76,1.948,10.132,3.459
-2.075,-5.509,-4.192,0.454,-2.864,-6.282,-1.139,-6.183
-2.045,2.248,-0.64,2.302,2.24,-9.142,-2.197,-8.161
-2.074,7.56,3.672,5.212,7.545,-7.24,3.642,-4.33
-4.682,2.65,2.184,4.035,5.047,-5.875,5.921,-3.23
-10.186,-10.553,-4.505,0.147,-4.014,-8.003,2.781,-2.927
-13.9,-20.181,-9.932,-1.545,-10.421,-9.88,-2.47,0.888
-14.145,-19.584,-11.152,-0.346,-10.898,-7.126,-4.656,2.207
-11.778,-12.752,-8.003,1.615,-5.036,-1.525,0.638,-2.584
-5.436,-5.181,-0.478,5.421,8.315,3.851,10.091,-4.076
1.211,-1.606,4.227,8.881,16.229,5.677,15.91,2.032
-0.527,-5.997,-3.155,3.026,3.332,-1.604,10.838,2.09
-10.025,-15.239,-17.215,-11.573,-19.121,-14.939,-7.357,-12.669
-17.394,-21.085,-24.018,-21.655,-29.896,-23.751,-25.934,-27.649
-19.343,-21.273,-21.803,-22.848,-28.302,-27.686,-30.685,-29.051
-19.615,-19.35,-17.532,-21.511,-22.655,-30.511,-25.722,-23.142
-17.344,-15.792,-11.444,-18.052,-13.107,-27.084,-18.569,-17.472
-9.823,-10.283,-3.008,-11.319,-2.466,-17.253,-10.018,-11.882
-0.726,-6.101,0.889,-7.658,0.198,-11.412,-5.556,-9.384
5.223,-3.028,-0.568,-8.964,-1.842,-11.666,-7.372,-11.008
8.933,2.883,0.932,-8.144,3.425,-10.724,-7.875,-10.415
10.491,6.619,3.108,-5.728,9.75,-10.404,-7.45,-7.682
5.111,-2.015,-3.597,-10.506,2.693,-17.186,-11.625,-10.561
-6.781,-18.9,-14.453,-20.816,-10.646,-25.648,-15.26,-18.396
-16.077,-29.376,-18.809,-26.045,-16.168,-27.919,-14.571,-22.53
-17.337,-28.527,-17.036,-22.703,-15.488,-25.451,-13.868,-19.284
-14.564,-22.151,-12.506,-15.279,-11.818,-20.139,-10.692,-12.201
-11.994,-15.981,-4.643,-8.828,-1.514,-12.68,0.603,-6.002
-9.67,-12.347,2.27,-6.394,9.126,-9.196,9.874,-3.328
-9.175,-11.566,0.287,-8.22,6.295,-13.017,1.736,-5.078
-11.714,-13.348,-7.587,-11.15,-5.9,-17.155,-15.294,-8.92
-12.109,-16.893,-10.215,-11.544,-10.188,-15.511,-19.902,-9.682
-7.57,-20.322,-6.917,-9.833,-5.891,-12.005,-11.21,-6.08
-5.721,-21.292,-6.333,-9.054,-5.586,-11.976,-3.196,-3.064
-10.718,-18.408,-9.418,-9.271,-9.981,-13.218,-1.336,-3.42
-13.704,-12.939,-9.382,-8.154,-10.173,-11.079,-3.333,-3.454
-8.866,-8.268,-5.078,-5.899,-5.248,-6.752,-8.036,-1.869
-3.241,-6.282,-1.654,-4.946,-0.933,-5.499,-13.199,-2.695
-1.317,-4.898,1.191,-4.758,3.912,-7.091,-12.061,-4.103
3.694,-0.21,9.812,-1.2,16.179,-3.634,-1.069,-0.012
13.658,6.359,21.084,4.507,30.716,5.559,10.63,5.953
18.044,7.619,21.582,4.331,29.631,8.235,12.873,6.978
11.698,2.168,9.869,-2.88,11.027,-0.945,10.773,6.284
1.504,-3.446,-1.349,-10.55,-5.403,-13.073,10.314,6.12
-5.632,-5.215,-6.138,-16.702,-9.079,-20.999,6.646,0.124
-6.023,-4.387,-6.479,-21.172,-5.267,-23.779,2.217,-9.526
1.881,-2.36,-2.466,-19.378,1.888,-20.2,5.534,-10.374
13.244,0.805,3.826,-11.229,9.281,-12.761,11.994,-1.889
17.702,2.639,5.02,-6.221,9.144,-9.775,10.459,2.925
10.15,-0.725,-3.108,-10.152,-2.618,-12.812,-3.717,-2.872
-1.962,-7.975,-14.577,-16.75,-17.207,-14.987,-25.134,-14.642
-8.755,-14.165,-20.444,-19.974,-22.592,-16.167,-39.568,-23.864
-8.628,-15.24,-18.166,-20,-17.221,-19.285,-39.924,-23.706
-4.458,-9.45,-10.956,-16.028,-7.726,-18.078,-33.194,-15.137
0.88,-0.695,-3.903,-8.337,-1.512,-9.679,-22.651,-5.931
5.913,6.235,2.212,0.06,2.098,-0.501,-4.285,1.107
11.204,12.514,11.045,7.875,11.769,7.147,14.026,7.246
14.12,16.335,17.82,11.228,22.394,11.146,13.658,8.25
10.606,11.221,13.192,6.243,17.333,6.499,-4.031,3.399
5.178,1.402,4.146,-0.638,3.322,-1.77,-12.76,1.71
4.545,-2.107,4.166,-2.241,1.362,-4.513,-2.366,4.288
5.992,1.756,10.223,-0.641,9.397,-1.579,9.538,2.874
5.229,7.711,13.373,2.543,14.003,3.104,13.356,0.798
5.016,12.918,13.096,7.728,13.617,7.337,13.04,6.935
8.083,15.097,10.714,9.762,11.118,8.88,6.519,13.132
10.576,12.06,6.438,4.372,7.883,5.021,-4.829,7.135
8.801,6.18,3.04,-2.103,5.971,-0.985,-7.846,-1.354
5.743,3.151,2.521,-1.331,5.276,-0.75,0.497,2.789
5.017,3.372,1.128,1.909,1.392,2.364,4.854,11.44
6.381,3.293,-3.361,-1.557,-5.95,-2.843,-1.288,9.582
8.06,3.787,-5.502,-7.442,-9.014,-11.722,-6.274,2.359
7.015,5.854,-4.389,-7.441,-7.96,-11.792,-8.836,2.403
3.653,6.93,-4.758,-3.885,-9.172,-4.43,-17,7.633
5.011,7.828,-1.449,-0.546,-4.541,2.766,-17.042,9.362
13.586,11.583,11.053,4.826,12.541,8.671,6.249,9.013
21.872,16.512,22.287,12.282,26.312,14.305,31.43,12.462
22.865,17.865,21.386,16.22,23.551,16.946,30.89,17.816
17.844,13.659,11.837,11.374,10.823,10.799,14.604,17.431
15.049,8.57,2.593,0.611,-1.114,-1.952,5.467,8.489
18.894,9.86,-1.249,-5.456,-6.234,-7.015,1.426,-0.641
20.649,16.324,-1.339,-3.467,-5.466,-1.474,-9.52,-1.576
12.04,18.01,-3.792,-3.145,-7.422,-2.401,-23.095,0.904
0.082,10.447,-9.775,-9.579,-14.771,-14.499,-28.162,-1.709
-3.818,2.749,-11.795,-12.754,-16.722,-18.305,-22.415,-6.456
1.756,4.144,-5.394,-4.935,-7.236,-6.019,-9.406,-2.977
8.681,8.596,1.104,3.703,2.39,2.865,1.038,7.031
8.424,6.484,-1.985,0.824,-0.448,-4.637,-2.573,9.105
1.842,2.115,-10.674,-7.643,-12.671,-14.36,-13.884,1.485
-3.407,3.515,-13.415,-8.44,-19.604,-10.424,-14.443,-1.19
-5.218,7.009,-7.595,-1.828,-13.905,1.015,-0.362,8.046
-5.757,6.658,-0.365,3.189,-4.064,6.447,16.598,21.067
-2.599,6.8,3.889,4.398,1.334,6.133,24.406,27.164
3.829,12.192,5.682,5.625,2.84,8.966,17.025,23.718
5.878,16.615,4.425,8.117,1.505,16.728,-1.324,17.057
2.194,12.162,-0.111,8.022,-2.997,18.892,-16.185,12.171
0.169,3.492,-3.287,2.658,-6.284,7.421,-13.558,8.005
3.584,2.83,1.53,-2.088,-0.04,-5.213,7.276,5.81
6.655,9.095,10.233,-1.499,12.103,-4.221,27.12,6.135
1.582,8.136,8.706,-2.491,11.215,0.132,24.836,3.591
-6.898,0.078,-2.231,-8.244,-4.242,-6.27,6.394,0.219
-6.042,-0.197,-6.485,-9.833,-11.993,-13.072,-9.743,2.405
2.635,7.342,-2.071,-5.466,-6.09,-8.765,-21.077,4.355
5.581,9.175,0.275,-4.466,-1.627,-4.568,-25.741,0.73
-0.184,4.043,0.237,-7.652,-1.909,-8.952,-16.174,-1.263
-6.524,0.172,3.508,-7.203,1.491,-10.636,-1.677,2.897
-8.338,-1.156,6.984,-3.608,6.418,-3.676,1.134,6.451
-5.003,-1.284,6.343,-2.551,5.841,2.461,-4.82,4.907
0.889,2.313,6.214,-2.416,4.501,2.574,-4.88,5.147
2.608,8.718,10.725,0.108,9.785,1.768,3.323,11.024
-3.079,9.953,14.203,1.443,16.056,2.609,10.002,14.162
-10.781,2.854,11.085,-0.342,13.971,3.733,10.355,9.862
-13.509,-2.838,6.667,0.102,7.81,6.848,8.343,5.217
-10.65,-0.946,6.492,2.077,6.401,8.108,5.754,5.482
-7.182,-0.168,5.569,-2.376,5.929,-1.214,-0.167,6.174
-6.36,-4.921,0.399,-10.452,-0.109,-14.704,-6.597,3.318
-6.633,-5.864,-2.715,-10.887,-6.541,-16.619,-5.427,2.328
-6.074,1.376,0.32,-2.357,-5.618,-5.619,2.782,8.43
-4.618,9.312,5.476,6.691,1.353,6.67,8.465,15.586
-1.873,12.922,9.895,11.114,9.23,12.473,9.721,15.71
0.59,12.983,12.92,11.163,13.827,11.735,11.242,10.89
-2.317,8.619,9.528,6.462,9.043,6.173,7.988,6.943
-8.53,2.366,0.671,-0.143,-1.865,1.526,-3.488,5.088
-6.746,1.974,-1.14,-0.865,-2.413,5.637,-10.985,4.307
3.197,6.452,6.41,3.827,8.356,13.022,-7.3,3.763
5.173,6.226,10.051,4.77,10.853,10.111,-0.255,4.365
-7.744,-0.593,4.299,0.189,0.154,-0.92,3.594,6.825
-22.461,-7.601,-3.262,-4.654,-9.131,-8.123,4.496,6.958
-27.192,-12.264,-7.136,-8.3,-10.673,-11.188,5.046,2.741
-23.208,-14.638,-6.989,-9.464,-8.82,-12.749,7.64,1.054
-14.746,-10.58,-2.933,-4.699,-4.743,-7.694,11.781,5.76
-6.128,-0.001,2.474,2.914,0.591,3.137,13.034,9.834
-3.11,6.417,4.476,5.878,1.667,9.528,7.367,8.356
-6.97,0.401,2.158,2.972,-3.537,6.447,-0.108,6.272
-13.294,-10.223,0.925,0.06,-6.839,1.079,0.336,7.416
-16.059,-11.158,6.305,2.313,0.387,3.372,7.527,8.558
-12.739,-1.873,15.176,8.162,11.973,11.455,12.416,7.612
-7.307,5.664,19.277,13.208,14.173,15.773,11.876,7.629
-2.891,6.46,17.992,17.653,7.316,16.205,10.107,11.078
2.505,7.229,17.209,22.526,3.481,18.74,10.423,15.574
7.565,12.333,18.406,24.295,6.939,21.14,13.536,18.167
7.183,15.889,18.912,20.529,11.927,18.077,21.421,20.49
1.619,11.385,15.098,13.707,10.402,11.985,24.543,22.19
-2.66,4.25,5.995,8.066,0.863,9.048,6.569,17.568
-1.584,3.696,-1.318,5.118,-5.235,9.237,-20.392,6.4
-0.31,4.835,-2.862,0.999,-2.487,6.469,-30.919,-4.872
-5.598,-1.91,-4.903,-5.743,-3.055,1,-26.233,-11.659
-14.82,-11.575,-7.972,-9.061,-9.097,0.414,-16.825,-11.897
-20.999,-14.045,-5.491,-6.486,-6.809,4.428,-3.38,-6.648
-20.484,-9.695,0.063,-2.869,2.959,6.335,6.829,-1.156
-13.114,-5.23,1.077,-1.255,6.471,5.653,1.997,0.34
-4.349,-5.227,-1.707,-1.993,3.524,3.565,-12.215,-2.259
-2.9,-8.856,-3.311,-5.126,1.326,-0.762,-15.335,-6.218
-10.387,-10.602,-2.874,-7.763,-0.425,-3.409,-1.779,-7.988
-20.043,-8.344,-2.766,-7.534,-3.835,-2.037,8.871,-6.612
-25.154,-6.814,-5.1,-7.063,-8.882,-2.428,2.068,-4.399
-22.57,-7.624,-7.363,-8.117,-12.265,-6.66,-8.879,-3.47
-12.68,-5.313,-3.87,-7.801,-7.59,-7.896,-5.724,-4.045
-1.806,2.21,3.503,-4.733,2.951,-1.999,3.667,-6.021
-0.049,8.197,4.791,-2.655,6.575,4.86,-0.035,-9.356
-9.369,5.78,-2.548,-4.337,-1.822,4.685,-12.251,-11.053
-17.889,-1.771,-7.966,-5.933,-10.095,0.168,-12.318,-7.143
-15.434,-5.149,-2.975,-2.561,-4.929,-0.469,3.46,0.488
-7.339,-2.149,6.751,3.962,8.621,4.322,21.097,6.829
-3.806,2.026,9.416,8.11,12.951,10.937,26.806,9.403
-7.142,3.255,0.975,6.309,1.426,14.043,12.332,5.261
-13.587,0.831,-11.24,-0.526,-13.313,9.49,-16,-6.254
-16.971,-2.123,-15.777,-5.838,-16.023,1.8,-34.089,-16.178
-13.213,-2.146,-9.615,-5.398,-7.019,-1.832,-28.688,-15.278
-4.876,-0.525,-1.35,-2.753,1.124,-0.608,-13.535,-7.165
3.45,1.577,1.607,0.482,1.192,5.731,-4.071,-0.652
7.98,5.029,0.481,5.519,-2.976,14.109,-0.192,2.79
4.993,7.886,-1.837,8.946,-6.363,15.3,2.362,5.492
-2.21,9.487,-4.131,8.998,-7.858,9.911,3.065,6.475
-4.378,12.158,-5.188,8.395,-8.151,7.313,1.55,4.952
1.59,15.675,-4.242,8.139,-7.102,9.342,0.976,3.626
10.77,18.904,-0.85,8.538,-1.955,11.895,2.237,3.268
16.189,20.729,3.464,9.713,6.208,11.876,1.971,2.69
13.562,18.827,4.537,10.336,8.65,10.32,1.214,3.892
5.822,15.418,1.996,11.331,3.162,12.496,7.651,7.734
0.344,15.583,0.726,13.951,-0.033,18.606,21.574,10.143
-0.079,18.399,0.637,15.263,1.384,22.317,27.649,7.813
2.688,21.037,-2.878,14.546,-1.873,22.799,16.915,3.604
7.558,23.624,-6.483,15.629,-7.486,23.197,6.144,3.182
12.741,23.288,-4.839,16.85,-5.775,20.163,7.011,4.585
14.08,16.872,-1.898,13.803,-0.842,12.177,5.385,1.229
9.844,9.172,-0.906,10.598,0.029,7.65,-0.431,-3.443
4.63,7.307,0.101,11.77,-1.418,10.906,2.01,-3.598
5.107,11.744,0.383,13.907,-2.514,16.437,0.259,-5.031
9.671,16.328,0.316,14.552,-0.928,19.944,-16.552,-11.839
9.061,15.176,3.705,15.406,4.816,19.476,-22.188,-14.996
2.188,11.109,8.915,16.474,9.747,14.504,-0.94,-9.043
-2.868,8.927,6.622,13.56,4.78,8.315,12.459,-4.729
-4.341,4.307,-6.857,3.929,-12.01,2.396,-8.244,-10.523
-5.487,-4.367,-18.803,-5.608,-26.1,-3.676,-30.729,-17.339
-4.663,-7.089,-16.795,-6.681,-22.412,-6.253,-24.859,-15.845
0.109,1.072,-7.34,-2.379,-8.006,-3.032,-11.227,-10.651
5.106,10.574,-1.968,-1.11,1.622,0.078,-9.501,-9.491
6.036,12.462,0.719,-2.792,5.874,-0.716,-5.568,-10.806
4.026,10.886,5.6,-0.445,9.093,0.759,8.169,-7.438
3.352,13.031,8.514,5.625,7.436,6.567,13.164,-1.635
6.91,16.944,5.916,8.258,1.704,10.93,-0.658,-4.267
15.203,19.175,4.382,8.015,2.186,13.993,-14.972,-14.359
23.253,20.652,8.594,8.858,10.255,15.513,-10.713,-17.787
22.091,19.349,12.102,7.172,14.388,8.668,4.022,-10.548
12.723,13.979,10.29,2.509,10.581,-1.126,8.785,-3.477
6.746,10.072,8.043,1.609,7.13,0.22,1.437,-3.076
7.895,9.899,8.744,4.461,7.594,9.029,-4.616,-6.281
11.056,10.126,10.947,5.755,9.222,10.732,-2.937,-9.515
16.154,12.119,14.428,6.469,12.464,6.266,2.206,-10.791
25.618,19.121,19.181,10.201,18.251,8.029,5.15,-9.179
33.359,26.24,22.389,14.779,23.012,16.78,4.72,-5.923
29.261,25.882,20.569,16.025,21.282,22.456,5.177,-3.845
16.673,21.201,15.649,15.617,14.993,22.265,9.768,-3.245
13.13,21.566,15.344,18.729,15.488,22.832,16.457,-0.238
23.231,25.243,20.914,24.19,24.689,26.617,22.748,4.321
28.73,22.591,21.187,22.867,25.575,24.253,22.483,2.736
18.212,13.616,9.677,11.308,9.253,10.083,9.387,-5.849
2.972,6.007,-3.017,-0.237,-7.132,-2.654,-5.792,-13.075
-4.199,2.216,-7.175,-3.309,-9.531,-2.155,-10.781,-14.792
-2.472,1.592,-6.394,-1.538,-5.799,3.904,-11.588,-12.66
4.47,5.497,-4.014,0.968,-2.935,6.351,-11.654,-6.905
11.37,10.841,-0.573,2.992,0.088,5.306,-6.61,-2.078
13.953,12.386,-0.447,1.954,0.54,2.642,-1.761,-5.945
15.006,12.903,-3.925,0.095,-2.279,2.537,-3.192,-13.661
16.054,14.323,-6.313,1.342,-3.978,6.704,-6.167,-15.8
12.594,11.009,-6.345,2.191,-2.521,7.981,-3.441,-15.111
8.136,5.477,-3.475,1.268,2.379,4.327,6.161,-14.525
11.02,7.605,1.808,3.422,8.371,3.872,12.147,-11.718
15.844,13.645,2.421,5.459,8.095,6.908,0.788,-12.617
12.421,11.327,-5.399,0.194,-0.859,5.087,-20.63,-22.504
5.081,2.035,-12.769,-6.998,-9.115,-0.697,-29.759,-31.885
4.662,-2.359,-10.695,-6.671,-8.029,-2.373,-21.714,-30.384
11.386,1.355,-3.096,-1.425,-2.026,-0.15,-9.867,-21.305
16.388,6.336,1.415,1.171,1.284,1.75,-3.385,-15.969
14.897,9.017,1.73,1.094,2.523,4.605,-2.034,-19.314
10.723,10.434,-0.419,1.192,1.098,6.324,-3.39,-23.375
9.451,9.859,-4.405,1.425,-5.008,2.514,-4.961,-19.878
11.476,7.579,-5.522,2.404,-7.632,-1.156,-3.049,-12.549
10.619,4.884,-2.195,3.236,-2.665,-0.309,2.824,-9.54
3.456,1.712,-1.873,0.375,-1.041,-1.069,5.32,-12.427
-2.503,0.175,-7.489,-5.048,-7.229,-4.756,-3.356,-17.471
0.176,1.55,-11.383,-7.962,-10.901,-5.387,-17.175,-20.579
8.08,3.634,-8.838,-6.819,-7.256,-2.457,-20.952,-19.712
14.991,7.049,-4.726,-3.695,-3.359,1.552,-13.23,-17.848
19.07,13.332,-3.605,-0.782,-3.864,5.795,-4.365,-18.909
17.987,16.861,-4.648,-0.758,-6.838,4.199,2.336,-19.934
10.567,11.286,-6.014,-4.689,-8.87,-5.908,5.864,-17.028
3.688,0.751,-6.971,-8.573,-8.377,-13.308,3.043,-13.823
4.301,-5.979,-8.247,-9.625,-8.314,-12.616,-1.89,-14.995
10.104,-5.478,-9.688,-10.064,-10.413,-12.45,-3.486,-18.537
16.06,2.249,-7.511,-8.964,-8.817,-12.879,-3.302,-18.948
20.39,13.701,-0.378,-2.938,-0.039,-4.995,-2.238,-14.904
22.922,20.381,4.971,3.717,7.154,6.996,-3.085,-12.149
24.017,18.665,2.89,3.722,4.712,8.794,-12.57,-14.723
21.798,13.188,-2.262,-1.179,-2.253,-0.835,-23.475,-17.849
13.027,7.324,-4.301,-3.962,-6.552,-7.989,-20.159,-17.2
0.92,2.282,-3.376,-2.655,-6.832,-5.795,-6.373,-15.127
-6.662,0.105,-2.415,-0.367,-4.29,-1.514,0.815,-14.087
-6.511,0.799,-2.762,0.898,-3.048,-0.416,-2.197,-13.34
0.812,3.745,-2.087,3.157,-3.763,0.891,-4.395,-10.049
12.787,8.208,3.069,7.982,0.925,5.492,1.088,-3.286
19.802,9.691,8.714,10.811,10.064,9.494,8.164,0.659
13.118,5.669,6.48,6.739,9.696,6.563,8.926,-3.829
0.38,1.394,-1.23,-0.008,-1.258,-0.998,5.935,-10.209
-3.814,1.177,-3.984,-1.946,-5.603,-3.395,3.399,-9.901
0.932,1.893,-0.133,0.953,3.111,2.562,-0.51,-6.355
3.885,-0.224,2.59,3.685,10.062,9.526,-2.939,-5.637
0.425,-4.596,-0.546,3.276,2.959,9.997,-0.252,-5.883
-3.785,-8.145,-4.876,1.8,-8.518,6.43,1.72,-4.445
-1.18,-6.835,-2.256,5.246,-7.231,8.849,1.712,-1.76
8.617,0.465,6.511,14.303,4.864,18.89,7.401,2.066
17.19,8.364,11.469,19.512,11.118,24.506,16.649,5.842
17.664,11.632,8.818,14.944,7.454,19.219,17.727,6.091
11.85,10.169,3.753,6.289,2.812,10.607,8.624,0.082
3.471,3.888,-1.535,-1.113,-2.059,3.525,0.297,-8.953
-3.217,-4.328,-6.19,-6.051,-9.005,-3.07,0.214,-12.657
-1.182,-5.6,-5.407,-5.392,-9.747,-5.27,2.061,-9.186
8.016,1.059,0.286,0.279,-1.922,-1.307,-0.267,-5.21
12.074,5.922,3.763,4.436,3.44,2.463,1.03,-3.82
6.732,5.637,3.273,5.103,2.028,3.929,11.687,-2.536
2.743,6.08,2.994,5.901,1.381,7.188,19.733,-0.683
8.612,9.969,4.444,8.577,4.565,13.089,13.146,-0.035
15.733,12.691,5.581,11.432,6.963,17.885,-0.527,-1.794
10.117,8.473,4.119,10.097,4.63,15.501,-5.825,-4.695
-4.101,-0.384,0.501,2.755,-1.72,5.026,-0.944,-5.673
-9.767,-4.712,-1.183,-4.062,-5.885,-3.943,3.374,-5.358
-2.944,-2.738,0.413,-4.414,-3.747,-4.224,1.329,-7.927
5.426,-1.838,1.196,-2.199,-0.052,-0.329,-2.021,-12.828
8.247,-3.991,0.498,-2.317,1.402,1.368,0.45,-13.351
8.318,-2.968,2.792,-2.602,3.839,0.408,8.835,-5.755
9.604,3.217,6.663,-0.613,6.26,-0.823,13.869,3.255
9.766,7.742,5.33,0.875,2.342,-1.736,8.336,3.96
5.56,5.468,0.07,-0.77,-5.246,-3.734,-0.113,-2.194
0.48,-0.235,-1.768,-3.353,-7.391,-6.639,-1.396,-6.196
-1.06,-3.973,0.477,-3.202,-3.164,-6.849,1.022,-6.438
0.49,-3.295,3.298,0.52,2.936,-0.805,1.912,-7.754
3.742,1.077,5.833,4.44,8.423,7.508,3.322,-10.588
8.663,4.394,6.686,4.25,9.678,8.85,5.539,-10.386
14.988,3.494,4.677,1.851,4.652,3.544,7.167,-4.818
19.803,1.434,3.049,2.106,-0.097,0.396,8.396,1.222
17.459,0.585,3.243,2.438,0.795,0.089,5.859,0.883
6.416,-1.747,0.492,-2.587,0.444,-3.622,-1.797,-4.514
-5.439,-5.993,-5.101,-9.039,-4.276,-8.764,-4.751,-7.825
-10.577,-8.977,-7.989,-9.93,-6.469,-8.048,0.091,-7.564
-13.659,-13.435,-12.239,-9.532,-11.08,-5.334,-3.078,-9.596
-20.006,-22.705,-22.28,-14.34,-24.827,-9.906,-16.994,-15.401
-21.424,-28.457,-27.032,-18.665,-32.696,-18.1,-19.896,-17.122
-11.839,-22.792,-18.553,-15.736,-22.926,-19.371,-6.913,-11.922
-2.211,-12.237,-6.878,-9.538,-8.109,-12.991,0.713,-8.528
-2.171,-5.796,-1.99,-6.084,-1.354,-6.322,-4.768,-12.18
-4.94,-3.1,-2.018,-5.955,-1.309,-4.262,-10.959,-18.012
-4.15,-1.994,-2.767,-7.727,-2.773,-6.733,-11.836,-19.687
-4.91,-4.908,-4.483,-10.694,-3.563,-11.642,-10.967,-16.161
-9.284,-11.74,-8.091,-13.583,-4.106,-16.045,-10.476,-12.17
-10.447,-16.258,-10.791,-13.547,-4.608,-15.805,-9.385,-11.008
-6.782,-15.486,-9.687,-9.53,-4.357,-9.186,-6.178,-10.764
-6.579,-14.401,-7.67,-5.197,-5.331,-1.295,-3.003,-10.656
-13.096,-16.116,-8.737,-3.585,-9.235,1.625,-4.917,-11.352
-17.412,-16.72,-10.407,-2.341,-11.56,0.748,-10.566,-10.724
-14.014,-14.582,-8.625,0.556,-7.805,0.249,-12.071,-7.879
-10.803,-14.391,-5.614,2.584,-1.965,0.585,-7.452,-5.053
-14.029,-17.404,-5.203,2.317,-0.1,1.501,-3.035,-2.944
-16.963,-17.151,-5.798,2.45,-1.524,4.251,-2.504,-0.862
-12.582,-9.461,-4.09,4.906,-2.072,8.272,-2.215,1.405
-4.871,0.396,-1.343,7.214,-0.582,10.065,0.284,3.121
-0.722,5.077,-0.971,7.237,0.785,9.91,1.744,2.527
0.067,3.62,-1.753,8.401,1.825,13.685,0.99,0.712
0.872,-1.657,-0.192,12.398,4.637,19.213,0.713,0.461
1.166,-8.817,2.407,13.79,7.288,16.511,1.816,1.567
0.205,-13.032,4.166,10.775,8.216,8.398,4.095,3.012
0.755,-9.737,6.813,8.458,10.573,5.962,7.089,3.48
1.85,-3.02,8.454,7.108,11.733,5.76,8.432,1.144
-1.517,-0.291,5.322,3.259,6.711,0.237,6.995,-1.639
-5.991,-0.282,1.474,-0.09,1.857,-3.159,4.921,-0.942
-4.137,1.573,1.461,-0.154,3.312,0.225,2.781,0.307
-1.052,1.529,-0.114,-1.678,2.971,0.555,-2.058,-3.504
-4.465,-2.913,-6.128,-5.403,-4.603,-4.206,-6.9,-8.112
-7.971,-3.312,-7.822,-4.195,-8.705,-3.392,-4.258,-4.249
-5.97,2.3,-2.79,1.831,-3.393,4.453,2.409,4.094
-5.394,1.647,-1.042,3.177,1.109,7.973,2.559,4.003
-8.83,-8.223,-4.189,-1.413,-0.05,2.651,-0.684,-1.616
-9.853,-14.488,-3.313,-2.679,0.456,-2.19,2.431,1.332
-7.41,-11.612,1.899,1.321,4.309,0.059,7.843,8.064
-6.396,-7.701,4.124,3.468,6.314,3.766,6.141,3.636
-8.371,-9.12,2.219,1.764,5.914,2.009,-0.308,-6.159
-10.965,-13.632,-0.613,0.358,4.331,-3.404,-3.828,-6.139
-12.552,-15.965,-3.047,1.748,1.272,-4.751,-4.012,1.457
-13.325,-14.721,-4.193,4.846,-0.44,1.141,-3.884,4.332
-13.872,-13.883,-3.814,6.297,0.886,7.072,-3.05,0.903
-15.917,-16.796,-4.423,2.814,0.06,4.183,-2.429,-1.77
-20.743,-21.138,-8.549,-4.802,-7.275,-5.664,-5.088,-3.231
-23.729,-22.653,-13.848,-11.322,-15.803,-12.616,-8.962,-7.866
-18.578,-20.832,-14.472,-13.259,-16.226,-12.841,-8.449,-11.998
-8.514,-17.727,-8.797,-10.864,-7.19,-9.582,-1.799,-6.799
-2.841,-13.93,-1.88,-4.949,3.597,-4.15,7.515,6.739
-5.352,-10.491,-0.15,-0.052,7.121,-0.104,12.756,14.797
-12.373,-10.263,-4.863,-1.827,1.648,-2.669,9.229,8.253
-17.48,-12.557,-8.948,-5.713,-3.223,-5.761,2.287,-2.758
-18.874,-14.307,-5.933,-4.032,0.486,-1.562,1.438,-4.017
-19.335,-15.741,-0.507,-0.066,5.367,3.389,5.745,3.59
-17.265,-16.468,-0.071,-0.017,2.776,0.837,7.252,9.838
-12.241,-14.951,-4.418,-3.207,-3.328,-6.314,3.394,7.521
-12.828,-14.714,-10.639,-6.87,-8.177,-11.518,-2.625,-0.918
-21.811,-18.665,-16.534,-9.821,-12.126,-12.71,-6.771,-6.458
-29.458,-22.474,-18.732,-12.129,-13.062,-13.115,-6.642,-6.387
-29.442,-21.782,-15.797,-13.9,-8.918,-15.033,-3.284,-5.16
-26.133,-18.904,-11.68,-14.385,-4.672,-15.85,-1.517,-4.327
-25.23,-17.954,-11.121,-13.567,-6.367,-14.339,-4.755,-2.38
-25.237,-17.922,-13.169,-12.169,-11.355,-12.653,-9.669,-0.752
-21.069,-15.677,-13.707,-10.266,-12.553,-9.504,-11.594,-2.583
-13.376,-11.511,-11.313,-6.775,-8.551,-0.23,-11.081,-6.66
-9.5,-9.239,-8.672,-3.331,-4.4,8.807,-9.806,-8.009
-14.784,-12.538,-10.179,-6.603,-5.538,0.522,-7.442,-5.449
-24.575,-17.771,-15.986,-16.466,-11.362,-21.908,-5.997,-4.187
-28.993,-17.654,-20.503,-21.509,-15.73,-32.857,-8.177,-7.047
-25.79,-14.041,-19.46,-16.253,-14.624,-23.798,-9.82,-7.869
-20.226,-12.839,-13.908,-7.126,-8.77,-9.67,-5.175,-1.522
-15.3,-12.99,-8.173,-0.929,-2.275,-2.324,1.117,5.52
-12.224,-12.187,-6.949,-0.569,-1.008,-3.396,-0.059,3.319
-12.973,-12.071,-10.166,-4.642,-5.117,-8.415,-7.191,-5.757
-14.693,-12.373,-11.041,-5.939,-6.493,-9.412,-9.677,-7.241
-12.411,-9.646,-5.503,-0.22,-1.023,-3.936,-3.4,3.491
-8.66,-4.239,0.157,6.105,3.583,2.375,3.131,10.987
-7.693,0.003,0.078,7.426,1.207,5.902,2.526,6.198
-7.252,1.873,-1.396,7.661,-2.416,7.459,-0.169,1.999
-6.336,0.399,-0.369,8.47,-2.684,5.445,1.219,5.848
-7.071,-5.638,-0.116,5.265,-2.706,-0.427,2.863,7.003
-7.08,-11.25,-2.117,-0.59,-3.292,-3.868,0.675,1.758
-5.107,-11.371,-3.655,-2.359,-2.766,-1.505,-0.954,0.751
-6.207,-10.803,-3.847,0.016,-2.276,1.392,1.557,6.818
-12.017,-16.119,-4.45,0.008,-2.962,-1.202,3.359,9.555
-16.693,-25.258,-6.992,-6.272,-4.597,-10.365,-1.161,3.038
-14.996,-31.685,-10.812,-15.442,-6.985,-20.604,-10.627,-6.68
-8.738,-32.163,-13.017,-20.89,-8.685,-23.764,-18.938,-12.434
-3.693,-28.192,-11.442,-21.203,-7.324,-20.998,-21.666,-13.91
-2.077,-23.172,-7.907,-20.885,-3.611,-22.138,-19.925,-13.666
-2.376,-19.96,-7.016,-22.168,-3.072,-28.186,-16.968,-12.099
-3.09,-19.813,-9.62,-21.972,-7.754,-28.797,-14.385,-8.178
-4.885,-22.54,-12.314,-20.779,-11.393,-23.877,-15.36,-5.651
-10.636,-27.354,-14.839,-24.814,-11.196,-26.34,-21.509,-10.96
-18.133,-31.71,-17.253,-31.623,-10.939,-34.729,-25.399,-19.481
-19.36,-31.733,-14.479,-30.162,-8.982,-32.923,-19.775,-19.715
-14.193,-28.101,-6.172,-20.925,-2.045,-21.035,-9.437,-11.289
-11.43,-26.69,-1.577,-15.792,2.432,-14.553,-3.304,-3.264
-13.293,-28.618,-4.938,-17.609,-2.88,-16.791,-2.737,-0.195
-14.256,-28.703,-8.839,-18.818,-10.237,-19.315,-4.48,0.303
-12.417,-25.811,-7.603,-17.406,-8.849,-19.953,-7.306,-0.743
-9.185,-23.215,-4.559,-17.843,-1.278,-21.758,-10.514,-4.999
-5.055,-22.05,-3.93,-20.104,2.33,-24.265,-11.363,-9.054
-2.466,-22.875,-4.947,-20.093,-1.074,-24.569,-8.807,-7.142
-4.72,-27.263,-5.357,-17.709,-5.143,-22.506,-6.623,-1.611
-11.711,-34.37,-5.781,-17.078,-5.077,-22.197,-8.072,0.417
-20.391,-40.828,-7.672,-19.67,-4.008,-25.709,-10.671,-1.983
-24.941,-42.375,-8.961,-20.989,-5.521,-27.524,-9.916,-4.399
-19.837,-35.324,-6.026,-16.518,-6.264,-22.357,-5.982,-4.678
-10.067,-23.539,-0.764,-9.321,-3.448,-14.366,-3.916,-3.325
-8.497,-18.906,0.06,-7.169,-2.829,-11.94,-6.62,-1.995
-15.789,-24.913,-3.269,-11.433,-6.677,-17.096,-11.341,-4.012
-19.095,-30.19,-2.033,-13.897,-6.731,-21.979,-13.616,-7.581
-15.643,-26.88,4.92,-8.474,-0.805,-16.878,-11.541,-5.106
-16.078,-21.319,8.138,-1.012,2.778,-5.816,-7.803,2.205
-21.564,-20.509,4.171,0.509,0.617,-2.771,-6.326,5.891
-20.55,-21.249,0.867,-0.36,-1.832,-7.24,-5.698,6.075
-10.745,-18.982,3.481,2.811,0.046,-7.132,-3.102,7.015
-2.823,-16.12,7.194,6.457,3.453,-2.846,-1.143,8.471
-1.026,-14.572,7.474,5.369,4.062,-1.92,-1.776,9.217
0.38,-11.313,7.267,2.377,4.406,-1.635,-2.361,7.147
3.201,-5.547,9.765,3.335,8.421,4.391,-1.209,3.912
2.875,-1.452,12.62,8.025,13.489,11.876,0.126,6.601
-1.261,-2.116,11.925,9.055,14.857,10.816,-0.653,13.099
-2.286,-4.34,8.575,4.019,13.107,3.641,-2.248,14.124
3.259,-2.628,7.263,0.536,11.975,2.374,-0.127,11.131
8.536,2.123,8.49,1.345,11.687,5.705,5.855,11.612
8.257,3.577,7.933,-0.463,10.379,2.018,9.366,13.714
7.442,1.203,5.345,-5.244,9.853,-5.065,6.931,11.657
11.979,2.781,6.067,-4.204,13.927,-2.116,4.156,8.691
17.39,9.438,10.087,1.987,19.059,6.121,5.377,10.595
14.082,10.979,9.56,2.392,15.747,3.991,4.805,13.637
3.578,5.116,3.521,-3.295,5.94,-5.967,-0.814,12.237
-2.069,1.918,0.394,-4.924,1.231,-8.738,-4.099,9.402
0.429,4.507,1.9,-1.53,1.824,-3.391,-1.971,8.3
2.371,6.588,2.453,-0.43,0.467,-1.19,-0.641,7.031
-0.39,6.583,1.955,-1.259,-1.193,-2.776,-1.541,7.697
-2.6,7.75,4.328,2.13,1.962,1.754,-0.096,12.822
0.142,10.418,9.503,8.968,8.858,12.097,3.881,16.822
6.421,12.75,14.689,14.088,15.182,18.606,7.612,17.454
12.014,13.428,18.389,16.408,18.895,20.028,10.483,20.127
13.031,11.326,20.422,15.816,21.362,20.199,11.002,23.278
7.793,5.57,20.048,10.053,23.012,14.946,7.342,20.009
-1.501,-2.995,15.383,0.599,19.881,1.389,2.786,12.222
-9.33,-10.246,6.994,-5.746,10.108,-9.642,2.277,8.651
-11.488,-11.508,0.464,-5.356,0.916,-8.251,4.637,12.497
-7.297,-5.953,0.69,-0.84,0.72,0.837,6.769,18.406
1.646,3.065,5.473,5.114,7.178,9.807,9.993,21.341
10.053,9.931,8.025,10.178,10.752,16.077,12.589,20.312
11.386,10.542,5.425,10.724,8.357,16.825,8.876,14.823
5.648,6.738,2.253,7.281,6.429,10.039,2.056,8.227
0.187,4.893,3.345,5.5,8.938,1.911,0.499,7.769
1.06,7.486,6.348,7.285,10.78,0.865,3.076,13.225
5.816,9.637,6.054,7.939,7.071,4.475,3.968,16.405
7.655,8.28,3.23,5.423,1.87,5.381,3.509,14.923
5.12,8.702,3.848,5.391,2.137,5.361,5.498,14.798
3.303,15.518,9.973,12.621,6.905,11.047,11.891,19.364
4.638,22.193,15.922,21.051,9.592,19.85,19.036,23.713
4.05,19.553,16.062,20.863,8.609,22.359,18.722,22.342
-0.68,11.481,13.389,14.778,8.649,18.396,10.892,18.561
-2.532,8.501,13.924,13.312,11.411,16.328,6.44,18.969
2.943,11.203,16.79,17.432,12.764,18.544,9.832,21.915
10.464,13.336,17.711,20.661,11.213,20.434,13.438,21.914
14.493,13.993,16.828,21.768,10.215,19.452,13.206,21.87
16.131,16.722,17.531,24.389,12.356,18.592,13.308,26.997
17.457,20.883,19.66,27.992,15.887,20.248,14.377,30.417
16.887,22.302,18.975,28.759,15.723,22.079,13.686,24.784
13.664,21.172,15.488,27.519,11.246,22.847,12.852,17.561
10.083,20.718,14.089,26.848,9.311,22.705,12.816,15.682
7.556,19.439,14.292,24.862,11.414,19.987,10.633,15.211
5.957,13.817,11.001,20.807,10.602,17.191,7.129,14.472
5.076,6.659,5.315,18.593,6.32,18.648,6.609,15.868
4.254,3.636,2.769,18.7,5.042,20,8.715,17.824
3.917,5.429,4.737,18.12,8.17,17.322,10.671,18.963
5.077,9.372,8.489,17.855,11.696,17.288,12.142,19.796
6.53,13.092,10.99,18.53,13.224,21.408,11.712,18.621
6.726,14.769,10.437,16.402,12.453,20.288,8.894,15.584
5.003,13.62,6.926,11.026,8.377,12.463,8.079,12.777
0.882,10.285,3.164,7.287,2.686,5.945,11.312,11.351
-3.613,7.024,2.062,7.906,-0.405,3.696,14.269,14.043
-4.458,6.908,3.088,10.789,-1.463,4.32,13.431,19.772
0.345,11.098,4.779,13.496,-2.554,7.182,11.206,20.953
9.536,18.049,8.365,16.717,-0.534,11.784,11.285,16.549
17.98,24.229,13.489,20.756,5.813,17.432,11.579,13.657
18.795,24.8,15.289,21.173,10.506,20.718,8.08,12.689
11.18,17.826,11.202,15.251,9.048,17.955,3.083,8.896
1.617,7.519,4.754,8.065,3.648,11.465,0.703,4.85
-3.717,1.203,0.605,5.873,-1.632,7.15,0.486,6.784
-4.912,1.942,0.407,8.245,-4.112,7.044,1.518,13.694
-6.669,5.072,2.69,9.504,-2.759,7.373,4.308,17.629
-8.266,6.562,5.848,7.746,2.365,5.669,7.063,14.28
-4.32,7.922,9.521,7.666,10.083,5.3,6.651,9.45
1.557,8.868,11.852,10.562,15.825,7.666,3.869,9.84
1.079,7.387,10.286,11.177,14.63,7.824,3.53,11.896
-4.076,5.955,6.007,8.35,8.241,4.324,6.801,8.956
-7.63,6.809,2.646,6.368,3.252,2.222,8.441,3.462
-10.696,6.549,0.275,4.922,1.381,1.71,5.524,2.107
-17.001,3.335,-3.255,1.072,-1.104,-0.779,2.171,4.895
-22.586,1.971,-5.94,-1.976,-3.75,-1.738,2.764,7.468
-19.796,5.235,-4.22,0.394,-2.044,2.997,6.846,9.135
-9.159,8.662,0.842,5.879,3.904,8.515,11.552,11.715
0.147,8.169,4.56,8.17,8.466,8.426,13.703,13.657
2.709,5.263,3.952,4.593,7.684,3.545,10.775,10.691
3.739,3.756,2.094,-1.138,5.804,-1.98,5.911,3.922
7.896,4.988,3.102,-3.679,7.461,-5.666,6.097,1.592
9.362,7.005,4.228,-2.277,7.319,-5.387,9.612,6.902
3.068,8.578,2.404,0.057,2.259,-0.751,8.208,12.126
-4.184,11.116,1.573,1.502,-0.083,3.777,3.218,10.399
-3.498,15.083,5.073,2.712,4.284,4.491,2.669,4.93
3.018,17.549,8.899,3.45,8.939,2.58,5.852,2.541
7.515,16.595,8.089,2.496,7.437,0.304,7.287,4.822
9.619,15.898,5.536,2.295,3.019,0.935,9.144,8.88
13.399,19.244,7.589,6.568,4.05,7.555,13.891,11.713
15.988,24.133,12.744,13.184,10.043,16.65,15.214,11.636
11.973,25.755,13.623,15.783,12.056,19.827,10.119,9.5
4.208,22.737,8.143,11.528,6.674,14.048,5.61,8.442
0.367,18.853,1.808,4.952,0.083,6.755,5.888,9.439
2.535,19.519,-0.115,2.627,-1.039,6.944,8.016,10.518
5.21,22.114,0.322,3.557,0.78,10.643,9.85,10.421
4.111,19.277,-1.395,1.95,-1.456,6.721,10.961,9.547
3.806,14.845,-2.507,-0.766,-4.953,-1.982,10.575,9.572
9.736,17.85,2.28,1.293,-0.782,-2.737,11.088,12.445
18.462,25.263,10.516,7.324,10.369,5.793,15.961,18.725
24.461,29.393,15.2,11.629,18.41,13.733,21.136,25.218
28.241,30.761,13.336,10.734,15.836,13.655,19.7,24.013
31.575,32.503,7.763,6.209,5.573,7.741,13.276,12.356
32.006,33.614,3.182,2.81,-2.258,3.194,7.979,0.665
26.835,31.862,1.664,1.387,-2.682,0.685,6.272,-0.926
18.543,28.208,2.148,-0.539,-0.278,-1.812,6.603,3.339
12.295,25.961,3.232,-0.974,0.91,-0.238,5.75,4.732
10.665,26.079,4.929,2.433,2.825,4.643,4.443,4.896
13.003,27.159,6.568,6.13,5.048,6.077,6.242,8.248
15.854,26.855,5.444,6.316,2.658,4.271,9.299,10.365
14.122,21.508,1.337,2.789,-3.933,0.015,9.965,7.582
8.664,13.871,-0.56,-1.587,-7.428,-7.396,9.791,4.609
7.401,14.452,4.035,-1.712,-3.005,-10.543,10.564,4.878
10.639,23.212,10.894,2.465,5.064,-6.275,10.083,5.561
8.789,25.975,11.801,4.12,6.944,-4.01,6.806,3.759
0.886,17.251,6.536,1.087,-0.355,-7.329,3.323,0.473
-2.775,8.113,3.544,-0.152,-7.163,-7.803,3.069,-1.127
1.863,7.696,7.416,4.106,-4.374,-1.478,5.499,0.469
8.324,11.809,12.699,8.8,3.4,4.895,7.145,2.058
11.864,12.96,13.479,8.862,6.923,4.013,7.837,1.035
15.325,12.3,12.185,6.289,6.74,-3.274,10.832,1.708
20.421,15.092,12.947,4.924,8.438,-8.268,14.234,5.923
21.691,19.231,13.639,4.061,10.958,-5.967,12.157,7.678
17.398,18.781,11.699,1.522,10.338,-2.869,6.94,5.22
13.667,14.19,8.677,-2.245,7.742,-5.931,5.062,2.375
11.438,9.86,5.848,-5.482,6.418,-10.391,4.223,-0.353
7.964,8.113,3.916,-6.158,7.699,-7.429,0.57,-3.299
5.006,7.23,2.791,-5.473,8.727,-2.192,-1.936,-4.676
1.352,3.014,-0.21,-8.386,3.82,-6.999,-0.554,-4.649
-3.934,-1.348,-4.03,-12.429,-4.544,-15.778,1.631,-3.885
-2.044,4.419,-2.37,-8.263,-4.934,-12.878,3.525,-0.099
9.511,17.354,3.904,1.635,3.968,-1.757,5.147,4.924
16.92,20.644,4.725,4.066,7.55,2.605,4.233,3.946
13.549,11.582,-1.953,-3.236,-0.405,-2.415,2.109,-1.795
10.481,5.718,-6.349,-9.667,-7.059,-8.5,2.536,-2.491
14.911,10.492,-3.631,-8.304,-4.057,-8.912,5.629,4.857
20.637,17.574,1.68,-2.135,2.127,-3.502,9.504,13.244
20.591,19.306,5.131,1.736,5.3,0.721,11.196,14.024
15.396,17.419,5.816,0.45,5.9,-2.243,8.722,6.902
11.597,17.379,5.372,-1.508,5.907,-6.993,5.389,1.018
13.448,20.408,5.765,-0.293,6.637,-4.429,4.112,1.117
17.194,22.236,6.79,1.502,8.539,3.186,3.126,1.968
17.168,19.643,7.131,0.669,9.742,4.846,2.919,0.237
13.117,14.99,6.346,-2.205,7.576,-3.648,5.974,-0.69
6.86,10.909,4.701,-5.173,3.102,-13.163,9.398,0.816
-0.443,6.241,2.765,-6.776,-0.004,-14.082,9.134,1.695
-4.568,1.979,2.225,-5.939,0.4,-8.949,7.869,1.289
-1.083,2.782,5.373,-2.154,5.476,-3.878,9.773,3.408
7.64,8.67,11.381,3.355,14.365,1.508,12.523,8.769
13.893,12.866,15.161,6.922,20.875,7.453,11.449,11.676
13.411,10.764,13.69,5.677,18.897,8.526,7.581,8.859
9.704,5.752,10.042,1.821,11.1,1.877,6.261,5.364
6.055,3.038,7.396,0.529,5.196,-4.85,8.648,5.403
0.231,2.664,5.462,2.848,4.59,-4.015,9.88,6.355
-6.975,1.524,4.059,4.355,6.555,-0.527,7.594,5.992
-8.574,-1.455,3.765,3.162,7.023,-0.123,6.019,5.89
-2.903,-4.709,3.803,2.014,5.742,0.244,8.081,7.137
0.451,-7.965,1.418,0.46,2.283,0.075,10.345,8.645
-4.999,-11.406,-4.056,-2.891,-5.21,-3.92,9.472,9.059
-10.892,-12.042,-8.119,-4.185,-11.973,-6.576,6.914,7.742
-8.782,-8.58,-8.315,-2.183,-12.902,-3.97,5.409,5.222
-4.045,-5.037,-7.98,-1.605,-11.623,-1.591,5.807,4.5
-3.639,-4.56,-9.078,-3.557,-11.893,-2.401,7,8.07
-4.131,-5.615,-9.316,-3.702,-11.516,-2.109,7.076,12.8
0.201,-4.707,-6.396,0.697,-7.463,2.16,5.393,14.372
7.437,-0.046,-1.689,6.828,-0.672,7.694,3.005,13.079
10.731,5.202,0.157,8.329,2.652,7.83,1.438,9.448
8.964,7.035,-1.441,5.106,-0.82,1.875,2.999,6.684
8.591,7.463,-0.776,5.173,-3.764,-0.128,7.705,10.765
9.907,8.226,2.009,8.753,-2.701,4.26,10.238,14.876
6.026,6.819,0.557,8.17,-5.166,5.686,8.711,9.09
-1.387,4.679,-3.6,5.294,-11.046,3.572,8.454,2.481
-4.499,4.968,-4.411,7.174,-11.481,5.299,9.845,5.725
-1.818,5.69,-1.175,12.424,-3.756,11.617,8.403,12.545
2.957,4.813,4.502,16.516,7.562,18.274,7.801,16.659
3.594,1.872,7.459,17.379,11.184,19.63,10.713,19.556
-3.428,-3.661,0.617,13.059,-1.77,11.748,7.267,19.03
-8.865,-6.893,-9.782,5.511,-18.155,0.717,-3.185,13.916
-2.122,-3.01,-10.478,-0.145,-18.124,-4.903,-5.91,7.744
8.767,2.013,-5.119,-4.393,-8.655,-8.502,-2.042,-0.666
8.613,0.64,-6.167,-10.186,-9.042,-15.953,-5.895,-9.941
-0.581,-4,-10.819,-14.406,-15.638,-22.086,-12.503,-11.466
-4.701,-5.035,-9.312,-13.745,-13.758,-20.485,-10.197,-7.931
-0.488,-3.02,-5.384,-11.599,-8.53,-14.131,-7.188,-11.234
2.704,-2.754,-7.227,-10.711,-12.314,-8.921,-11.627,-17.927
0.57,-3.936,-10.436,-8.4,-17.954,-6.622,-13.617,-14.897
-0.148,-1.768,-6.798,-2.452,-12.01,-3.874,-6.293,-2.809
6.271,4.283,0.939,4.924,0.489,2.634,1.921,6.939
14.59,7.769,4.213,8.644,4.611,7.486,2.755,9.094
15.85,4.742,0.952,5.93,-1.943,3.961,-1.222,6.456
10.378,0.313,-3.645,0.62,-8.644,-1.951,-3.192,2.04
5.711,0.226,-4.271,-0.763,-6.744,0.309,-1.895,-2.084
5.028,2.912,-1.109,3.188,1.361,9.175,-0.835,-2.342
6.197,4.685,0.914,8.026,4.44,13.529,0.475,3.276
8.989,6.084,-0.12,9.658,-0.344,9.19,4.173,11.373
13.726,7.569,-0.92,7.696,-2.403,3.155,5.87,16.056
14.571,4.369,-1.369,2.48,0.213,-0.633,2.837,14.293
6.308,-5.477,-5.193,-5.633,-2.782,-6.611,0.268,6.731
-3.995,-14.545,-11.136,-13.35,-11.205,-15.306,-0.453,-3.782
-5.836,-16.582,-13.804,-16.363,-14.753,-19.62,-3.081,-11.787
-0.563,-13.618,-11.748,-13.913,-12.632,-15.836,-5.266,-11.582
3.485,-9.285,-8.189,-9.638,-11.65,-9.962,-3.391,-5.694
3.174,-5.243,-6.045,-7.632,-12.077,-8.228,-1.569,-3.159
0.657,-2.587,-5.06,-7.698,-9.983,-7.828,-2.915,-4.866
-0.964,-1.53,-3.547,-7.582,-6.165,-6.384,-3.048,-3.702
2.094,-0.715,-0.925,-7.112,-2.722,-7.704,0.06,0.965
11.006,1.601,2.712,-5.662,2.02,-9.606,1.97,3.321
19.782,4.848,6.404,-1.838,7.126,-5.131,2.107,3.162
21.492,7.347,8.377,2.535,7.661,2.73,5.384,5.88
17.87,9.177,8.425,4.291,4.05,4.751,10.027,10.884
15.513,10.023,7.522,2.413,1.53,-0.572,8.601,10.137
16.094,8.571,6.269,-1.942,2.176,-7.026,2.294,1.537
15.829,4.973,3.889,-6.755,2.396,-10.893,-1.971,-6.879
11.504,0.473,-1.61,-11.216,-2.749,-13.791,-4.459,-10.12
5.322,-2.686,-8.083,-14.349,-10.129,-15.148,-7.77,-10.886
3.442,-1.902,-9.38,-13.207,-11.558,-11.026,-7.902,-10.195
7.883,1.316,-5.391,-8.205,-8.065,-4.418,-2.981,-7.189
13.736,1.959,-2.543,-4.662,-6.898,-3.884,-0.546,-5.35
16.833,0.141,-2.354,-3.53,-7.432,-6.839,-4.185,-6.766
17.151,1.057,-0.448,-1.007,-3.931,-3.37,-5.922,-7.199
14.373,4.384,3.169,2.047,2.094,4.756,-1.516,-5.037
9.385,5.476,4.906,2.499,4.552,8.737,3.055,-3.672
6.753,4.38,4.744,0.047,2.246,5.395,2.881,-3.92
7.342,2.054,2.548,-5.994,-3.616,-4.237,-2.717,-6.274
5.647,-3.702,-2.427,-14.174,-10.679,-16.304,-10.484,-11.145
-0.679,-11.412,-5.757,-18.028,-12.94,-23.578,-11.951,-13.481
-6.576,-14.751,-3.683,-13.549,-8.705,-19.963,-4.684,-9.845
-6.46,-10.554,1.445,-3.662,-2.238,-6.211,2.655,-3.172
-1.221,-3.049,5.869,4.689,4.305,7.478,2.958,0.959
1.678,0.149,4.882,4.467,6.054,8.228,-3.68,-2.999
-4.224,-4.638,-5.007,-4.621,-4.837,-4.615,-12.758,-12.21
-15.663,-13.671,-17.217,-14.121,-21.126,-18.566,-16.829,-16.544
-22.737,-19.956,-21.423,-17.456,-25.695,-24.313,-12.667,-14.473
-21.493,-20.343,-18.934,-16.619,-19.146,-22.246,-5.622,-11.929
-15.466,-16.394,-16.953,-14.926,-14.352,-16.227,-1.099,-9.177
-7.497,-11.584,-15.861,-12.648,-13.478,-10.943,0.518,-5.02
0.767,-9.047,-13.843,-10.365,-12.323,-8.666,-1.666,-3.77
6.418,-7.471,-11.117,-7.755,-9.388,-4.699,-7.183,-6.968
7.429,-3.942,-6.843,-2.973,-4.753,3.666,-8.859,-8.721
5.462,-0.366,-1.91,2.208,-2.047,8.388,-3.335,-5.218
4.609,0.852,0.215,3.35,-3.825,4.108,0.681,-2.438
4.902,0.066,-2.143,-0.483,-7.446,-2.869,-4.902,-8.258
2.493,-3.037,-6.787,-5.87,-10.918,-7.636,-14.422,-17.305
-1.837,-7.424,-8.062,-8.203,-11.649,-10.018,-15.763,-17.631
-2.876,-8.383,-2.33,-4.543,-5.44,-6.087,-7.741,-10.703
1.506,-2.454,6.398,4.294,4.161,6.131,-0.097,-3.963
7.562,6.843,10.059,11.2,7.309,16.163,0.585,1.353
9.614,11.512,6.273,7.994,3.324,11.312,-4.395,1.615
7.416,8.802,1.174,-1.217,1.012,-1.989,-8.907,-4.649
6.096,3.765,-0.561,-5.189,2.174,-6.419,-8.373,-9.17
8.031,1.829,-0.757,-3.432,1.806,-1.314,-5.484,-8.676
10.932,4.253,-0.43,-1.696,0.571,2.153,-3.901,-7.681
13.095,9.67,1.96,0.878,1.999,3.135,-1.933,-5.684
14.227,15.646,5.418,6.336,4.936,7.86,1.232,-2.133
12.767,19.058,6.469,10.618,5.246,14.636,2.607,-2.85
9.445,18.768,4.389,10.059,2.131,16.586,1.728,-7.6
9.608,18.261,2.711,8.016,0.166,15.213,1.031,-8.183
13.481,20.717,2.928,8.301,1.48,15.385,-0.222,-4.653
12.65,21.927,1.551,7.265,2.115,12.026,-4.386,-4.528
4.983,16.534,-3.35,1.528,-0.891,2.404,-8.817,-8.074
-0.1,9.286,-7.93,-3.577,-5.095,-3.628,-9.084,-10.718
3.314,9.14,-7.199,-2.229,-5.37,-0.515,-6.472,-11.662
10.652,15.914,-1.205,4.192,-0.554,6.441,-4.638,-9.414
14.88,21.708,5.507,10.935,5.518,12.63,-2.708,-1.024
12.897,21.898,9.554,14.429,11.107,17.018,0.981,7.77
5.451,17.859,9.783,13.514,14.436,17.808,2.529,5.488
-4.412,11.752,5.285,9.797,8.625,13.076,-1.621,-5.994
-10.538,6.575,-0.616,7.454,-5.266,6.512,-6.393,-10.133
-7.548,6.4,-1.026,9.39,-12.023,6.507,-5.641,-1.864
0.792,10.612,3.685,12.713,-4.374,12.855,-2.895,4.069
4.47,13.697,6.227,12.563,5.096,14.916,-3.352,0.045
-1.152,10.519,4.284,8.523,4.464,8.631,-3.791,-4.145
-10.922,1.379,1.32,4.074,-1.582,2.043,-1.48,-3.233
-16.191,-6.514,-0.843,2.401,-4.26,1.951,-1.555,-3.501
-14.536,-8.122,-2.943,2.816,-4.594,3.542,-6.612,-6.635
-10.644,-6.842,-5.24,2.278,-6.232,-0.393,-11.032,-6.939
-8.963,-6.471,-7.14,0.521,-7.026,-5.621,-11.374,-4.478
-10.845,-6.777,-8.481,-0.853,-5.799,-5.754,-10.227,-5.694
-15.468,-8.029,-9.329,-1.789,-6.086,-3.955,-8.495,-11.583
-19.649,-11.239,-8.841,-2.797,-8.212,-4.323,-5.331,-15.653
-20.674,-16.035,-6.698,-4.639,-7.941,-7.061,-3.794,-13.871
-20.256,-21.256,-5.725,-8.873,-5.251,-12.876,-7.494,-11.01
-21.763,-25.041,-8.921,-14.371,-5.578,-19.072,-13.393,-14.036
-23.839,-25.054,-13.32,-15.522,-9.85,-17.74,-15.92,-21.06
-22.313,-20.509,-12.934,-9.364,-12.124,-8.272,-16.062,-23.663
-17.195,-13.854,-7.239,-0.49,-8.831,-0.649,-17.284,-19.459
-11.584,-9.401,-0.728,5.953,-2.312,0.955,-17.854,-13.746
-8.371,-10.048,2.378,8.67,1.807,1.832,-15.7,-10.995
-9.797,-14.297,1.559,8.206,-0.164,4.033,-12.548,-10.876
-13.959,-16.521,2.103,7.679,-2.282,6.023,-9.119,-10.472
-16.555,-14.223,7.676,9.335,2.707,7.331,-5.187,-8.947
-17.3,-11.435,12.402,10.034,8.488,5.372,-2.868,-8.721
-17.994,-10.827,10.177,7.252,5.854,-1.351,-3.464,-10.416
-18.812,-11.672,3.949,3.785,-1.816,-7.705,-6.44,-11.706
-19.145,-14.456,-0.468,2.884,-6.502,-8.166,-11.133,-11.952
-18.765,-18.199,-1.477,4.544,-6.426,-3.074,-14.048,-11.673
-20.113,-20.968,-2.114,5.276,-5.551,2.209,-12.239,-10.693
-25.692,-24.221,-5.388,0.748,-7.831,0.861,-9.584,-10.219
-30.184,-27.383,-9.147,-7.85,-11.52,-7.377,-10.964,-12.064
-26.188,-26.322,-10.214,-14.551,-12.134,-14.51,-14.794,-15.976
-18.109,-22.527,-9.22,-16.495,-8.105,-14.907,-13.263,-18.813
-16.832,-23.12,-8.387,-16.903,-2.246,-12.343,-3.317,-18.773
-22.71,-29.23,-10.914,-19.839,-2.551,-13.373,0.156,-19.895
-25.284,-32.484,-17.26,-23.129,-12.196,-17.402,-14.852,-23.811
-20.372,-27.528,-20.653,-22.248,-19.545,-19.583,-29.849,-24.427
-16.055,-19.565,-14.903,-17.941,-12.89,-17.363,-23.359,-19.237
-16.95,-14.783,-3.048,-12.76,2.117,-9.847,-6.89,-14.658
-18.09,-15.324,5.99,-8.506,11.167,-1.6,-3.879,-15.387
-18.327,-22.311,7.334,-7.845,10.557,-1.6,-12.502,-16.276
-23.023,-33.621,3.259,-11.015,6.329,-9.03,-15.835,-11.939
-31.99,-43.799,-3.556,-14.439,-0.187,-12.49,-14.319,-7.406
-36.358,-47.785,-10.434,-14.643,-7.965,-7.612,-16.717,-7.969
-30.151,-43.441,-11.373,-11.841,-7.362,-2.24,-15.315,-9.712
-20.176,-35.286,-6.208,-9.214,3.085,-1.415,-3.473,-8.61
-18.042,-31.329,-4.693,-8.94,7.35,-1.958,3.462,-6.932
-23.658,-32.45,-10.537,-10.276,-2.077,-2.755,-6.646,-6.939
-26.949,-32.972,-15.035,-10.293,-10.877,-3.798,-19.744,-6.922
-23.807,-30.62,-13.082,-7.217,-8.025,-1.575,-18.317,-5.912
-17.862,-27.467,-9.74,-3.605,-0.743,2.507,-6.389,-4.827
-13.097,-25.885,-10.211,-3.83,0.666,1.312,0.357,-3.806
-13.323,-27.439,-14.614,-9.188,-4.643,-6.791,-5.146,-5.405
-18.945,-30.478,-19.472,-16.198,-11.008,-15.592,-16.183,-12.221
-25.112,-31.985,-20.926,-20.349,-13.549,-19.524,-20.539,-19.041
-28.074,-31.829,-17.81,-20.07,-10.633,-18.025,-13.933,-18.862
-25.385,-29.339,-10.674,-15.751,-1.768,-12.695,-4.604,-13.368
-15.335,-22.935,-2.103,-9.319,9.679,-5.683,-1.817,-9.618
-4.212,-16.506,1.577,-4.986,13.541,-0.487,-5.576,-10.337
-2.438,-16.035,-2.008,-5.922,5.528,-1.206,-8.824,-11.274
-9.92,-19.73,-5.239,-9.762,-2.079,-7.121,-5.823,-8.792
-17.162,-21.478,-3.264,-12.198,0.866,-11.844,-1.003,-6.787
-19.124,-20.997,-2.733,-13.642,5.211,-12.492,-3.06,-8.903
-17.974,-21.164,-7.542,-15.272,1.33,-11.422,-8.283,-9.979
-15.975,-20.626,-10.568,-14.359,-3.415,-9.74,-5.363,-5.479
-13.404,-17.339,-7.533,-10.464,-1.406,-7.934,5.781,-0.919
-11.46,-15.004,-5.794,-9.221,-0.308,-9.336,12.381,-3.544
-10.628,-17.606,-11.68,-13.715,-7.927,-14.967,5.124,-10.864
-8.735,-21.509,-18.986,-17.61,-16.37,-18.044,-7.768,-13.556
-7.442,-22.851,-20.435,-15.624,-16.254,-14.419,-12.846,-9.34
-12.203,-24.926,-20.349,-13.799,-13.602,-11.56,-12.067,-6.453
-19.74,-29.106,-23.591,-17.845,-16.72,-15.169,-12.856,-9.809
-19.708,-30.034,-25.668,-22.285,-21.369,-19.267,-13.839,-13.678
-11.379,-25.097,-22.794,-21.185,-20.346,-17.979,-13.34,-12.399
-3.722,-18.4,-17.623,-17.411,-13.331,-13.969,-13.341,-9.292
-1.104,-14.143,-13.201,-15.314,-4.709,-10.206,-13.694,-9.648
-1.594,-12.491,-10.491,-14.256,0.335,-6.139,-11.607,-10.937
-4.875,-11.97,-9.239,-12.956,0.199,-4.824,-4.75,-7.984
-11.573,-13.54,-9.364,-13.154,-2.991,-9.933,2.336,-3.407
-17.176,-18.813,-11.993,-15.461,-8.229,-16.397,-0.325,-2.452
-14.427,-23.191,-14.884,-15.487,-13.681,-15.503,-10.946,-2.586
-4.472,-20.31,-12.65,-10.257,-14.447,-7.448,-14.833,0.373
1.299,-13.792,-6.098,-5.78,-8.943,-2.462,-8.142,1.898
-2.643,-11.922,-0.758,-7.604,-0.199,-5.925,-1.869,-3.113
-8.268,-14.887,1.689,-10.785,7.367,-10.346,-1.35,-9.129
-7.856,-16.94,1.791,-9.958,8.492,-9.337,-1.868,-8.801
-2.499,-14.983,0.212,-6.678,3.49,-4.529,-0.515,-4.407
2.575,-11.496,-1.196,-3.595,0.047,1.015,1.124,-2.171
2.756,-10.307,-1.364,-2.563,1.977,2.746,2.824,-2.269
-1.082,-10.003,-0.008,-3.887,5.539,-0.767,6.381,-0.993
-3.506,-7.77,1.592,-5.742,6.161,-4.165,8.283,0.157
-3.833,-7.715,-0.824,-8.536,1.474,-6.726,1.77,-3.07
-6.139,-13.431,-7.414,-11.991,-6.285,-10.51,-7.619,-7.015
-8.575,-17.217,-10.689,-11.079,-9.557,-10.009,-7.027,-4.456
-5.475,-11.785,-7.274,-5.457,-5.515,-2.928,-0.22,1.039
0.634,-3.887,-3.563,-2.294,-0.818,2.817,-1.223,-0.182
3.093,-2.268,-3.433,-3.965,0.755,0.77,-8.034,-5.596
2.605,-5.185,-2.581,-5.763,3.069,-6.133,-8.591,-5.062
3.688,-7.914,1.301,-5.037,6.974,-8.978,-3.023,0.587
4.544,-10.515,3.12,-4.569,7.107,-5.782,0.046,2.486
-1.202,-15.575,-1.87,-9.087,0.3,-6.997,-2.685,-2.949
-11.823,-22.265,-9.775,-17.515,-8.714,-16.921,-8.213,-10.835
-15.365,-24.837,-11.652,-20.713,-11.398,-21.955,-10.603,-12.647
-5.493,-19.726,-4.757,-14.181,-4.145,-12.715,-6.404,-6.987
8.59,-11.06,4.913,-5.871,9.174,-0.254,1.005,-2.28
12.262,-7.078,10.035,-4.556,19.973,2.42,6.084,-3.036
2.49,-11.095,7.52,-8.957,19.108,-3.499,5.498,-3.709
-8.806,-16.896,0.343,-12.403,7.329,-9.796,-1.282,-0.964
-11.801,-18.824,-6.075,-13.282,-4.014,-12.776,-10.236,0.35
-10.809,-20.512,-10.253,-15.168,-9.08,-15.408,-15.775,-2.665
-12.056,-24.879,-11.885,-17.426,-9.33,-18.691,-15.393,-5.694
-12.853,-27.752,-9.107,-15.953,-4.783,-18.164,-9.563,-5.338
-11.138,-27.807,-5.52,-13.039,0.449,-13.674,-2.977,-4.77
-10.949,-27.631,-7.333,-13.464,-1.065,-10.884,-2.221,-6.928
-11.214,-24.177,-10.34,-13.318,-5.371,-10.073,-4.51,-6.729
-4.292,-12.86,-4.921,-5.707,-0.507,-4.653,1.123,1.588
8.301,1.934,6.669,6.148,12.618,7.238,14.193,12.07
12.609,9.67,11.754,11.144,18.564,15.633,19.925,13.933
1.995,5.161,5.379,4.817,10.483,10.13,12.018,7.629
-11.404,-5.801,-4.518,-5.255,-1.112,-3.995,0.489,1.954
-14.417,-14.163,-10.716,-11.444,-7.341,-14.156,-5.015,0.862
-10.319,-17.424,-13.992,-13.886,-10.312,-16.51,-4.941,1.704
-9.891,-18.028,-16.821,-14.681,-13.008,-13.766,-4.621,0.071
-14.49,-17.014,-18.984,-14.898,-14.943,-10.665,-6.311,-4.885
-15.507,-12.913,-18.63,-14.623,-14.672,-10.103,-7.781,-7.923
-9.138,-6.181,-14.559,-11.771,-11.064,-7.747,-7.59,-5.372
-2.771,-1.772,-8.593,-5.992,-5.97,-0.906,-5.182,-0.155
-2.048,-3.025,-4.253,-1.259,-3.053,3.916,0.776,4.665
-2.791,-6.467,-2.451,-0.563,-2.282,2.675,7.048,7.977
-1.695,-8.187,-2.694,-3.229,-2.702,-0.746,6.936,7.336
-2.157,-8.883,-5.44,-7.637,-5.7,-4.228,0.738,2.194
-3.692,-7.509,-7.843,-10.239,-7.948,-7.308,-3.578,-1.779
-0.086,-1.09,-5.113,-6.605,-3.393,-5.441,-1.073,1.061
7.32,5.524,0.795,0.737,4.42,2.243,4.707,6.643
9.19,3.669,3.017,3.859,6.04,7.768,6.794,6.667
3.354,-4.799,0.203,1.198,1.038,5.237,3.112,2.129
-1.507,-9.65,-1.2,-0.706,-1.566,-0.199,0.27,1.201
0.623,-6.7,4.045,2.928,3.647,0.959,5.536,6.026
5.169,-1.138,11.469,8.987,11.082,8.037,13.93,11.335
5.947,1.097,12.25,11.483,11.372,10.958,14.27,14.018
4.122,-0.892,6.157,9.468,4.451,7.091,7.923,14.495
4.868,-4.344,1.319,6.122,-0.151,3.641,4.41,11.273
9.257,-5.874,1.398,3.545,2.083,4.419,3.112,3.209
12.777,-3.8,1.797,2.242,3.684,5.764,-0.89,-4.425
11.346,-0.636,-1.475,1.986,-2.717,3.854,-4.717,-4.845
4.843,-1.456,-6.897,0.936,-13.145,-0.568,-6.922,-0.966
-3.487,-7.366,-11.548,-3.458,-19.569,-5.957,-10.865,-1.793
-7.053,-13.408,-13.404,-9.896,-19.836,-11.601,-13.422,-7.206
-0.675,-13.728,-9.695,-11.824,-14.155,-13.546,-8.104,-7.85
11.192,-7.289,0.23,-4.63,-2.853,-6.855,2.537,-0.191
18.732,2.514,12.427,8.631,10.272,7.155,10.239,9.087
19.883,11.37,21.934,19.651,20.428,18.676,11.737,12.6
19.915,15.096,25.502,21.857,24.823,18.678,10.127,10.351
21.037,13.452,23.706,18.108,23.191,12.371,10.466,8.994
21.328,11.272,20.412,16.378,18.289,11.203,13.154,11.477
20.048,10.263,16.535,16.429,12.498,13.975,12.112,12.082
17.073,7.426,10.077,12.346,5.976,12.73,5.057,7.305
11.645,2.751,3.124,5.955,0.935,8.769,-1.341,2.388
7.452,0.304,0.966,4.409,1.637,8.36,-2.08,1.846
10.248,1.902,4.258,7.254,7.63,10.807,-0.137,2.626
17.181,4.214,7.599,7.589,12.728,10.194,0.372,1.279
21.195,4.47,6.618,4.578,12.166,5.992,-0.884,-0.087
23.007,5.511,3.017,4.716,6.889,6.026,-1.998,0.507
25.702,9.031,1.037,9.526,1.407,13.625,-0.653,1.156
26.03,10.917,1.585,11.927,-0.264,18.912,3.702,0.896
20.613,8.82,1.526,8.379,0.588,14.246,7.221,0.789
12.501,4.095,-1.677,3.497,-1.797,5.42,5.583,1.172
6.713,-1.281,-5.447,0.747,-7.595,-0.135,1.33,2.964
3.994,-3.751,-5.822,-0.959,-10.459,-1.815,-0.165,6.346
2.958,-2.542,-4.166,-3.347,-8.795,-3.333,0.858,6.785
4.192,-1.764,-3.808,-7.059,-6.342,-7.884,0.615,0.482
7.291,-2.673,-4.032,-10.198,-5.471,-12.341,-2.087,-6.482
10.016,-1.854,-1.976,-9.092,-5.597,-10.685,-4.286,-5.539
10.852,1.485,2.612,-4.02,-3.539,-4.456,-3.789,-0.483
8.582,4.542,5.587,0.683,-0.029,0.046,-3.531,0.304
6.01,7.759,4.533,4.911,-0.58,4.087,-4.23,0.222
8.017,13.301,3.998,12.121,-3.655,12.506,-0.788,5.847
10.395,17.908,6.627,19.29,-3.566,19.817,6.016,12.993
6.643,17.887,7.996,20.163,-2.333,18.148,8.66,15.39
1.745,16.567,6.66,17.471,-3.313,14.284,6.191,15.121
2.685,18.362,7.636,19.107,-2.624,19.224,4.138,15.704
6.969,21.497,12.649,24.985,2.679,27.998,4.835,15.201
9.333,21.093,15.273,28.362,5.875,28.015,6.769,12.738
8.622,15.834,10.154,26.73,0.324,20.157,7.205,11.566
6.696,10.547,2.125,23.959,-8.712,15.84,4.65,12.045
5.538,10.821,-0.875,23.344,-12.985,18.139,3.128,12.476
5.006,15.298,1.358,23.253,-11.833,20.477,6.635,13.91
4.801,18.935,4.821,21.321,-7.18,19.896,10.687,15.938
6.763,20.906,8.537,18.648,-0.025,18.107,9.998,15.053
11.267,22.987,12.674,17.694,6.509,16.247,8.507,11.851
15.509,25.201,15.467,19.12,9.366,16.55,11.053,11.11
19.088,27.651,15.993,21.699,10.191,21.356,12.914,13.255
25.458,31.958,16.615,24.613,13.501,28.731,9.253,15.065
33.515,36.721,18.327,27.141,18.647,33.095,5.461,16.138
35.172,36.535,17.495,26.827,18.135,31.141,7.055,17.08
27.249,30.378,13.076,22.669,10.983,25.3,10.818,17.368
17.35,24.42,9.4,17.265,6.318,19.564,12.27,17.907
12.29,22.611,7.378,12.664,6.88,15.314,10.421,17.887
10.244,22.241,3.457,8.267,6.141,12.27,5.051,13.028
8.931,20.848,-1.395,4.517,2.742,11.004,-1.247,4.921
10.597,20.091,-1.623,4.074,2.158,12.889,-2.735,2.071
14.537,21.212,3.158,6.957,5.149,16.075,1.874,6.813
15.509,22.702,7.796,10.03,7.67,16.675,7.838,12.861
12.409,23.587,10.712,12.54,10.092,15.722,11.075,15.547
9.716,23.656,12.983,15.341,13.339,17.131,10.702,14.988
9.624,21.179,12.584,16.938,13.618,20.307,7.936,12.28
9.151,15.838,8.906,16.732,10.522,21.364,6.042,9.517
5.507,11.271,6.244,16.947,8.781,19.841,7.389,9.564
-0.008,9.941,7.512,17.952,10.116,18.879,9.422,11.958
-3.722,9.907,10.75,17.834,12.072,18.132,8.858,14.497
-3.07,9.612,12.779,15.938,12.541,14.814,7.37,16.707
1.175,11.104,12.742,13.617,12.003,11.877,7.635,17.937
6.733,16.717,12.575,13.873,12.385,14.58,9.025,18.53
11.642,23.269,13.301,16.676,13.632,19.566,9.745,18.996
11.695,23.227,12.546,16.193,12.983,17.74,9.276,15.986
4.188,16.117,9.774,10.979,10.161,10.21,8.668,8.962
-4.479,10.943,8.097,7.494,8.794,7.879,8.523,3.154
-4.387,13.031,7.577,8.329,9.245,13.33,6.583,0.132
5.513,17.899,5.429,9.52,7.798,18.011,1.758,-1.336
15.21,19.683,2.309,8.264,4.246,15.897,-1.33,0.937
15.116,18.482,0.754,5.32,2.087,10.582,0.416,6.706
7.642,17.015,0.864,2.622,2.736,7.836,2.678,10.549
1.271,15.09,1.584,1.172,4.713,7.372,2.089,10.015
-1.325,11.975,2.729,1.095,5.966,7.383,1.315,8.177
-1.048,9.976,4.513,2.554,5.474,8.445,3.17,8.92
1.667,10.949,6.32,5.37,3.789,10.532,6.407,12.365
3.156,12.321,6.675,8.463,1.339,12.755,7.581,14.291
0.549,11.366,6.15,10.818,-1.129,14.718,6.731,13.056
-1.32,10.925,8.165,12.78,-0.108,16.917,7.546,11.9
2.323,14.753,13.867,14.699,6.615,18.633,9.897,12.541
7.899,20.106,19.32,15.294,14.64,16.877,9.905,13.905
9.552,21.694,19.672,13.047,16.688,11.014,6.935,14.483
5.68,19.68,14.736,8.84,10.969,5.641,4.962,13.711
-0.533,18.154,9.869,6.555,3.571,6.162,6.849,13.585
-2.85,19.019,9.352,8.71,1.472,12.629,8.674,14.239
1.086,21.413,11.385,13.267,5.387,20.747,6.191,12.552
6.553,24.09,12.461,16.254,9.557,24.753,3.667,10.16
8.229,24.966,11.454,13.844,8.296,19.146,5.263,10.02
5.726,22.675,9.31,7.038,4.148,8.494,6.728,10.359
4.08,20.488,8.01,3.35,3.326,5.333,4.2,11.027
8.539,22.32,8.578,5.501,5.758,10.298,0.723,11.111
16.314,26.2,10.377,8.077,8.381,13.468,0.199,7.829
17.679,26.96,10.548,7.247,8.874,11.165,1.26,5.249
7.885,22.945,5.453,2.8,4.014,5.966,0.298,6.565
-5.212,17.793,-2.243,-3.041,-4.029,1.446,-1.387,6.985
-9.377,16.111,-4.572,-4.984,-6.381,1.002,0.371,5.779
-3.359,17.597,-0.721,-0.749,-1.5,4.172,4.284,7.115
3.064,17.986,1.829,4.778,1.381,6.963,4.92,8.491
4.571,16.398,-0.236,5.897,-1.869,6.944,0.984,5.045
5.137,16.528,-2.421,3.929,-4.322,6.684,-2.699,0.799
7.314,19.44,-0.892,4.849,-0.803,10.48,-2.413,3.244
8.302,21.757,2.452,8.863,4.421,15.593,-1.285,9.527
6.784,21.859,4.275,10.362,5.197,15.343,-2.187,9.884
4.35,21.324,5.359,9.34,3.108,11.008,-1.246,5.013
2.158,21.48,8.692,11.419,5.131,9.111,4.133,4.74
1.088,22.603,12.964,17.077,10.447,11.443,10.043,10.79
1.737,23.864,13.698,21.331,9.662,15.538,12.441,16.209
4.674,23.992,11.134,21.673,2.126,18.994,10.53,16.597
10.878,23.555,9.78,19.998,-1.924,20.86,6.404,13.834
16.798,24.204,10.642,19.497,0.425,22.36,4.432,12.305
13.81,24.388,10.156,19.66,1.592,22.135,5.414,12.037
1.433,20.329,7.086,16.271,-0.684,15.728,5.065,9.324
-7.02,14.195,6.123,12.118,0.813,9.338,3.092,7.212
-2.384,12.949,10.487,15.433,8.528,14.663,4.131,12.748
7.521,17.345,15.301,22.478,14.038,24.37,7.562,20.51
12.262,22.946,16.288,22.521,13.172,23.43,9.1,18.987
12.783,28.017,17.607,18.543,14.376,18.818,9.748,11.329
13.607,31.513,21.814,20.146,21.58,23.518,11.587,8.18
12.912,29.867,21.919,22.286,23.572,26.544,11.193,8.169
7.04,21.365,12.479,14.006,12.119,13.952,5.72,3.693
-1.249,10.882,0.278,0.332,-2.746,-2.108,-1.404,-2.861
-4.952,5.731,-4.638,-6.262,-6.957,-5.874,-5.658,-4.45
-2.001,7.021,-1.588,-5.18,-0.528,-2.244,-5.556,-2.665
2.293,9.892,3.328,-2.985,7.42,-0.892,-2.001,-2.446
3.155,11.05,5.109,-1.559,9.905,-1.295,1.124,-2.85
1.418,10.125,2.054,-0.481,4.586,-1.063,0.016,-1.808
-0.456,7.087,-3.672,-1.601,-4.47,-2.18,-4.037,-0.723
-0.424,4.609,-6.982,-4.688,-8.731,-4.832,-6.463,-0.924
3.217,6.353,-5.296,-6.387,-4.58,-6.231,-5.378,-2.708
9.353,10.475,-1.272,-5.113,2.893,-4.493,-3.545,-4.948
14.007,12.57,0.653,-2.179,5.472,0.344,-3.876,-5.142
13.274,11.686,-2.594,-1.308,-1.175,2.604,-5.543,-5.432
7.039,8.459,-9.56,-5.513,-12.18,-4.133,-5.994,-8.43
0.371,4.344,-13.257,-10.874,-16.921,-12.866,-4.078,-8.75
-0.462,3.086,-9.451,-10.765,-11.685,-11.604,-1.765,-4.149
5.922,5.238,-3.717,-6.976,-4.264,-4.556,-2.941,-2.094
14.066,5.859,-3.016,-6.078,-3.2,-3.488,-6.428,-4.25
16.555,2.971,-5.694,-8.025,-7.698,-7.465,-6.596,-3.214
11.333,0.8,-7,-8.63,-11.653,-9.091,-4.727,0.575
3.739,2.107,-6.361,-7.492,-12.018,-8.067,-6.224,-1.88
0.791,4.541,-3.967,-6.415,-8.582,-7.703,-8.611,-9.461
4.018,6.359,1.218,-5.064,-1.508,-7.13,-7.286,-10.291
8.457,8.054,6.816,-2.287,5.573,-3.646,-4.981,-2.426
9.083,8.279,7.746,0.965,6.206,0.769,-5.119,2.669
7.539,7.467,5.501,4.131,1.606,3.069,-4.819,1.13
9.008,9.919,8.454,8.695,2.474,4.758,-0.906,1.384
11.868,13.867,16.11,11.727,9.808,5.018,2.782,2.876
9.133,12.555,17.614,8.796,10.006,1.743,1.329,-3.057
2.021,8.297,12.145,5.693,0.961,1.288,-1.984,-10.644
-2.064,7.497,9.231,9.014,-3.764,6.889,-1.826,-9.092
-3.132,7.523,10.172,12.73,0.01,8.893,0.158,-3.192
-4.855,4.695,10.442,11.01,5.73,3.903,0.457,-1.457
-5.704,2.404,10.729,7.992,11.014,1.46,-1.369,-3.16
-4.5,2.454,11.448,5.97,14.706,2.932,-4.805,-6.055
-4.596,1.313,8.395,1.321,11.994,-0.208,-7.128,-9.76
-7.186,-2.589,1.297,-5.436,3.604,-6.452,-5.724,-11.885
-8.285,-5.443,-3.461,-8.306,-1.586,-6.159,-3.528,-9.766
-5.853,-3.694,-2.588,-5.604,0.931,-0.151,-3.863,-4.814
-2.769,0.971,0.573,-2.809,6.38,2.033,-5.294,-2.47
-0.147,5.562,3.193,-3.802,9.22,-0.876,-5.44,-4.277
4.209,10.072,5.156,-6.442,8.653,-2.022,-4.156,-4.904
10.617,15.115,5.967,-7.538,6.726,-0.157,-2.814,-3.698
15.843,18.904,5.358,-6.188,4.911,0.437,-2.154,-5.595
15.768,18.964,4.831,-2.75,4.031,0.564,-2.236,-7.386
10.582,16.518,5.804,1.998,5.383,4.942,-3.435,-2.681
5.217,15.067,6.441,5.716,7.226,12.166,-5.68,2.214
2.088,14.922,3.491,5.197,5.368,15.136,-8.791,-3.056
-1.085,13.607,-2.272,0.34,0.288,9.905,-12.647,-14.666
-6.243,9.212,-7.42,-5.829,-5.033,-0.861,-15.371,-20.545
-11.983,2.865,-10.366,-10.668,-9.653,-9.96,-14.4,-17.767
-14.456,-0.971,-10.961,-13.114,-11.213,-12.088,-11.252,-13.535
-12.643,-0.804,-10.103,-13.873,-8.576,-9.602,-10.807,-13.058
-11.271,-0.536,-9.501,-14.196,-5.704,-7.261,-13.057,-14.216
-13.15,-1.934,-9.288,-13.886,-4.544,-6.26,-12.47,-13.827
-15.387,-2.909,-8.682,-12.461,-2.064,-6.384,-8.405,-12.469
-18.13,-3.43,-9.084,-10.575,0.478,-6.248,-6.597,-11.29
-24.705,-5.614,-12.079,-8.325,-3.409,-3.281,-8.307,-8.974
-30.492,-9.166,-14.321,-5.415,-11.492,0.474,-8.628,-4.84
-26.841,-11.519,-11.364,-3.602,-13.214,-0.319,-6.202,-1.78
-16.772,-11.66,-5.569,-3.775,-7.342,-3.837,-4.758,-2.004
-11.045,-10.055,-1.541,-2.814,-1.645,-3.793,-4.691,-3.222
-10.222,-5.732,1.679,1.661,2.402,-0.083,-2.265,-2.951
-7.025,1.467,5.427,7.054,7.907,4.393,1.959,-1.968
-1.658,7.486,6.146,8.537,11.243,7.853,2.571,-2.168
0.271,8.649,2.675,5.018,8.258,7.486,-1.666,-3.445
-1.719,6.659,0.129,1.441,4.347,3.749,-5.952,-3.681
-4.208,4.718,0.726,1.515,3.827,0.766,-7.056,-3.056
-5.168,3.552,0.087,2.123,1.623,-0.504,-5.942,-2.679
-4.288,3.792,-3.768,0.214,-4.429,-0.896,-4.431,-1.619
-1.931,7.349,-6.899,-2.023,-8.221,0.144,-3.534,-1.78
1.524,13.418,-6.323,-1.784,-6.238,2.286,-2.861,-5.388
5.395,16.335,-4.017,0.434,-2.147,4.68,-1.646,-8.253
8.539,13.38,-3.034,2.157,0.093,6.912,-0.674,-6.108
10.469,10.307,-3.48,1.646,1.065,6.581,-0.821,-2.118
10.036,10.569,-4.599,-1.246,1.539,1.616,-1.346,-2.351
5.139,8.516,-7.434,-5.924,-1.344,-5.793,-2.25,-6.351
-2.392,2.342,-11.45,-10.376,-7.395,-11.401,-4.374,-6.839
-6.618,-0.565,-13.229,-10.774,-10.917,-11.259,-5.845,-1.265
-5.734,1.559,-12.505,-6.827,-10.42,-5.836,-5.184,3.3
-4.297,1.713,-12.4,-3.633,-9.551,-1.754,-5.091,0.536
-6.811,-2.796,-13.638,-4.722,-10.347,-3.301,-7.051,-7.263
-14.359,-8.467,-15.454,-9.136,-14.041,-8.858,-8.611,-13.147
-21.832,-11.098,-16.088,-12.556,-18.133,-14.093,-8.143,-13.031
-19.661,-8.163,-11.807,-9.298,-15.154,-12.439,-6.53,-7.952
-8.502,-3.521,-4.602,-1.089,-6.744,-4,-5.144,-1.587
-1.089,-4.101,-2.152,2.251,-3.531,-0.624,-5.393,0.4
-1.833,-7.915,-3.549,-0.547,-4.227,-5.678,-7.254,-3.841
-4.452,-8.329,-1.494,-0.763,0.447,-7.442,-7.94,-7.54
-9.019,-8.164,1.791,1.882,5.623,-2.898,-5.59,-6.635
-17.121,-13.325,0.628,1.241,2.985,-0.258,-2.028,-4.491
-21.679,-20.163,-2.296,-1.571,-1.297,-2.103,-0.361,-2.525
-20.505,-22.079,-5.071,-3.976,-3.276,-6.87,-1.808,-1.019
-20.822,-18.892,-10.231,-7.297,-8.663,-12.254,-4.914,-2.984
-24.032,-15.315,-15.821,-10.558,-15.34,-13.704,-7.898,-8.285
-24.343,-15.802,-18.066,-11.454,-16.486,-11.895,-10.016,-11.741
-20.653,-18.471,-16.471,-9.636,-12.351,-10.231,-9.603,-9.195
-18.066,-17.309,-11.25,-5.468,-5.576,-6.623,-4.987,-1.084
-18.07,-12.323,-4.878,-1.701,0.758,-2.011,0.81,6.481
-15.697,-8.535,-2.403,-2.372,2.72,-2.476,1.396,5.178
-11.361,-8.297,-5.209,-7.349,0.506,-7.561,-3.779,-3.411
-12.701,-11.154,-9.787,-12.819,-2.97,-12.616,-7.587,-8.825
-17.435,-14.489,-11.97,-16.067,-5.827,-17.178,-5.976,-9.299
-14.382,-14.043,-9.457,-15.6,-5.244,-19.493,-2.554,-10.388
-6.135,-10.252,-3.461,-10.807,0.53,-15.418,-0.819,-10.77
-6.658,-9.426,1.273,-5.837,6.432,-8.871,-0.159,-7.254
-15.871,-13.779,1.201,-6.457,6.008,-8.211,0.321,-4.536
-19.792,-17.449,-2.305,-11.149,1.462,-12.931,-0.762,-8.021
-14.186,-15.588,-6.149,-13.569,-1.813,-16.375,-3.845,-13.637
-8.544,-10.263,-9.251,-12.321,-4.775,-16.556,-5.338,-14.477
-8.71,-5.636,-11.965,-11.162,-9.466,-16.056,-3.289,-11.968
-10.864,-3.186,-14.572,-11.989,-13.186,-16.502,-1.426,-10.352
-10.571,-2.79,-16.039,-13.617,-12.542,-17.931,-2.266,-9.055
-7.796,-4.051,-14.86,-14.909,-8.006,-19.088,-3.726,-7.387
-5.275,-5.627,-12.05,-15.143,-4.332,-18.095,-3.363,-6.365
-5.251,-5.677,-10.164,-13.567,-5.108,-15.068,-0.606,-4.603
-6.016,-3.334,-8.982,-9.82,-6.706,-10.093,2.549,-0.512
-4.761,-0.425,-6.41,-5.377,-3.396,-3.267,3.409,2.654
-3.83,-0.982,-3.807,-4.448,2.27,-0.474,2.84,0.324
-7.72,-6.2,-4.623,-8.9,2.414,-6.992,3.112,-5.597
-15.091,-12.01,-7.774,-13.561,-3.309,-16.106,3.585,-8.223
-18.842,-13.329,-8.455,-12.231,-6.97,-17.065,3.706,-4.697
-15.611,-9.369,-5.876,-6.974,-5.231,-10.852,4.344,0.197
-12.093,-5.357,-5.655,-6.301,-4.206,-8.328,3.559,-0.184
-14.141,-5.735,-10.988,-12.515,-8.002,-13.35,-0.726,-6.478
-15.12,-6.749,-15.926,-17.677,-11.246,-17.863,-5.45,-12.532
-8.219,-3.519,-14.566,-15.418,-9.761,-15.679,-6.632,-11.91
-0.781,1.073,-10.839,-8.56,-9.169,-9.487,-4.041,-5.391
-2.723,2.365,-11.128,-4.1,-13.976,-5.856,-0.13,-1.416
-10.035,1.92,-13.45,-4.815,-17.788,-7.554,1.655,-4.721
-10.683,4.037,-12.024,-6.483,-14.342,-8.82,0.551,-9.481
-2.237,7.51,-7.952,-6.06,-8.785,-6.02,-0.441,-10.203
5.12,7.052,-6.489,-6.206,-8.02,-4.792,0.178,-8.57
4.09,3.358,-6.638,-6.549,-8.793,-5.646,1.39,-4.872
-0.514,1.807,-3.569,-3.412,-5.49,-2.219,3.022,3.241
-2.425,2.381,1.078,-0.072,-1.076,2.168,4.726,9.64
-2.189,2.215,1.964,-2.519,-0.453,-0.712,4.812,4.352
-1.318,1.249,-0.577,-8.38,-1.668,-6.575,2.553,-7.963
0.492,-0.781,-2.708,-11.316,-1.282,-6.563,-0.454,-13.825
2.39,-3.188,-3.455,-10.536,-0.516,-4.633,-1.489,-11.215
3.53,-2.579,-3.161,-8.844,-0.672,-8.06,0.734,-6.145
4.387,0.769,-1.357,-6.375,-0.124,-11.115,4.992,-0.477
5.528,2.351,1.402,-1.871,1.814,-5.825,8.4,5.339
7.189,0.231,4.06,1.93,4.517,1.485,8.204,7.833
6.935,-4.424,5.3,0.049,6.073,-1.032,4.854,3.804
1.705,-8.723,3.74,-5.699,3.802,-10.872,1.856,-4.338
-4.639,-7.972,1.232,-7.47,-0.753,-14.426,1.529,-10.214
-5.55,-1.464,1.02,-3.427,-3.373,-7.934,2.751,-11.422
-1.081,4.588,3.231,0.903,-2.43,-0.311,3.353,-8.811
4.252,4.859,5.506,1.461,0.541,0.582,3.518,-3.021
6.651,0.294,4.979,-1.819,1.372,-5.221,3.521,0.2
5.483,-5.412,0.762,-6.92,-2.824,-11.984,1.272,-5.313
3.833,-8.009,-3.558,-9.902,-8.424,-14.265,-2.113,-12.837
4.367,-3.954,-2.915,-6.816,-8.514,-10.783,-1.45,-10.531
5.793,3.352,2.327,0.459,-2.164,-3.903,3.245,-1.25
6.321,6.04,5.995,4.452,3.756,1.459,5.413,0.909
6.677,3.316,4.477,2.128,3.809,0.924,2.274,-6.269
6.418,-0.007,0.577,-2.247,0.135,-5.001,-1.442,-10.976
4.57,-1.075,-1.418,-3.931,-2.49,-9.82,-1.278,-8.67
4.305,1.509,-0.108,-1.124,-2.49,-7.067,1.78,-6.061
8.111,6.654,3.119,3.667,-0.373,0.105,4.344,-6.975
13.611,10.957,7.07,6.415,4.017,3.717,5.359,-7.27
17.381,12.547,10.511,6.798,8.454,2.87,6.522,-3.748
15.837,9.448,9.327,5.208,7.051,-0.024,8.026,-1.811
8.7,2.017,2.148,1.886,-0.769,-3.979,7.291,-5.877
4.032,-2.009,-3.611,0.869,-6.188,-4.861,4.41,-9.731
7.75,2.282,-1.168,4.479,-3.123,-0.468,3.892,-6.649
12.262,7.269,4.803,7.207,2.38,1.417,7.04,-0.697
9.884,5.31,6.49,3.999,2.768,-5.15,8.954,-0.201
8.054,1.531,5.448,-0.272,0.862,-11.314,7.547,-4.188
15.202,3.784,6.818,2.051,2.217,-6.661,7.115,-4.077
23.73,10.299,8.862,9.017,5.359,3.812,9.112,0.853
22.964,15.216,7.648,12.672,6.767,9.514,8.988,1.274
17.362,17.387,5.229,12.011,6.864,11.977,5.459,-5.752
16.888,17.566,5.159,12.047,6.416,16.171,4.135,-9.543
19.413,14.05,6.022,12.932,4.239,16.025,8.197,-2.05
16.705,6.575,4.698,10.69,0.695,6.993,12.628,7.662
9.73,-1.215,1.317,5.651,-2.518,-3.637,12.612,8.706
6.093,-5.712,-0.57,2.258,-3.79,-8.55,10.197,5.792
7.466,-5.272,2.319,2.721,-0.936,-7.057,8.485,5.211
9.606,-0.1,8.797,6.18,5.509,-0.698,7.788,4.809
10.697,5.509,13.822,10.077,10.678,5.765,7.742,3.233
11.152,5.206,13.453,9.173,10.869,3.41,6.913,-2.147
10.127,-0.749,9.133,2.829,7.332,-6.869,4.823,-12.858
7.88,-4.559,5.867,-0.511,3.946,-11.078,4.209,-19.179
6.328,-2.178,5.513,2.697,3.083,-5.338,5.43,-14.696
4.401,0.849,5.424,5.091,3.171,-0.697,5.383,-8.772
-0.027,-0.674,4.3,2.885,1.692,-1.695,4.938,-8.049
-2.292,-1.707,4.944,1.358,1.191,-2.39,7.278,-6.82
2.995,3.706,8.644,3.328,5.121,0.146,9.861,-3.226
10.281,10.188,11.553,5.963,9.372,4.407,8.816,-2.002
12.573,10.293,11.782,8.945,10.299,9.258,6.694,-1.028
13.262,5.805,12.44,13.202,11.592,11.53,7.694,5.262
14.898,1.118,12.928,15.586,11.69,9.325,11.154,13.29
11.939,-3.109,8.652,13.199,4.022,5.272,13.056,14.146
4.142,-5.892,1.927,7.729,-5.644,0.345,11.617,6.361
0.126,-4.558,0.426,3.728,-5.665,-4.278,10.229,-2.444
4.331,1.21,4.759,4.478,2.117,-4.067,11.819,-5.276
12.061,7.438,7.87,7.31,7.68,-0.095,12.859,-3.808
15.416,8.305,5.13,5.911,6.889,0.666,9.631,-3.931
11.858,3.21,0.353,0.898,3.156,-1.343,5.584,-4.764
7.496,-0.997,0.561,-0.173,2.391,0.611,4.7,-2.411
7.903,-0.281,5.081,3.31,4.435,4.387,5.396,-0.215
10.689,0.852,7.044,4.372,3.555,2.312,6.104,-1.722
11.406,-0.901,5.314,2.594,0.339,-2.208,7.713,-3.576
10.843,-0.769,5.38,4.874,1.763,1.375,9.932,-2.565
12.189,4.385,9.145,12.04,8.354,11.218,11.476,0.468
13.574,7.83,11.972,16.072,12.214,13.767,11.598,3.182
11.052,4.183,11.159,13.323,10.145,6.64,9.872,4.807
6.839,-1.294,9.015,9.186,7.07,0.661,7.22,6.036
5.635,-3.707,6.33,5.712,4.881,-2.018,5.015,3.791
7.116,-5.758,2.66,0.044,2.165,-6.482,2.757,-3.777
7.914,-8.792,1.409,-4.304,2.117,-7.817,0.49,-8.46
6.584,-9.695,5.332,-2.315,7.99,-0.35,-0.393,-5.515
4.037,-8.619,9.65,1.209,13.881,6.501,-0.575,-3.743
2.222,-8.79,8.287,0.116,11.043,2.127,-0.612,-7.626
3.579,-8.73,4.417,-1.631,3.298,-6.042,1.196,-9.892
9.073,-4.093,4.92,2.202,2.232,-4.072,4.259,-7.014
16.483,3.28,8.789,8.491,8.206,5.286,6.377,-3.6
20.499,5.083,9.949,8.428,11.083,5.809,7.131,-3.391
15.697,-2.227,6.444,-0.179,6.95,-6.629,6.11,-5.361
4.034,-11.071,1.661,-9.457,1.992,-16.475,3.975,-5.975
-5.997,-14.371,-2.086,-12.929,-0.384,-14.168,2.765,-4.021
-9.523,-14.972,-5.593,-13.074,-2.891,-9.212,1.796,-2.49
-6.545,-15.669,-6.785,-12.426,-3.217,-7.322,-0.6,-4.389
-0.067,-14.932,-2.863,-9.413,2.663,-2.822,-3.336,-8.254
2.027,-16.271,0.952,-6.884,6.729,0.485,-4.841,-9.314
-5.397,-23.499,-2.183,-11.088,-1.152,-8.966,-4.925,-7.145
-15.751,-29.477,-8.142,-19.723,-13.148,-26.353,-3.497,-6.913
-18.884,-27.228,-8.538,-23.527,-14.797,-34.856,-0.192,-8.934
-14.2,-22.82,-3.995,-20.854,-7.792,-32.32,4.303,-8.553
-8.506,-22.967,-0.898,-18.059,-3.311,-28.761,6.975,-6.905
-5.865,-23.962,-1.694,-16.718,-4.35,-25.012,5.596,-7.973
-4.77,-21.178,-2.565,-12.825,-4.161,-16.774,3.062,-9.18
-0.923,-14.551,1.765,-4.549,3.926,-6.052,3.381,-4.822
6.87,-5.887,9.134,5.555,14.732,4.399,5.955,4.041
11.021,-2.003,9.925,10.641,14.471,10.479,7.565,9.142
4.856,-7.539,2.557,7.497,2.773,7.365,6.819,7.264
-4.858,-14.355,-2.28,4.378,-5.057,1.426,5.89,5.408
-9.262,-16.34,-0.61,6.803,-3.759,0.778,6.112,7.285
-9.467,-18.229,0.122,7.938,-1.46,1.744,3.992,7.094
-7.14,-18.644,-1.001,4.776,0.993,1.024,-0.33,2.954
-0.063,-11.238,2.287,4.058,7.138,2.109,0.711,1.225
9.185,-1.468,8.298,8.08,10.954,5.695,7.718,4.637
15.071,1.179,11.07,10.898,8.912,7.013,10.748,9.254
16.999,-1.333,11.581,8.844,9.193,2.818,6.819,11.626
14.091,-2.954,11.114,4.832,13.224,-2.945,2.762,10.359
2.373,-6.004,5.305,1.3,10.042,-5.378,0.07,4.076
-14.05,-14.384,-5.363,-2.832,-2.34,-7.028,-3.731,-5.214
-23.707,-22.712,-12.595,-6.756,-12.518,-11.083,-5.612,-10.721
-22.592,-23.827,-12.654,-6.83,-14.693,-11.688,-3.148,-8.642
-14.235,-18.428,-8.385,-1.575,-11.242,-2.185,0.332,-2.574
-1.271,-10.303,-1.09,5.377,-1.379,10.078,1.255,1.912
10.781,-3.352,7.23,8.007,13.084,12.161,-0.289,3.264
12.309,-2.721,9.781,4.427,19.325,5.035,-1.107,3.769
1.492,-9.331,3.084,-2.888,8.937,-4.212,0.291,3.364
-11.023,-17.79,-6.036,-11.32,-7.07,-15.515,0.668,-1.364
-14.46,-22.168,-8.387,-15.99,-12.673,-23.724,-1.155,-7.453
-9.421,-19.491,-3.641,-11.822,-6.925,-19.077,-1.735,-6.841
-3.496,-11.587,1.291,-2.287,-0.964,-6.803,-0.65,-0.898
-0.732,-5.419,2.722,4.993,-1.207,0.375,-0.157,3.124
-0.06,-5.452,3.375,8.457,-2.689,2.3,0.531,5.392
-0.086,-8.396,4.764,9.22,0.053,5.177,1.296,6.882
-0.046,-9.633,3.889,6.99,3.711,8.507,-0.329,4.17
0.837,-9.42,-0.629,3.576,1.919,7.298,-1.733,1.233
1.108,-10.126,-5.299,0.872,-4.318,-0.268,1.261,5.072
-0.46,-10.925,-6.45,-1.998,-7.757,-8.368,5.033,9.86
-1.519,-10.503,-5.36,-5.288,-7.023,-10.243,4.272,6.741
-1.244,-11.81,-5.371,-8.468,-7.05,-9.711,0.438,-1.203
-2.086,-15.755,-5.955,-11.681,-8.289,-14.067,-2.664,-7.334
-3.689,-17.083,-4.123,-13.215,-6.762,-19.945,-3.625,-9.546
-2.376,-13.243,0.578,-10.762,-0.675,-19.872,-2.886,-7.686
2.946,-8.241,5.972,-6.055,8.645,-14.973,-1.535,-4.011
7.308,-6.343,9.5,-3.093,16.729,-9.949,0.705,-1.204
3.939,-8.7,7.848,-3.63,15.668,-5.331,3.062,-0.219
-6.05,-13.58,-0.269,-7.12,2.542,-3.553,1.64,-2.145
-13.296,-17.792,-9.602,-11.275,-13.016,-8.701,-3.714,-4.74
-12.594,-19.471,-14.095,-12.171,-20.759,-15.015,-7.33,-3.041
-8.156,-17.842,-14.088,-7.812,-21.574,-12.658,-6.217,1.883
-3.831,-11.98,-10.865,-0.409,-17.087,-2.817,-3.7,4.495
1.507,-4.22,-3.467,5.492,-4.649,4.985,-2.753,3.982
6.178,-1.166,3.309,5.572,8.754,4.509,-1.959,2.566
5.363,-5.164,1.646,-0.066,9.018,-1.868,-0.569,-0.152
-0.656,-10.705,-6.436,-7.059,-3.418,-9.045,-0.398,-3.797
-6.602,-13.723,-11.847,-13.085,-12.811,-15.903,-1.269,-5.736
-8.789,-15.739,-11.3,-17.735,-10.742,-20.195,-1.623,-6.014
-6.8,-16.72,-8.267,-18.303,-4.931,-16.854,-1.332,-5.89
-1.578,-13.118,-4.751,-12.457,-2.962,-6.525,-0.07,-4.517
3.143,-6.688,-0.092,-3.805,-1.348,2.025,1.512,-2.621
2.383,-6.046,3.71,-0.27,3.409,0.631,0.403,-2.657
-3.478,-13.132,3.055,-4.247,5.777,-7.931,-3.054,-3.675
-8.466,-18.092,-0.715,-8.491,2.68,-12.1,-3.784,-2.114
-7.017,-13.859,-2.443,-6.905,1.217,-7.547,-0.191,2.917
0.223,-6.995,-1.905,-3.488,3.688,-2.977,3.166,7.437
5.867,-7.382,-3.36,-4.334,2.874,-4.42,2.545,6.081
2.849,-13.968,-7.341,-7.57,-3.082,-5.731,-0.12,-0.9
-8.631,-19.217,-11.23,-8.642,-9.901,-2.076,-0.805,-6.517
-19.582,-19.939,-12.901,-8.795,-14.272,0.216,0.434,-5.22
-19.415,-16.642,-10.491,-9.836,-12.453,-2.783,1.306,1.169
-9.212,-11.824,-4.58,-8.54,-3.36,-3.582,2.371,6.95
-1.279,-10.071,1.038,-3.838,6.374,1.232,4.578,9.163
-2.956,-12.635,2.969,-0.66,8.121,4.043,5.993,8.183
-9.562,-16.634,0.925,-2.678,1.911,0.564,4.449,4.382
-12.529,-19.753,-1.401,-7.777,-2.59,-6.176,0.925,-0.224
-9.067,-19.386,0.266,-10.146,0.963,-11.171,-0.997,-1.315
-4.851,-13.934,4.332,-6.161,6.196,-9.126,0.391,1.223
-5.009,-8.416,5.986,-0.166,5.887,-3.094,3.027,3.285
-6.65,-9.271,5.23,0.684,4.011,-2.869,4.833,4.122
-7.344,-14.875,3.626,-4.117,3.845,-8.153,5.395,4.325
-8.834,-17.729,0.151,-9.365,1.059,-10.375,4.32,2.383
-8.23,-13.397,-2.842,-10.023,-2.446,-6.813,1.735,0.838
-1.254,-5.506,-1.369,-5.511,0.134,-1.234,-0.67,3.358
7.468,-1.188,2.176,-0.623,6.395,2.126,-1.388,6.135
9.744,-1.997,2.823,0.619,9,2.953,-1.089,4.754
6.535,-2.721,0.124,0.028,5.448,5.124,-0.549,1.89
7.218,1.792,-2.191,0.9,-0.225,9.703,1.087,1.477
14.63,9.294,-1.188,2.347,-1.102,11.199,3.298,4.265
18.637,10.81,0.586,1.76,1.674,6.303,4.895,10.668
11.344,2.657,-1.033,-0.61,-0.199,-0.432,6.718,18.347
0.472,-6.823,-4.561,-3.698,-6.297,-5.539,7.765,18.006
-1.384,-7.894,-4.706,-6.427,-6.747,-9.433,5.419,6.405
5.923,-1.705,-0.288,-5.715,1.044,-8.625,1.285,-3.487
12.38,3.749,3.486,-1.48,7.1,-1.189,-0.903,-2.794
12.264,5.908,2.919,1.057,4.879,4.472,-0.45,0.78
9.207,7.707,1.309,-0.355,1.515,1.912,1.427,1.857
9.31,9.017,2.618,-1.552,5.493,-1.434,4.083,4.47
12.947,7.266,5.747,0.401,13.944,1.64,6.963,8.417
14.597,3.405,6.987,2.485,16.888,5.103,8.237,8.284
9.361,-0.247,3.849,0.639,9.43,1.716,5.401,3.612
-0.95,-4.27,-1.824,-4.286,-1.325,-4.753,-0.46,0.315
-9.557,-9.388,-5.473,-8.176,-5.322,-7.57,-3.82,2.357
-14.418,-14.327,-6.729,-9.68,-4.059,-7.507,-2.62,5.015
-16.843,-16.614,-6.691,-8.249,-2.452,-5.193,-0.716,2.508
-11.704,-12.661,-2.146,-0.357,3.649,5.469,0.492,0.279
2.324,-3.022,5.555,11.471,13.411,21.334,3.257,7.048
10.894,3.136,6.898,14.734,14.051,23.272,6.381,17.052
2.743,-1.54,-1.47,2.934,1.856,2.726,5.552,15.591
-11.183,-9.836,-10.786,-12.87,-10.077,-20.357,0.102,2.31
-13.125,-8.483,-11.273,-15.791,-10.044,-22.035,-3.809,-4.61
-1.448,2.833,-1.838,-2.814,0.864,-4.077,1.136,6.165
13.4,13.515,11.418,13.935,15.15,14.91,14.843,22.542
23.695,18.343,21.648,23.925,25.845,25.32,28.532,29.461
26.219,18.855,23.456,25.033,26.901,27.279,27.949,26.044
21.308,16.851,16.349,19.446,17.779,21.147,8.831,17.415
13.951,14.273,8.236,13.498,6.797,12.803,-9.019,11.339
8.672,12.314,5.173,11.344,0.439,9.875,-9.14,11.882
7.299,11.531,5.319,10.28,-0.831,9.941,-2.782,12.386
10.099,13.428,7.689,8.854,4.319,7.709,-1.047,10.431
12.809,17.121,11.616,8.485,12.618,5.014,2.107,12.169
12.052,20.067,13.554,9.646,15.689,7.083,8.905,16.603
12.569,22.9,13.323,12.499,13.744,13.855,11.654,16.63
17.424,26.473,12.818,15.34,12.562,18.653,7.51,12.599
20.768,28.274,11.446,15.591,12.339,18.518,3.825,11.244
17.412,26.341,9.218,13.706,11.294,16.521,7.614,14.341
9.623,22.439,7.294,11.856,9.137,13.388,15.425,17.136
3.444,20.508,6.682,13.534,6.547,12.145,20.228,19.398
2.512,22.48,9.38,21.149,7.669,18.928,23.962,26.89
5.494,25.488,15.195,28.44,14.959,27.997,32.323,34.88
8.748,26.095,18.788,26.912,20.399,28.418,39.472,29.289
9.218,24.517,16.255,18.806,15.655,22.004,34.859,11.294
7.171,22.629,12.422,12.775,8.884,16.194,24.415,-0.349
7.793,23.409,14.671,13.547,12.55,13.956,22.781,4.896
14.112,28.306,20.493,17.745,20.772,13.985,27.361,15.992
20.196,32.2,19.398,17.004,18.129,11.054,22.479,17.857
19.36,30.274,9.455,10.285,4.486,4.564,7.658,11.703
13.696,25.299,0.489,5.096,-6.628,0.613,-2.307,6.992
9.12,21.739,-1.571,4.893,-9.735,0.934,-2.509,5.973
8.169,21.869,1.805,8.99,-8.198,4.646,4.654,8.003
11.908,26.217,10.968,17.889,0.786,13.142,22.946,14.856
21.45,32.453,25.263,29.267,20.258,24.666,48,25.681
31.579,36.993,33.601,35.477,34.912,33.098,55.504,32.312
30.965,35.904,21.357,28.688,21.008,30.942,25.718,23.812
18.513,28.512,-5.639,12.337,-14.923,16.771,-18.442,5.046
8.834,22.142,-20.132,2.179,-34.285,2.846,-31.356,-2.974
11.505,23.946,-10.149,6.614,-20.036,3.421,-11.137,5.642
18.928,31.224,6.448,17.158,2.5,16.958,5.443,13.161
19.727,33.895,10.31,20.703,5.762,25.903,4.451,6.993
12.655,25.834,2.265,13.303,-9.01,16.201,0.979,-2.216
5.631,14.544,-3.679,5.626,-20.849,0.954,3.633,0.879
4.829,11.095,-0.922,8.155,-18.548,2.307,3.973,10.639
9.201,14.828,4.774,14.9,-10.233,13.785,-2.082,12.988
15.844,20.239,12.491,19.47,0.075,20.441,0.893,13.224
22.764,26.718,27.892,27.791,18.808,27.621,25.632,23.706
25.774,30.67,42.226,36.47,36.208,34.122,51.315,34.041
20.66,23.629,35.049,28.543,26.668,22.581,41.184,23.845
10.204,7.949,9.081,5.677,-6.108,-3.391,0.456,-0.074
2.335,-1.899,-6.494,-7.852,-23.73,-16.371,-22.367,-10.497
1.072,0.659,0.794,-2.144,-10.534,-5.611,-9.681,-1.692
4.475,9.446,14.485,8.868,11.075,13.431,9.516,6.953
8.489,17.407,22.417,14.425,23.951,23.601,24.746,7.634
9.558,19.148,24.976,14.417,27.317,18.896,41.847,9.33
7.244,13.248,18.128,8.679,16.913,5.675,33.66,10.223
5.303,7.64,2.908,0.133,-4.418,-3.264,-10.158,3.368
5.959,8.268,-6.044,-4.491,-17.189,-3.55,-41.205,-4.494
5.97,9.46,-3.723,-5.271,-14.154,-1.999,-33.191,-7.295
4.13,7.437,1.371,-6.01,-6.423,-2.584,-13.486,-7.042
5.357,8.126,7.796,-4.625,3.905,-0.292,-0.617,-3.225
10.993,13.333,15.874,0.143,18.777,7.495,5.074,1.472
12.753,14.012,15.211,1.878,23.078,13.232,-2.491,-0.845
2.438,3.405,1.182,-4.379,5.052,6.983,-18.75,-7.688
-15.171,-12.245,-11.863,-13.59,-15.896,-10.278,-22.63,-8.17
-25.747,-21.525,-11.004,-16.768,-15.596,-23.088,-7.658,-2.15
-22.967,-21.615,-2.729,-12.24,-2.191,-19.762,8.164,1.331
-14.017,-18.459,0.717,-6.917,2.607,-9.849,8.417,-0.478
-7.66,-17.571,-2.866,-7.952,-3.281,-9.682,-4.299,-4.655
-6.492,-18.835,-7.976,-14.428,-7.753,-17.284,-15.049,-9.588
-8.401,-18.285,-8.744,-17.977,-3.943,-16.429,-13.728,-14.041
-10.562,-15.914,-5.883,-15.966,3.168,-5.403,-6.776,-16.746
-13.808,-18.06,-7.455,-16.979,2.668,-3.279,-6.943,-16.922
-20.042,-26.492,-16.813,-24.727,-7.302,-17.009,-13.487,-14.461
-27.049,-33.323,-26.501,-30.376,-16.981,-27.852,-14.056,-10.994
-31.021,-32.615,-29.661,-28.461,-20.641,-24.735,-4.945,-7.932
-30.202,-27.795,-28.066,-24.58,-21.078,-19.595,2.303,-6.633
-25.188,-23.769,-25.748,-23.052,-20.771,-19.86,-2.71,-9.136
-18.449,-19.589,-22.37,-20.557,-18.674,-17.1,-14.654,-12.723
-13.177,-13.734,-16.429,-15.309,-12.877,-8.593,-18.847,-10.51
-11.633,-10.375,-10.714,-11.648,-5.315,-3.836,-9.949,-2.589
-13.65,-12.667,-9.187,-12.475,-1.36,-6.627,0.822,2.263
-16.916,-15.938,-11.183,-14.279,-2.294,-8.135,0.4,-1.085
-18.766,-15.626,-13.08,-12.078,-3.547,-0.822,-9.205,-8.578
-17.713,-14.442,-12.602,-7.15,-1.332,7.638,-14.216,-13.29
-16.081,-16.732,-12.313,-6.42,-0.534,4.019,-11.314,-13.121
-18.95,-22.623,-17.873,-12.625,-9.925,-9.614,-13.158,-12.26
-23.908,-26.445,-25.471,-18.515,-21.98,-18.079,-21.595,-12.214
-21.542,-21.656,-23.538,-15.126,-19.251,-12.338,-22.852,-8.639
-13.114,-12.616,-13.976,-5.599,-6.317,-0.549,-15.65,-3.015
-10.883,-10.223,-10.221,-2.122,-2.305,1.333,-11.943,-3.823
-18.423,-14.722,-14.78,-7.19,-8.786,-7.031,-13.12,-11.447
-26.089,-17.622,-18.093,-11.112,-12.657,-10.416,-10.112,-15.786
-25.337,-15.782,-14.427,-9.596,-7.7,-5.397,-1.016,-12.266
-17.683,-13.169,-8.069,-8.505,-0.141,-3.606,5.839,-6.974
-10.668,-14.046,-6.834,-10.728,-0.21,-8.293,2.081,-4.585
-10.196,-18.61,-12.596,-12.235,-9.707,-11.523,-10.681,-3.716
-15.084,-22.712,-18.636,-10.789,-18.137,-10.292,-19.66,-2.794
-19.607,-22.628,-19.453,-9.182,-17.772,-8.051,-18.556,-3.452
-21.392,-19.325,-18.616,-9.558,-15.029,-5.942,-19.246,-8.096
-20.604,-14.374,-18.35,-9.117,-14,-2.572,-28.408,-13.084
-17.713,-9.238,-14.645,-5.621,-8.956,1.123,-33.098,-12.214
-17.261,-10.272,-10.613,-4.167,-3.924,0.944,-27.138,-9.572
-22.066,-19.926,-13.351,-9.509,-8.652,-4.84,-22.114,-12.329
-27.185,-29.294,-20.053,-17.626,-18.5,-12.036,-23.804,-17.314
-29.476,-32.713,-25.619,-24.022,-24.835,-18.347,-26.166,-20.699
-31.131,-34.402,-29.831,-28.569,-27.997,-24.949,-26.28,-23.226
-31.96,-35.66,-30.433,-28.525,-27.927,-26.976,-26.424,-22.684
-30.35,-33.431,-24.912,-21.472,-21.178,-19.842,-26.032,-18.182
-26.936,-28.753,-15.648,-12.056,-8.849,-10.56,-18.42,-12.154
-23.379,-23.956,-6.522,-5.897,3.192,-6.282,-2.002,-6.081
-22.571,-19.341,-2.936,-4.781,7.304,-5.228,6.388,-4.292
-25.615,-17.51,-9.827,-8.884,-1.24,-6.138,-6.429,-9.858
-27.842,-19.972,-20.985,-14.343,-14.181,-8.743,-23.734,-15.507
-25.355,-22.413,-25.175,-15.412,-18.695,-8.048,-26.823,-14.109
-22.317,-23.603,-24.394,-14.127,-18.432,-3.681,-22.606,-10.517
-23.942,-27.205,-27.023,-16.484,-23.455,-5.459,-22.157,-10.919
-27.814,-30.064,-31.158,-21.065,-29.245,-16.618,-25.526,-13.886
-29.039,-26.077,-30.263,-21.829,-27.117,-24.365,-28.678,-16.748
-27.756,-19.795,-25.313,-17.803,-20.28,-19.474,-28.32,-18.66
-27.691,-21.174,-23.001,-13.645,-17.374,-8.593,-28.09,-20.606
-31.178,-31.711,-25.617,-13.723,-19.48,-2.496,-31.742,-23.844
-36.877,-44.054,-28.681,-20.036,-20.916,-9.04,-33.459,-25.287
-42.15,-50.634,-30.032,-30.658,-20.868,-26.334,-33.462,-23.825
-45.501,-49.73,-32.574,-38.24,-23.991,-37.791,-41.458,-25.18
-45.536,-45.8,-35.946,-38.242,-29.143,-34.696,-51.486,-29.954
-40.523,-43.111,-34.563,-33.95,-28.547,-28.166,-45.274,-29.522
-30.613,-39.903,-25.66,-27.988,-18.322,-24.438,-23.912,-20.027
-21.705,-34.299,-16.07,-21.344,-6.839,-18.751,-9.307,-10.768
-22.297,-30.268,-16.197,-18.932,-7.125,-14.191,-15.438,-12.235
-31.065,-30.381,-24.465,-22.137,-16.522,-15.685,-30.783,-20.365
-37.5,-32.492,-29.046,-24.912,-20.391,-17.794,-34.269,-23.09
-38.072,-35.872,-26.544,-24.456,-16.746,-16.619,-24.695,-18.191
-38.418,-40.297,-24.19,-24.021,-15.537,-15.928,-17.977,-13.271
-39.413,-42.129,-24.878,-25.086,-18.46,-18.244,-18.435,-12.476
-34.914,-37.68,-24.046,-25.079,-18.357,-20.713,-18.265,-13.426
-24.801,-28.615,-20.822,-21.783,-14.512,-17.725,-19.833,-15.684
-18.149,-22.054,-19.64,-17.181,-13.128,-9.517,-28.375,-21.148
-20.105,-22.841,-21.275,-15.679,-15.732,-5.852,-34.194,-25.107
-25.029,-27.256,-22.59,-18.177,-19.242,-12.338,-28.306,-20.214
-26.272,-29.474,-22.747,-21.6,-22.147,-22.013,-19.251,-10.321
-25.634,-29.571,-23.452,-24.134,-23.826,-27.024,-18.986,-6.68
-27.883,-30.125,-25.455,-25.925,-24.126,-26.919,-25.38,-10.968
-30.674,-30.311,-26.387,-25.777,-23.397,-23.329,-27.132,-14.495
-27.359,-26.64,-21.786,-21.569,-18.754,-16.744,-20.336,-12.134
-16.496,-17.271,-9.555,-13.113,-5.99,-8.816,-9.598,-5.787
-1.831,-3.885,6.231,-2.326,11.961,-0.865,2.833,2.488
10.652,8.208,15.865,6.423,23.101,6.208,12.74,8.889
