EEG 1,EEG 2,EEG 3,EEG 4,EEG 5,EEG 6,EEG 7,EEG 8
-12.224,-7.47,-8.163,-5.933,-8.396,-11.592,4.94,-0.588
-11.251,-6.916,-12.42,-7.115,-10.142,-8.575,9.384,0.22
-5.662,-5.929,-11.105,-4.529,-6.976,-4.662,7.503,4.588
-1.788,-7.018,-8.237,-2.954,-4.802,-2.33,-3.294,6.612
-1.727,-8.189,-4.809,-0.702,-3.594,1.771,-5.221,8.145
-0.484,-6.654,1.403,4.81,1.322,7.031,7.617,12.241
3.656,-4.139,7.262,7.481,7.86,6.632,15.381,12.06
8.073,-2.376,8.402,3.376,10.354,1.107,6.639,3.504
13.376,2.049,9.048,0.845,11.211,1.12,-2.806,-3.938
20.386,10.078,12.893,5.042,14.277,7.765,-1.071,-3.902
24.555,15.946,14.615,8.964,15.548,10.082,0.697,-2.544
23.588,16.759,12.416,8.644,13.095,6.029,-3.626,-2.495
22.897,15.354,11.563,7.748,11.729,3.454,-4.995,-0.484
25.245,12.612,11.414,6.712,11.676,3.504,-2.401,-0.132
25.145,7.23,7.313,3.046,8.715,1.357,-3.755,-5.62
20.444,1.823,2.967,-0.424,6.212,-1.65,-7.49,-9.76
18.18,1.412,5.909,2.122,11.833,0.522,-5.211,-4.226
22.991,6.103,13.664,8.988,22.052,7.351,0.351,4.6
29.522,10.489,15.983,10.925,23.824,10.641,-0.486,3.659
29.721,10.241,9.378,4.16,13.19,4.897,-5.911,-5.828
23.071,7.116,1.248,-3.712,1.006,-4.607,-7.898,-10.314
18.441,7.862,0.574,-3.149,-0.723,-6.902,-5.048,-5.083
22.676,15.637,8.386,5.479,8.732,-0.09,1.035,1.291
30.067,23.639,16.558,12.127,19.171,6.179,6.89,1.779
31.707,23.969,17.073,10.136,20.475,5.157,6.124,-1.58
28.875,18.805,12.435,4.103,14.512,0.337,0.962,-3.603
26.786,14.497,10.166,1.286,10.356,-2.008,2.515,-2.431
23.917,11.571,9.427,1.739,9.301,-0.511,9.309,0.328
17.911,8.683,5.157,1.702,7.111,1.677,8.26,3.126
13.695,8.08,0.174,0.833,4.944,2.501,2.48,4.964
15.818,10.51,-0.474,0.568,5.137,2.808,3.517,3.404
19.859,12.325,0.723,0.201,5.111,2.697,3.039,-1.565
19.875,10.994,0.308,-0.416,3.685,1.708,-6.309,-4.252
16.365,7.153,-0.798,-0.166,2.72,0.57,-11.447,-2.808
12.379,2.591,-1.826,0.124,1.91,-0.451,-7.409,-2.627
9.633,-0.233,-2.391,-0.662,0.814,-1.653,-3.81,-3.776
8.375,-0.939,-2.048,-1.725,0.184,-3.007,-1.552,-1.484
7.757,-0.943,-1.169,-1.015,0.57,-3,5.763,3.162
7.508,0.66,0.919,3.237,3.241,1.122,14.53,6.648
7.843,3.678,3.447,9.127,6.535,8.128,13.838,8.634
7.247,3.745,1.686,11.7,4.244,12.395,2.488,9.369
3.998,-0.782,-6.082,9.308,-5.07,11.687,-8.798,7.789
0.198,-5.416,-13.344,4.395,-12.964,7.732,-11.662,2.859
-0.964,-6.19,-14.436,-0.971,-12.914,1.787,-11.073,-3.936
-0.595,-3.953,-12.072,-4.648,-8.858,-3.169,-14.846,-9.125
-0.645,-1.221,-9.972,-4.523,-5.62,-4.08,-18.256,-11.381
0.267,0.786,-8.163,-2.406,-2.991,-2.797,-14.835,-11.792
2.303,1.298,-7.613,-2.101,-1.861,-2.279,-9.493,-11.321
2.644,-0.008,-8.634,-3.691,-2.818,-2.608,-6.388,-10.568
0.932,-1.626,-7.511,-4.474,-1.418,-3.092,-0.581,-9.269
-0.512,-2.157,-4.278,-4.678,2.469,-4.268,6.491,-7.149
-0.464,-1.695,-5.066,-6.344,0.956,-6.267,3.507,-5.365
0.894,0.1,-10.043,-7.897,-6.511,-6.607,-7.669,-4.077
1.876,2.586,-12.391,-7.66,-10.918,-4.819,-11.763,-2.698
1.133,2.766,-10.846,-8.924,-9.612,-6.201,-7.296,-3.193
-0.121,0.331,-9.804,-13.854,-7.361,-12.771,-5.098,-6.857
-1.652,-0.692,-9.588,-17.99,-5.113,-17.205,-5.592,-9.532
-5.289,0.446,-7.269,-17.257,-0.62,-14.186,-1.681,-7.156
-10.091,-0.951,-3.645,-14.591,4.229,-9.328,6.429,-3.261
-11.63,-5.525,-2.275,-14.087,4.802,-9.16,11.351,-3.588
-7.697,-7.83,-3.981,-14.909,0.637,-11.686,7.659,-7.639
-3.092,-6.998,-7.105,-15.65,-4.646,-13.75,-1.123,-11.163
-5.504,-8.671,-11.895,-17.818,-10.18,-16.685,-10.541,-12.755
-13.373,-12.981,-17.321,-20.508,-15.062,-19.075,-19.74,-12.528
-15.343,-11.843,-16.588,-18.288,-12.077,-14.663,-20.99,-7.203
-8.767,-3.9,-9.013,-10.184,-1.573,-3.248,-11.186,3.729
-4.398,0.742,-6.344,-3.977,1.368,4.481,-3.255,11.147
-6.748,-2.681,-12.674,-5.14,-7.557,1.06,-3.788,6.79
-9.147,-6.997,-17.745,-10.311,-14.613,-7.907,-7.292,-5.926
-9.128,-6.869,-17.328,-15.536,-14.213,-15.079,-12.966,-16.874
-10.269,-4.946,-15.923,-19.588,-11.74,-18.678,-19.053,-19.08
-11.193,-4.055,-13.276,-20.103,-7.57,-17.207,-18.475,-14.158
-7.664,-3.678,-8.391,-16.994,-2.163,-11.809,-12.76,-9.124
-2.85,-3.546,-6.677,-14.809,-2.276,-9.157,-9.273,-7.759
-1.885,-3.75,-9.767,-14.905,-7.728,-11.231,-8.342,-8.533
-1.328,-2.103,-9.405,-12.424,-7.026,-10.778,-5.399,-8.231
2.815,3.004,-1.2,-5.499,3.799,-4.221,1.303,-4.76
6.027,8.693,5.989,-0.219,11.82,1.174,7.828,0.138
3.717,10.546,2.758,-2.173,6.254,-0.6,7.807,2.174
-2.608,7.395,-7.287,-8.489,-5.57,-5.008,0.754,-0.144
-10.483,0.924,-14.169,-13.587,-11.46,-6.912,-5.2,-4.743
-17.489,-6.222,-14.595,-17.147,-10.809,-8.812,-3.053,-9.027
-19.925,-10.016,-11.351,-19.571,-7.918,-11.587,3.379,-10.295
-18.305,-8.907,-7.723,-18.82,-4.05,-11.621,4.061,-7.438
-18.328,-8.403,-7.454,-17.836,-2.274,-11.328,-3.105,-5.121
-22.452,-13.233,-11.922,-21.996,-5.749,-15.26,-9.934,-8.155
-27.227,-18.53,-17,-27.558,-11.28,-18.757,-11.419,-12.153
-28.787,-17.644,-18.003,-26.837,-13.598,-16.587,-9.091,-10.913
-25.642,-12.246,-14.686,-20.893,-11.479,-12.992,-4.427,-6.377
-19.073,-7.987,-10.402,-15.494,-7.136,-11.715,-1.533,-1.811
-14.176,-7.22,-9.882,-12.439,-5.54,-9.844,-6.095,2.505
-15.887,-8.917,-14.977,-11.525,-10.653,-7.354,-15.142,3.685
-21.533,-10.171,-21.002,-13.314,-17.915,-8.943,-20.488,-1.142
-23.501,-8.546,-22.701,-16.445,-19.822,-13.395,-20.111,-7.271
-19.962,-4.572,-20.421,-16.504,-16.916,-13.327,-14.855,-6.417
-16.244,-0.504,-16.532,-12.691,-13.482,-9.207,-5.462,-0.922
-17.005,1.503,-13.262,-11.221,-11.254,-9.98,1.555,-1.433
-20.462,1.1,-12.214,-13.327,-10.446,-14.68,0.493,-5.458
-20.312,1.384,-10.718,-10.536,-9.073,-11.947,-2.593,-1.17
-14.697,4.731,-5.842,-1.576,-5.126,-2.209,0.676,7.084
-9.349,8.196,-1.708,2.932,-2.106,1.883,5.34,5.432
-9,8.454,-3.115,-0.896,-4.648,-2.391,2.533,-3.332
-11.852,6.462,-6.531,-5.255,-8.924,-6.394,-3.992,-6.983
-13.594,4.477,-6.449,-4.496,-7.818,-5.192,-5.399,-4.719
-12.35,3.968,-3.745,0.289,-3.204,-0.414,1.096,-1.572
-10.715,4.302,-2.445,5.118,-2.279,3.445,9.924,0.985
-11.886,3.347,-3.262,6.532,-5.433,3.31,9.776,2.17
-14.08,1.858,-2.873,5.516,-6.636,1.843,0.334,2.192
-14.805,1.309,0.576,5.439,-3.872,3.125,-3.612,3.353
-15.544,0.314,4.067,6.853,-1.605,6.387,2.289,5.712
-16.951,-1.177,3.88,7.759,-2.802,7.676,3.73,5.616
-17.105,-1.131,0.119,6.596,-5.522,5.717,-5.195,1.922
-15.531,-0.437,-4.143,3.562,-7.469,3.324,-11.262,-0.907
-12.924,-1.555,-5.868,0.735,-7.956,3.145,-6.852,0.924
-9.866,-3.075,-3.941,0.721,-6.118,5.841,-0.14,5.341
-8.716,-2.287,-0.049,2.364,-1.71,8.762,3.713,6.658
-10.316,-0.953,2.243,0.985,2.624,6.096,6.199,2.543
-10.969,-1.738,0.159,-3.917,2.244,-1.732,3.488,-2.884
-10.163,-3.088,-5.53,-7.894,-4.086,-6.419,-6.225,-5.343
-12.285,-3.187,-10.553,-8.99,-11.305,-5.613,-13.241,-4.931
-16.159,-3.318,-11.404,-8.831,-13.561,-5.311,-10.194,-3.025
-15.449,-3.711,-7.806,-7.575,-9.252,-6.569,-1.866,-0.931
-9.957,-1.884,-1.081,-3.357,-0.597,-4.211,5.649,0.256
-5.839,2.947,6.322,2.984,7.419,1.416,10.397,1.543
-6.386,7.779,10.254,6.718,9.449,4.155,8.401,3.496
-9.744,8.795,8.366,4.901,5.472,2.262,1.337,4.354
-12.919,5.741,5.395,0.796,3.495,0.291,4.002,4.598
-13.812,2.461,8.206,-0.4,10.1,1.195,20.267,6.89
-13.451,1.147,12.873,0.375,17.419,1.462,28.145,8.479
-16.021,-0.512,8.06,-1.943,11.3,-2.331,11.674,3.659
-21.256,-2.873,-4.95,-5.191,-5.69,-5.043,-13.473,-2.177
-23.596,-2.72,-12.442,-2.594,-16.701,-0.196,-23.969,0.69
-22.823,-0.938,-11.148,2.385,-16.407,7.238,-20.193,4.782
-24.388,-1.858,-11.048,0.892,-15.018,7.656,-17.89,-1.198
-28.148,-5.065,-15.065,-4.263,-17.84,2.3,-19.752,-8.368
-27.87,-5.916,-15.467,-3.771,-18.739,0.345,-16.157,-5.877
-22.056,-3.152,-10.883,0.784,-14.919,3.012,-9.399,-2.162
-17.157,-1.622,-9.705,-0.077,-13.539,1.591,-10.795,-6.527
-20.252,-6.998,-15.747,-8.165,-19.493,-7.121,-18.745,-12.191
-30.178,-17.26,-22.739,-16.665,-26.339,-15.064,-21.965,-12.048
-36.853,-22.379,-23.962,-20.295,-25.954,-15.895,-17.198,-10.822
-35.392,-18.291,-21.788,-19.82,-22.359,-13.064,-11.879,-12.33
-33.105,-13.155,-23.136,-18.419,-24.821,-11.186,-12.592,-12.767
-34.912,-13.619,-27.432,-17.672,-30.919,-9.99,-15.707,-11.264
-36.41,-17.299,-27.68,-18.071,-30.655,-10.043,-12.845,-10.763
-34.481,-19.611,-21.056,-18.594,-22.045,-12.023,-4.009,-8.999
-31.416,-18.989,-12.186,-16.632,-12.169,-12.56,1.21,-3.473
-29.09,-17.853,-7.857,-13.022,-7.967,-10.885,-2.038,0.68
-26.761,-18.666,-8.73,-11.415,-9.048,-10.269,-5.149,0.093
-23.41,-19.207,-8.59,-11.076,-8.686,-9.819,0.787,0.296
-20.105,-17.442,-4.934,-8.561,-4.352,-6.004,10.713,4.092
-20.176,-16.53,-2.224,-4.623,-1.258,-0.322,15.586,6.75
-23.842,-18.021,-1.733,-1.488,-1.435,3.169,17.335,7.971
-25.289,-17.67,-0.745,1.314,-1.563,4.097,17.422,9.868
-20.969,-13.576,-1.363,2.727,-2.324,3.337,5.842,7.159
-14.975,-9.431,-5.756,0.816,-5.595,0.817,-13.798,-0.577
-12.344,-7.859,-8.986,-1.733,-7.734,-1.055,-19.679,-3.129
-13.688,-8.407,-7.801,-1.595,-6.175,0.426,-11.025,1.116
-16.791,-9.868,-5.503,0.307,-3.5,4.046,-5.932,2.966
-18.581,-10.597,-3.954,1.659,-1.506,6.521,-5.253,0.76
-16.584,-9.327,-1.817,2.038,0.186,6.694,-0.123,1.253
-11.524,-6.12,0.722,3.012,1.068,7.429,5.332,5.691
-7.489,-2.372,2.299,4.516,0.898,9.719,3.979,7.148
-6.931,0.385,3.574,4.246,2.156,9.312,1.08,3.27
-7.933,2.256,5.923,2.788,6.122,5.934,3.545,0.769
-9.089,2.523,6.68,1.501,7.276,3.629,6.384,0.609
-11.005,-1.152,2.361,-1.841,0.412,0.245,3.503,-3.511
-11.173,-5.748,-2.623,-6.247,-7.964,-5.892,-2.392,-8.088
-6.363,-4.071,-0.747,-5.508,-7.179,-7.245,-5.273,-4.109
0.946,3.147,6.522,1.015,1.296,-0.516,-0.162,4.811
6.083,7.614,11.645,7.162,7.377,6.771,8.792,9.425
7.55,6.061,11.865,10.093,7.577,9.626,10.444,11.205
5.58,2.696,9.963,11.712,5.681,10.792,7.743,14.921
1.097,0.74,8.491,12.478,4.197,12.437,10.023,16.21
-3.946,-1.605,7.332,10.554,2.893,11.909,10.232,10.434
-8.5,-6.138,5.728,5.78,1.498,6.781,1.981,2.244
-11.757,-9.955,4.325,1.269,0.336,0.538,-5.524,-1.206
-11.382,-9.8,3.928,-0.082,0.08,-0.754,-5.942,2.184
-6.939,-7.066,4.411,0.536,1.431,2.304,-2.041,7.826
-1.887,-4.027,5.816,0.669,3.771,3.548,3.513,9.019
-0.045,-1.255,7.736,0.519,5.429,1.662,7.797,5.42
-1.732,0.116,8.471,0.377,6.366,0.992,7.189,1.336
-2.493,-0.327,7.393,0.29,7.351,4.353,2.473,-1.48
2.28,-0.199,6.881,3.093,8.422,10.268,0.235,-1.654
10.754,3.175,10.432,10.532,11.206,15.498,7.506,4.044
15.362,7.33,16.642,17.686,15.581,18.238,21.372,12.528
11.599,6.417,18.473,17.795,16.557,17.501,29.265,13.812
4.988,2.232,14.353,12.287,13.224,13.729,24.473,7.131
3.488,1.877,10.005,8.418,9.869,10.924,10.289,2.71
6.109,4.036,7.105,7.897,6.92,11.263,-5.747,3.763
7.581,3.091,4.472,7.312,4.623,11.232,-13.987,4.812
6.564,-0.341,2.734,4.646,4.569,6.72,-13.313,2.352
3.494,-3.92,-0.728,-1.128,1.717,-2.486,-11.528,-3.483
0.751,-7.352,-6.843,-8.211,-6.397,-10.831,-8.894,-8.419
3.633,-8.13,-8.522,-10.364,-9.967,-10.668,-2.079,-6.714
12.049,-3.159,-1.886,-4.607,-2.953,-1.866,5.141,1.379
19.03,5.242,6.765,3.826,6.463,7.144,9.771,8.998
19.747,10.529,9.385,6.761,8.393,8.527,9.995,9.32
13.901,9.584,4.429,1.947,2.212,2.756,2.331,4.272
4.776,6.015,-2.177,-4.53,-4.708,-2.87,-7.442,0.295
-1.045,3.909,-5.246,-8.217,-7.127,-5.271,-10.791,-5.606
0.335,2.867,-5.844,-10.431,-7.261,-7.155,-11.257,-15.085
4.933,1.032,-4.986,-10.289,-7.005,-7.115,-11.371,-16.849
4.928,-2.573,-2.947,-8.359,-5.792,-4.894,-6.396,-10.314
-1.258,-7.622,-3.232,-10.521,-5.511,-7.02,-0.206,-9.703
-6.569,-11.301,-6.739,-15.458,-7.542,-12.903,-2.025,-14.315
-6.085,-10.972,-9.012,-14.775,-9.475,-13.882,-10.035,-11.52
-2.461,-7.611,-6.644,-7.703,-7.985,-8.7,-12.52,-2.195
0.928,-4.268,-1.033,-1.021,-2.905,-3.268,-3.543,3.277
1.83,-3.733,2.332,0.217,0.628,-1.436,6.67,1.357
-2.39,-7.539,-0.544,-3.844,-1.676,-3.648,4.554,-3.382
-9.564,-13.535,-6.043,-8.587,-6.052,-7.806,-6.212,-5.96
-13.613,-17.006,-7.529,-9.802,-6.584,-10.123,-9.973,-6.842
-12.341,-16.491,-3.505,-7.461,-2.565,-8.351,-1.357,-7.146
-7.748,-14.483,2.272,-3.73,3.391,-4.333,8.967,-4.094
-3.132,-13.008,5.156,-1.089,7.595,-1.49,10.724,1.217
-0.891,-11.755,4.442,-0.903,7.845,-0.453,7.02,2.969
0.169,-9.498,4.22,-1.063,7.082,0.591,5.096,0.673
1.298,-6.079,7.301,2.009,9.44,3.235,5.449,-0.756
1.074,-2.592,11.35,7.689,13.341,6.771,6.597,0.376
-0.539,-0.502,12.84,10.693,14.205,7.71,7.773,1.27
-1.875,-0.158,12.032,8.529,12.409,4.744,6.768,0.88
-2.177,-0.056,11.639,5.53,11.823,1.989,4.324,0.949
-1.766,-0.009,11.882,5.403,12.452,1.966,4.998,1.079
-1.544,-1.676,11.38,5.437,12.319,1.335,9.86,-0.589
-1.363,-4.339,10.448,2.871,11.799,-1.403,12.7,-2.676
0.321,-5.644,9.522,0.707,10.797,-2.049,8.912,-2.019
4.022,-5.077,8.448,2.289,8.715,1.273,5.431,1.126
8.421,-3.633,7.439,5.033,6.684,3.996,7.232,3.034
12.147,-2.181,6.647,5.845,5.304,3.74,5.113,2.502
14.228,-0.669,6.335,8.444,3.956,5.94,-4.75,3.983
14.181,1.469,6.667,16.051,2.908,13.598,-9.981,9.403
14.333,5.162,8.946,22.774,5.393,19.22,-2.783,12.148
17.128,10.266,14.512,22.755,13.361,16.519,6.836,8.7
18.479,12.806,17.381,18.618,17.387,10.102,5.019,3.085
13.651,9.711,10.128,13.799,7.344,6.045,-6.992,-3.925
8.483,5.862,0.069,8.727,-5.615,4.904,-14.252,-10.425
11.16,7.514,-0.043,5.675,-4.341,4.999,-9.542,-9.506
17.742,12.123,7.268,6.827,6.046,4.705,-2.104,-2.463
19.903,13.461,11.875,10.098,10.877,4.935,0.196,1.903
17.598,10.85,12.452,11.772,9.344,7.158,0.65,0.513
13.722,7.189,12.789,11.651,8.33,8.685,2.755,-1.521
8.34,4.534,13.069,13.315,8.75,8.478,3.594,2.527
3.304,3.835,11.605,18.012,7.501,10.593,-0.041,12.439
2.122,4.331,9.857,21.362,5.17,14.581,-3.899,18.174
4.549,4.21,10.047,18.399,4.559,13.231,-1.292,11.529
7.822,3.489,10.881,10.394,5.161,5.162,4.395,-0.268
9.446,2.957,10.505,3.718,4.902,-0.948,4.175,-5.054
5.757,0.359,8.161,0.335,2.601,-0.824,-1.953,-4.261
-3.157,-5.501,3.684,-2.562,-1.327,0.083,-5.637,-3.865
-8.289,-8.277,1.262,-2.429,-2.182,0.377,-1.181,-0.606
-3.564,-2.745,5.459,4.274,3.809,3.55,7.643,6.145
3.619,4.821,11.73,11.108,11.271,6.949,12.414,7.871
4.579,6.753,12.599,10.633,12.936,6.509,12.391,2.351
1.919,5.509,9.978,6.556,11.158,4.624,11.971,-1.905
1.804,6.412,10.203,6.079,12.202,4.649,9.414,0.567
3.665,8.577,12.929,9.288,15.032,6.437,3.324,5.591
3.673,8.478,13.511,12.081,14.503,8.75,-1.126,7.043
2.306,6.69,11.258,12.406,10.931,9.897,-0.992,4.24
3.942,7.492,10.965,12.08,10.601,9.569,5.634,2.058
10.715,12.976,16.483,14.939,16.816,11.395,19.832,5.15
19.402,19.61,22.682,20.332,22.369,16.739,25.776,9.386
24.111,21.652,20.035,21.686,17.376,20.191,6.193,7.105
21.934,18.065,9.529,16.593,5.219,17.833,-21.009,1.187
16.499,13.856,1.905,10.441,-1.484,12.112,-25.781,-0.91
13.204,12.811,1.457,6.989,0.119,6.603,-11.883,0.231
12.304,13.535,3.57,5.086,2.824,3.394,-0.822,1.06
11.396,13.798,4.844,3.118,2.967,2.128,2.005,0.295
10.686,13.434,5.487,0.831,2.389,0.392,0.872,-2.834
11.639,13.227,6.803,0.14,3.528,-0.879,-3.05,-5.549
13.684,12.863,9.163,2.473,6.632,0.785,-6.41,-3.408
14.621,11.053,10.47,5.756,8.699,3.746,-3.121,1.672
13.524,8.722,9.588,8.211,8.338,5.744,6.109,4.001
11.405,8.233,8.227,9.771,8.027,6.478,11.883,2.809
9.114,8.789,6.234,9.073,7.066,5.59,6.481,1.465
7.186,7.446,1.899,5.33,2.643,3.325,-5.299,0.937
6.996,4.577,-2.283,1.333,-1.887,1.314,-9.974,0.063
9.86,4.233,-2.078,0.639,-2.011,1.425,-3.36,-0.487
15.179,8.277,1.902,3.627,0.329,4.009,4.567,0.66
18.875,12.989,5.29,7.413,1.466,6.715,6.118,2.838
16.87,14.305,5.366,8.978,1.168,7.535,4.37,4.256
12.039,13.549,4.024,8.71,1.769,8.149,4.629,4.564
10.91,14.097,5.392,9.164,5.156,9.966,6.966,4.794
15.253,16.797,10.929,11.492,10.641,11.579,8.562,5.875
22.116,20.556,17.71,14.634,15.082,12.157,9.421,7.446
27.233,22.863,20.018,15.353,14.181,11.008,8.96,7.546
29.024,22.825,16.306,12.755,8.798,8.417,5.105,7.321
29.756,23.703,13.367,11.551,7.252,7.958,4.008,9.673
29.473,25.87,15.619,13.664,12.336,10.01,11.368,11.586
26.91,25.636,19.823,16.681,18.066,12.222,20.06,12.94
25.767,24.263,24.381,20.813,23.008,16.543,22.695,17.84
28.056,24.503,28.009,23.12,27.628,20.645,17.854,17.786
28.809,23.233,25.275,17.761,25.364,16.235,5.955,6.177
26.485,19.243,16.348,9.044,14.26,5.941,-8.327,-3.399
26.463,17.754,9.458,6.379,4.544,1.367,-17.706,-2.53
30.091,21.257,10.006,10.849,4.96,5.471,-16.2,0.55
32.613,26.172,16.515,17.966,13.149,12.525,-3.995,2.982
31.87,28.972,23.061,22.824,20.532,16.976,8.773,7.464
29.329,28.13,22.368,20.296,19.976,15.314,10.681,8.832
25.495,23.535,14.079,10.927,12.203,8.402,2.725,3.075
21.043,18.233,7.493,3.581,5.589,3.001,-2.553,-2.676
18.679,15.668,9.135,4.32,5.945,3.649,2.402,-1.462
19.189,14.316,14.016,8.428,10.39,6.518,11.057,3.419
19.427,10.934,14.208,9.139,12.702,7.152,12.475,5.419
17.861,7.219,9.449,7.139,9.994,6.562,6.519,4.029
17.101,6.972,5.245,6.596,4.936,6.243,4.212,4.212
17.677,8.782,3.601,7.24,1.336,5.168,8.873,7.249
16.013,7.824,0.987,5.347,-1.785,2.324,10.277,6.894
12.517,4.497,-2.925,1.214,-5.129,-1.102,4.535,0.735
13.22,4.175,-2.544,-0.106,-3.832,-1.926,1.015,-3.453
18.396,7.814,4.062,3.008,4.243,0.96,7.92,-0.168
20.009,10.358,10.22,5.933,11.291,4.493,19.891,5.409
15.376,9.348,8.501,5.384,7.63,6.235,18.585,6.8
12.2,8.371,1.368,3.58,-3.6,6.054,-0.792,4.554
15.047,9.39,-2.078,2.565,-9.546,3.4,-15.251,2.963
17.482,8.604,-0.883,1.239,-7.749,-0.284,-11.712,4.518
13.515,3.682,-1.896,-1.258,-7.14,-1.672,-5.609,5.234
6.565,-2.468,-5.34,-4.823,-9.689,-2,-3.774,-0.393
2.858,-5.524,-4.145,-7.489,-8.3,-3.752,6.519,-5.625
3.788,-3.297,1.982,-6.416,-2.494,-4.252,19.759,-2.298
5.264,0.547,2.893,-5.639,-1.931,-4.262,10.163,-0.798
3.402,0.056,-5.465,-11.234,-9.555,-9.881,-17.405,-10.294
0.813,-3.052,-13.099,-17.845,-15.679,-17.838,-26.398,-18.27
1.607,-3.559,-13.411,-17.224,-15.194,-18.446,-11.321,-14.002
3.53,-3.361,-12.699,-12.942,-14.735,-13,-2.183,-6.709
2.662,-6.078,-15.881,-12.209,-18.514,-10.62,-7.391,-6.536
0.601,-8.748,-17.602,-13.369,-20.319,-12.646,-8.736,-8.469
0.888,-7.753,-12.479,-11.382,-14.648,-13.15,-1.589,-6.031
2.453,-5.137,-4.634,-7.318,-6.704,-10.03,1.793,-4.163
2.96,-2.943,-0.27,-3.936,-3.21,-5.04,-0.352,-6.044
4.859,1.135,2.112,-0.002,-1.846,0.523,1.902,-5.693
10.058,7.394,5.944,4.797,1.186,3.932,7.379,-0.976
14.624,11.605,9.789,8.855,4.268,4.781,6.382,3.887
15.942,12.096,12.098,12.418,6.883,7.591,1.492,6.46
16.634,11.346,13.165,14.28,10.012,11.361,2.594,6.151
17.685,11.261,11.84,11.593,10.535,9.348,10.274,3.255
17.174,12.824,8.714,7.327,7.371,3.922,16.051,2.191
16.882,16.993,8.526,8.351,6.352,4.366,14.041,7.878
20.666,22.275,13.12,14.338,10.967,10.651,9.986,15.639
25.531,22.863,16.349,16.358,15.622,13.591,9.606,14.062
23.441,13.884,11.466,8.756,12.594,7.793,5.543,1.97
14.176,0.313,2.686,-1.883,4.276,-1.855,-3.919,-8.25
6.992,-7.411,0.654,-4.632,1.487,-5.365,-4.805,-7.137
6.258,-7.623,5.764,1.244,6.656,-0.164,7.037,1.716
5.874,-7.712,8.451,6.548,10.473,5.11,17.075,7.734
1.252,-11.796,4.209,4.431,6.693,2.596,14.095,3.2
-3.523,-16.528,-2.889,-3.744,-0.297,-6.221,1.715,-9.509
-4.463,-19.061,-8.267,-12.605,-3.48,-15.84,-10.324,-19.219
-4.677,-21.438,-11.843,-18.362,-4.244,-22.582,-16.059,-19.244
-6.749,-23.566,-14.272,-19.161,-7.731,-23.661,-16.194,-14.011
-6.344,-21.176,-12.917,-14.459,-10.387,-17.975,-14.097,-9.239
-0.239,-14.486,-7.689,-8.037,-7.278,-9.893,-9.48,-6.256
6.139,-9.576,-4.45,-6.158,-3.252,-6.082,-0.535,-6.498
4.669,-10.141,-7.562,-10.603,-5.085,-9.146,5.635,-10.85
-4.505,-13.043,-15.001,-17.121,-12.552,-16.339,-2.918,-15.245
-11.264,-12.642,-19.833,-19.306,-18.282,-20.991,-19.765,-14.112
-7.519,-8.571,-16.568,-14.754,-14.703,-18.521,-24.423,-8.134
1.818,-5.732,-9.4,-8.264,-5.908,-12.014,-15.495,-2.994
5.822,-5.734,-6.691,-4.986,-3.125,-6.587,-7.053,-1.061
1.945,-4.939,-7.46,-3.573,-5.612,-3.088,-2.415,-0.556
-2.658,-1.588,-4.48,-0.113,-2.852,-0.408,2.055,1.826
-1.852,2.697,2.262,5.294,5.32,2.47,5.679,7.72
2.709,7.108,5.784,8.151,8.794,4.996,7.602,10.588
6.595,10.93,4.132,6.697,5.108,4.739,11.356,6.497
8.144,11.755,2.331,6.006,1.575,3.363,18.135,5.36
6.452,8.414,1.754,7.769,0.83,3.921,20.367,9.423
1.174,2.901,-1.653,5.293,-1.962,1.956,13.671,5.968
-4.126,-1.659,-7.697,-2.302,-7.663,-4.961,3.824,-4.369
-4.653,-3.124,-10.461,-6.511,-10.07,-9.681,-3.858,-7.832
-0.843,-1.289,-7.052,-4.859,-5.603,-9.028,-6.044,-3.846
2.898,2.797,-1.126,-1.884,1.098,-5.958,-0.887,0.166
4.585,7.477,2.993,1.673,4.235,-0.71,6.591,4.447
5.627,10.41,5.512,6.253,5.084,5.044,10.645,9.186
8.793,12.364,9.471,10.017,9.343,8.198,12.684,10.371
15.223,17.304,14.887,12.455,17.589,10.226,15.139,7.976
21.075,23.849,16.509,13.583,21.629,12.898,14.534,6.132
22.142,25.808,11.868,14.496,15.082,15.941,8.677,8.707
19.247,22.291,6.711,17.312,4.385,18.802,3.505,14.451
14.04,17.009,4.719,18.211,-1.053,17.928,5.039,13.719
7.178,11.803,2.747,11.939,-1.558,10.948,10.947,2.676
2.141,7.789,0.806,3.753,-0.34,3.867,14.504,-5.672
2.079,5.439,1.61,1.13,2.176,2.825,13.637,-2.491
4.807,2.375,2.038,0.763,3.348,4.232,9.722,2.575
6.733,-1.541,-0.487,-1.739,1.914,3.503,4.835,1.987
6.855,-2.13,-0.21,-2.137,3.434,3.571,7.255,2.265
4.442,0.729,4.443,1.334,8.437,5.815,18.123,6.763
-1.004,2.08,3.788,3.07,6.716,6.152,20.382,8.785
-6.524,0.763,-4.217,1.973,-2.814,4.758,7.354,6.159
-7.236,-0.306,-8.646,2.286,-7.861,5.113,-6.495,3.386
-2.507,-0.073,-6.283,4.02,-5.452,6.039,-12.963,1.77
2.216,0.781,-4.618,4.092,-3.578,5.149,-14.677,-0.234
2.805,2.346,-5.659,2.562,-3.611,3.633,-12.071,-3.088
1.989,4.871,-5.064,1.851,-1.413,3.161,-6.313,-5.367
3.313,6.946,-3.081,2.17,1.426,2.982,-3.145,-4.435
5.602,6.762,-3.058,2.608,1.165,2.884,-4.926,0.507
6.062,4.824,-3.147,4.31,0.442,4.596,-5.224,6.189
3.177,2.744,-0.451,6.189,2.656,5.963,1.385,6.972
-2.659,1.147,2.369,4.395,4.992,2.59,9.135,2.469
-8.625,0.134,1.657,-0.067,3.646,-2.416,9.271,-0.535
-11.609,-0.367,-1.992,-2.478,-0.624,-2.601,3.816,0.641
-10.588,-0.709,-4.353,-1.517,-2.902,1.22,2.245,1.692
-6.626,-0.623,-2.061,0.979,0.709,4.358,6.683,1.82
-1.957,1.382,1.908,3.259,6.146,5.49,9.07,4.784
1.567,5.28,2.017,4.329,5.963,5.701,5.567,9.378
3.134,7.23,-0.588,4.032,1.451,5.874,3.137,9.057
2.396,4.442,-0.816,3.413,-0.016,6.566,6.439,3.454
-0.001,-0.184,1.531,4.096,2.743,8.112,13.413,1.217
-2.447,-2.156,2.523,6.091,4.605,9.411,20.715,5.293
-3.883,-0.496,-0.176,7.246,2.353,8.338,20.624,7.348
-3.48,2.658,-5.194,6.198,-2.564,5.344,10.118,3.423
-0.367,5.118,-9.659,3.865,-7.249,2.916,-1.224,-0.704
2.995,6.797,-12.256,1.611,-10.553,1.73,-7.676,-1.205
1.339,7.837,-12.509,0.323,-11.814,1.618,-9.295,1.21
-4.672,7.333,-9.161,1.354,-8.871,3.867,-2.507,6.863
-7.928,5.983,-2.591,5.497,-1.569,8.826,10.592,14.433
-6.368,5.34,3.327,9.48,5.415,12.458,19.048,16.215
-4.505,5.272,4.436,8.184,7.23,10.357,14.098,7.355
-4.076,5.531,0.855,3.143,3.959,5.532,-0.815,-3.06
-2.338,6.81,-2.705,1.549,-0.292,4.546,-10.201,-3.38
2.022,9.448,-2.57,4.901,-1.678,7.512,-5.725,3.92
6.73,12.941,0.111,7.666,0.277,10.091,3.611,8.596
9.663,15.814,3.043,6.713,3.31,10.355,8.664,7.684
11.262,16.839,6.13,4.281,6.465,9.123,9.95,5.638
12.057,17.01,9.363,3.164,10.67,8.127,9.205,5.046
11.628,17.629,10.785,3.635,13.853,8.125,5.687,5.449
10.908,18.051,9.833,5.443,13.642,9.511,2.263,9.435
11.779,17.731,10.209,9.654,14.413,13.719,5.912,18.339
14.381,17.526,13.717,14.31,19.662,18.218,15.237,22.39
16.131,17.632,14.976,12.86,22.062,15.739,18.108,12.942
14.221,16.771,9.976,4.682,15.35,6.242,9.121,0.554
10.42,14.807,4.103,-0.861,7.358,-0.121,-2.297,-1.295
10.374,14.355,4.239,2.006,7.487,2.191,-3.417,3.363
15.276,17.01,9.29,8.497,13.142,8.123,6.758,6.588
19.658,20.385,13.952,13.101,17.744,12.73,15.83,9.603
21.365,23.131,16.68,16.363,20.051,16.812,15.497,14.121
23.992,26.621,18.066,18.691,20.224,19.482,10.163,15.994
26.677,29.503,16.77,17.211,17.457,16.615,5.135,12.03
25.199,29.526,14.082,14.293,15.278,12.053,3.333,7.658
21.284,27.707,14.171,16.16,18.24,14.32,7.736,9.658
17.768,24.658,15.027,19.685,21.682,19.282,14.929,13.758
12.449,19.75,10.188,16.977,16.652,16.977,16.99,12.097
5.831,15.337,1.855,11.002,6.183,11.458,12.933,7.76
3.535,14.449,0.013,10.255,3.384,12.741,10.2,7.714
6.761,15.552,6.107,13.768,10.442,18.307,14.273,9.955
10.38,15.043,10.181,14.211,15.075,18.552,18.322,9.318
11.58,12.768,7.42,10.535,11.953,13.023,11.038,6.987
13.36,12.004,5.378,9.245,10.245,10.386,-0.676,8.058
17.208,14.381,10.184,13.379,15.654,13.739,-0.067,13.166
18.839,16.463,15.83,16.033,20.639,15.272,5.946,14.973
15.403,14.4,14.014,11.46,16.825,9.833,-0.983,9.452
10.021,10.181,7.066,5.209,7.606,3.32,-13.628,2.888
6.395,8.231,2.382,2.68,2.477,0.365,-14.341,-2.125
4.766,9.074,1.321,0.929,3.532,-1.743,-5.855,-7.926
4.501,10.949,2.753,0.071,6.917,-2.11,2.319,-9.256
6.917,13.26,7.809,4.348,12.13,2.888,9.642,-1.991
11.954,15.166,13.489,10.231,18.448,8.892,13.36,6.451
15.365,15.293,13.146,10.902,20.092,9.65,9.141,8.148
15.684,15.179,7.402,8.26,14.889,8.241,2.528,5.091
16.635,17.646,3.277,7.909,9.391,10.097,1.17,3.348
17.676,20.687,3.021,8.995,8.791,12.433,4.243,3.597
15.055,20.277,3.861,8.144,10.679,10.919,8.045,3.818
11.431,17.898,4.376,6.717,11.592,8.163,10.835,5.207
10.708,16.64,3.68,6.958,10.446,7.67,9.48,7.77
10.427,14.669,1.275,7.176,7.756,7.937,3.305,8.331
9.641,11.305,1.359,6.492,8.023,7.279,0.505,8.182
13.544,11.771,8.89,8.719,16.241,8.381,7.478,12.75
21.7,17.419,19.235,15.255,27.44,12.985,16.332,20.073
24.03,20.972,21.655,19.724,29.291,16.191,16.308,20.822
17.575,19.298,16.168,17.611,21.484,13.535,10.831,14.372
12.54,19.065,13.515,14.639,17.386,9.758,11.309,10.907
14.449,23.397,16.796,16.896,21.336,11.881,20.137,13.406
17.117,26.33,18.802,20.641,24.199,17.428,27.789,15.166
15.904,23.962,14.973,20.089,20.192,18.95,23.007,14.542
14.014,19.932,8.684,16.852,13.576,16.328,8.277,13.828
15.336,18.969,6.59,14.859,11.784,14.317,0.857,10.292
18.231,21.442,9.482,13.38,14.955,12.99,5.357,2.802
19.13,24.992,10.804,10.97,15.516,10.201,5.868,-1.762
18.809,27.807,8.067,10.136,11.423,7.866,-2.467,1.794
19.84,29.466,6.745,12.831,10.107,8.89,-6.235,9.404
21.577,31.104,9.625,17.026,14.69,12.793,-0.244,15.125
22.105,33.029,12.428,19.636,18.098,16.495,7.784,16.564
21.921,32.445,12.258,18.064,16.081,15.867,13.404,12.835
22.743,28.493,11.904,12.924,13.7,10.475,16.374,6.617
23.144,24.844,12.211,9.163,12.727,5.997,12.545,2.192
19.579,22.865,7.933,7.621,6.281,5.088,-0.915,-1.657
13.446,21.117,-1.328,4.517,-5.281,4.638,-17.023,-6.609
10.399,20.789,-6.029,1.218,-9.552,3.451,-24.36,-8.566
11.187,21.877,-2.097,0.634,-2.914,1.168,-19.116,-5.331
11.367,20.528,1.919,0.522,2.462,-2.391,-9.058,-1.649
9.973,16.39,0.456,-0.174,0.181,-3.28,-4.206,-1.536
10.07,13.846,-0.718,1.084,-0.9,0.016,-4.074,-1.91
11.538,14.181,2.606,3.99,3.992,2.426,-0.195,1.104
10.804,14.602,5.279,5.195,6.424,1.202,6.459,4.126
7.324,14.034,3.423,4.298,2.259,-0.252,5.249,2.731
4.166,12.793,0.974,4.233,-1.499,0.69,-1.931,-0.009
2.187,9.681,1.18,5.759,-1.296,2.775,-3.665,0.235
-0.638,4.829,1.447,6.262,-1.365,4.363,-2.62,1.681
-3.798,0.901,-0.134,3.948,-3.179,3.46,-6.343,1.486
-3.4,-0.101,-0.196,0.584,-2.316,-1.069,-7.867,1.833
0.885,1.396,4.303,-0.394,3.799,-4.642,-0.371,4.926
2.205,2.141,9.594,0.188,10.521,-4.162,6.548,5.276
-3.663,-0.595,9.707,-2.35,11.84,-5.036,4.023,-1.349
-10.322,-4.151,5.425,-7.436,8.693,-9.551,-0.376,-7.067
-10.836,-4.408,2.199,-9.657,6.377,-11.982,1.183,-5.526
-7.784,-2.937,2.047,-8.502,7.546,-10.419,3.3,-2.821
-6.433,-3.507,2.248,-7.716,9.222,-8.752,0.285,-4.34
-6.525,-4.971,0.452,-7.725,6.138,-8.234,-3.499,-6.375
-6.287,-4.854,-1.993,-6.671,-0.383,-7.001,-3.944,-4.915
-7.014,-4.942,-3.438,-5.35,-3.83,-4.87,-5.204,-2.455
-9.501,-6.986,-4.717,-5.316,-3.171,-3.174,-9.531,-2.664
-12.306,-9.173,-6.304,-5.557,-2.626,-2.004,-11.716,-3.703
-14.29,-10.026,-7.054,-4.014,-3.995,-0.456,-9.782,-0.292
-13.942,-9.288,-5.771,1.214,-4.663,3.55,-7.074,9.935
-9.304,-6.089,-2.246,8.88,-1.961,10.214,-1.83,19.605
-3.418,-2.556,2.062,9.979,3.448,9.907,8.715,14.799
-3.334,-3.19,3.848,-0.555,7.653,-3.703,15.268,-3.049
-8.817,-6.77,-0.621,-11.167,4.148,-15.476,7.512,-13.675
-12.984,-8.638,-10.285,-11.839,-7.582,-12.799,-6.789,-9.475
-15.048,-9.367,-17.946,-9.991,-16.892,-8.204,-13.921,-3.955
-17.898,-10.633,-19.303,-12.695,-17.668,-12.309,-13.239,-3.544
-17.712,-8.963,-16.007,-14.084,-14.61,-14.517,-8.516,-0.249
-11.279,-3.782,-10.221,-11,-9.717,-8.005,0.029,4.367
-6.094,-2.315,-5.797,-11.437,-3.785,-4.936,5.17,-3.012
-8.585,-7.034,-7.036,-18.032,-3.268,-12.651,-3.012,-18.062
-12.614,-9.956,-11.42,-20.834,-9.667,-19.11,-16.933,-19.977
-11.327,-5.939,-12.641,-14.192,-14.72,-14.675,-20.56,-6.247
-7.337,0.421,-9.53,-5.48,-12.57,-6.978,-15.75,5.11
-5.065,3.738,-5.461,-2.845,-6.139,-4.887,-11.749,3.231
-4.468,3.87,-2.518,-5.382,-0.518,-5.705,-6.015,-5.464
-4.075,2.256,-1.566,-7.749,1.292,-4.778,0.372,-9.413
-3.579,-0.532,-3.347,-7.376,-1.216,-3.818,-2.052,-6.084
-3.813,-3.536,-5.392,-5.187,-4.238,-4.099,-9.801,-2.085
-6.784,-6.157,-4.591,-3.671,-4.166,-3.373,-10.028,-2.285
-12.553,-8.345,-3.071,-4.852,-3.324,-2.619,-3.537,-4.359
-16.368,-8.803,-4.532,-7.959,-4.999,-4.81,-1.955,-4.482
-14.198,-6.515,-7.543,-10.459,-7.422,-8.449,-6.848,-4.196
-9.415,-4.252,-8.961,-12.424,-7.709,-10.849,-9.305,-7.199
-8.203,-5.843,-9.924,-15.842,-7.196,-12.411,-5.601,-12.221
-10.013,-9.362,-11.818,-17.762,-7.967,-11.387,1.18,-13.071
-10.073,-10.112,-12.208,-13.276,-8.456,-4.855,6.048,-6.416
-9.121,-9.553,-10.653,-7.813,-7.459,-0.19,2.938,0.829
-11.006,-12.056,-10.982,-10.897,-7.507,-7.187,-5.321,-0.279
-14.564,-16.111,-14.703,-18.34,-10.656,-17.851,-8.551,-6.168
-17.418,-17.956,-19.376,-19.821,-15.869,-18.322,-9.512,-8.027
-21.96,-19.136,-22.867,-17.521,-20.881,-13.262,-15.713,-7.104
-29.665,-22.928,-24.49,-19.658,-23.655,-14.894,-19.718,-9.711
-34.757,-27.167,-23.408,-24.787,-22.589,-20.15,-15.692,-14.655
-30.1,-26.222,-18.212,-24.828,-16.125,-17.736,-10.817,-14.829
-18.468,-19.884,-10.972,-19.139,-7.142,-10.281,-7.954,-10.485
-11.748,-15.451,-9.367,-16.628,-5.803,-11.235,-3.799,-10.39
-15.201,-17.103,-16.134,-20.596,-15.303,-20.009,-1.96,-15.357
-20.4,-19.785,-22.123,-22.986,-22.919,-22.989,-7.739,-16.634
-18.64,-18.458,-19.69,-18.918,-19.477,-17.308,-14.811,-11.897
-11.974,-15.374,-13.28,-12.928,-12.476,-10.856,-12.194,-6.998
-8.206,-15.269,-10.474,-10.085,-10.904,-8.143,-0.926,-6.024
-10.947,-18.248,-12.247,-10.476,-13.186,-8.468,6.905,-8.427
-16.32,-19.735,-14.371,-10.759,-13.783,-8.471,3.832,-10.604
-19.737,-17.707,-13.151,-9.07,-10.86,-6.083,-3.411,-8.927
-21.329,-15.573,-9.265,-7.594,-6.561,-4.522,-5.001,-3.878
-21.176,-15.733,-6.388,-8.155,-4.176,-6.56,-3.898,0.714
-17.813,-16.827,-7.386,-9.759,-6.421,-9.492,-7.776,0.895
-13.752,-17.695,-11.629,-11.91,-13.109,-11.755,-12.496,-4.351
-12.995,-17.709,-14.415,-13.952,-18.169,-14.65,-10.145,-9.9
-14.334,-16.014,-13.739,-13.749,-17.652,-16.319,-6.35,-10.558
-14.068,-13.183,-13.125,-10.627,-15.963,-13.354,-8.841,-8.573
-12.162,-10.255,-12.251,-5.173,-14.515,-5.739,-9.405,-5.882
-11.189,-7.942,-7.175,1.551,-9.282,2.792,-0.804,0.496
-11.626,-7.244,0.052,6.665,-2.384,7.837,7.091,8.082
-12.112,-8.421,5.094,8.44,1.123,9.238,8.628,9.927
-12.168,-10.372,9.262,8.942,3.787,10.816,14.979,6.421
-12.54,-12.07,11.965,9.081,6.509,12.774,24.657,2.287
-14.83,-14.282,5.729,6.455,0.729,10.656,16.005,-0.449
-18.862,-17.487,-7.214,2.253,-11.88,4.176,-5.582,-0.986
-22.172,-20.702,-12.857,0.089,-16.27,-2.338,-7.31,-1.4
-25.146,-24.893,-11.008,-2.618,-12.718,-7.482,5.866,-6.011
-29.241,-30.573,-15.004,-8.803,-15.646,-11.638,-1.04,-12.327
-31.481,-34.096,-24.372,-13.896,-24.361,-13.765,-22.463,-13.512
-29.584,-32.96,-26.683,-14.6,-26.258,-14.223,-27.278,-11.446
-25.884,-28.906,-20.73,-13.95,-20.472,-13.947,-20.427,-11.712
-21.507,-24.206,-14.808,-13.241,-14.327,-11.789,-22.258,-11.238
-15.733,-19.845,-10.874,-10.007,-8.823,-6.936,-23.556,-6.602
-11.46,-16.694,-6.556,-5.34,-3.608,-2.518,-9.693,-3.15
-12.505,-16.165,-4.172,-5.084,-2.731,-4.002,5.647,-4.874
-16.685,-17.782,-6.699,-10.063,-7.077,-9.953,2.757,-7.728
-19.053,-18.564,-10.691,-13.12,-11.332,-12.333,-10.793,-7.328
-19.724,-18.251,-10.263,-10.617,-10.607,-10.078,-12.361,-3.655
-22.135,-20.415,-5.743,-7.29,-6.489,-9.106,0.698,0.385
-26.316,-25.886,-3.985,-7.718,-6.349,-11.133,8.484,0.839
-28.139,-29.886,-7.822,-10.028,-12.402,-12.152,0.583,-2.734
-25.27,-28.615,-11.035,-9.827,-16.697,-9.774,-8.864,-5.673
-21.281,-24.803,-8.628,-7.424,-14.11,-7.887,-4.922,-4.25
-19.797,-22.111,-2.873,-5.261,-8.428,-8.889,7.445,0.025
-19.556,-20.326,1.666,-3.115,-4.234,-9.038,13.783,2.307
-19.566,-19.708,1.578,-2.365,-3.307,-8.067,8.245,-0.108
-19.978,-20.735,-1.223,-4.404,-3.442,-8.69,-0.858,-3.245
-18.886,-20.724,-0.388,-5.426,-0.801,-8.528,-2.09,-2.477
-15.514,-17.492,3.847,-2.642,1.783,-5.124,2.576,0.387
-10.333,-11.356,6.017,2.621,-0.258,0.591,4.044,3.67
-3.94,-4.287,6.26,9.111,-3.459,7.31,2.264,9.151
-0.148,-0.173,7.219,14.35,-3.607,11.893,2.185,14.039
-1.45,-0.954,8.403,14.989,-1.869,11.409,5.495,12.716
-3.963,-4.126,9.242,12.103,1.011,8.307,9.931,6.776
-4.603,-6.638,9.995,9.89,5.409,6.902,10.317,2.15
-6.588,-8.633,9.502,9.024,8.015,6.458,6.905,-0.04
-12.168,-11.769,6.344,7.395,4.201,4.516,7.603,-0.331
-15.943,-14.221,2.405,6.318,-3.198,3.711,11.54,3.549
-12.612,-12.719,1.676,7.66,-5.256,6.135,6.773,8.32
-6.754,-9.675,3.861,8.022,-0.832,7.324,-5.743,5.44
-5.81,-9.354,4.367,4.839,1.728,4.39,-10.946,-2.54
-8.19,-9.803,2.692,2.667,-0.47,1.992,-4.388,-3.872
-7.492,-7.652,3.799,5.938,-0.631,4.769,7.528,3.33
-4.255,-5.312,7.464,11.191,3.025,10.395,17.556,10.852
-4.569,-6.072,5.196,11.846,0.751,12.825,14.31,12.475
-8.546,-8.032,-5.291,6.433,-11.235,8.351,-4.223,6.281
-9.806,-7.864,-13.185,-0.247,-20.413,0.221,-18.251,-3.615
-6.943,-5.897,-10.527,-2.41,-17.102,-2.872,-14.372,-8.137
-5.55,-5.313,-4.088,-1.232,-9.13,-0.296,-8.078,-7.243
-7.583,-7.789,-2.805,-3.016,-6.963,-1.561,-12.117,-8.786
-8.99,-10.702,-4.456,-7.303,-8.772,-7.228,-13.746,-10.815
-9.376,-11.425,-4.733,-8.967,-9.91,-8.703,-9.263,-7.854
-12.022,-11.592,-6.477,-9.463,-11.775,-7.006,-14.127,-5.403
-14.768,-12.772,-10.443,-11.739,-13.599,-8.385,-24.184,-8.138
-13.063,-13.319,-11.424,-12.511,-11.359,-10.265,-20.085,-9.709
-8.318,-12.208,-8.438,-9.67,-6.938,-8.509,-6.489,-6.328
-4.647,-10.24,-5.633,-6.523,-5.003,-5.746,-2.227,-3.706
-2.705,-7.214,-3.68,-4.133,-4.397,-3.451,-6.502,-4.302
-1.305,-3.144,-0.601,-0.746,-2.092,0.56,-5.686,-3.063
-0.483,-0.765,2.604,1.571,0.834,4.36,1.887,1.668
-0.267,-1.496,4.095,0.431,2.728,4.799,6.299,5.363
-0.437,-3.217,3.411,-2.062,2.803,3.791,1.853,5
-2.244,-5.477,-0.253,-4.759,-1.224,2.419,-5.894,1.693
-5.296,-8.452,-5.334,-8.19,-8.293,-1.118,-7.027,-2.077
-6.194,-8.952,-6.907,-9.403,-11.996,-4.691,1.927,-3.543
-4.599,-5.873,-3.15,-5.88,-8.773,-4.09,13.171,-1.01
-3.293,-2.512,2.117,-0.504,-2.465,0.168,13.264,3.66
-2.816,-1.242,4.322,2.415,0.169,3.287,1.268,6.069
-3.249,-2.923,2.232,1.08,-3.198,1.362,-9.038,3.325
-5.741,-7.72,-2.022,-2.777,-8.298,-3.309,-11.935,-1.847
-9.412,-13.27,-4.796,-4.438,-10.129,-4.186,-11.082,-2.229
-11.841,-16.047,-3.414,-1.111,-7.344,0.461,-5.815,4.409
-10.88,-14.331,1.564,4.352,-1.082,6.074,1.991,10.055
-6.533,-10.15,5.787,5.862,4.68,7.762,3.873,6.168
-2.956,-8.25,4.264,0.858,3.589,4.187,-2.886,-3.061
-4.109,-10.331,-2.735,-5.667,-5.166,-1.735,-10.716,-6.339
-9.246,-13.644,-9.439,-8.363,-13.235,-6.152,-12.171,-2.685
-15.302,-16.399,-12.024,-8.481,-14.507,-7.69,-7.62,0.39
-19.105,-18.305,-11.359,-7.692,-12.607,-6.145,-1.244,1.376
-17.776,-17.261,-8.05,-2.71,-10.988,-0.221,4.148,6.354
-11.551,-12.54,-1.684,6.72,-6.853,8.946,7.888,16.392
-5.074,-8.153,4.722,11.522,-0.082,12.98,9.527,19.514
-2.757,-7.657,6.116,5.482,3.054,6.188,7.008,9.174
-4.78,-10.238,2.412,-3.325,-0.006,-2.663,2.071,-0.803
-8.333,-13.525,-0.904,-4.935,-3.189,-2.623,1.9,0.563
-9.879,-15.496,-0.748,-1.807,-1.908,3.276,6.003,5.291
-7.745,-15.25,-0.467,-2.015,-0.285,4.754,5.018,4.274
-3.686,-13.699,-3.13,-5.989,-2.978,0.377,-0.138,0.426
-0.841,-11.468,-5.905,-7.11,-7.073,-2.188,1.49,0.747
-1.183,-8.343,-5.183,-3.509,-7.351,-0.943,8.488,4.863
-4.267,-6.339,-2.575,-1.264,-4.845,-2.105,8.647,5.469
-7.16,-8.358,-1.533,-4.313,-4.392,-6.931,1.376,-0.278
-6.575,-11.953,-0.896,-8.574,-5.286,-9.275,-3.836,-4.494
-2.378,-11.754,3.089,-8.73,-2.306,-6.448,-2.947,-0.146
2.385,-8.205,9.84,-5.841,4.901,-3.317,2.87,6.374
6.053,-5.208,15.069,-3.885,11.731,-3.547,9.518,7.235
9.215,-3.31,16.175,-3.229,14.922,-3.975,10.883,6.568
10.702,-2.105,12.567,-3.046,13.039,-2.431,5.535,8.069
8.454,-2.355,4.62,-4.237,5.748,-2.106,-1.314,6.785
4.815,-2.516,-3.206,-5.586,-1.699,-3.59,-1.255,0.741
5.081,0.044,-4.424,-3.468,-1.157,-2.016,5.496,-4.733
9.568,4.409,0.1,2.465,5.233,4.155,4.938,-4.342
13.044,7.978,3.672,8.577,7.698,9.283,-5.33,2.141
12.799,10.21,5.066,12.253,5.756,9.864,-8.439,9.429
11.803,11.517,8.773,14.049,7.292,10.164,-1.068,11.83
12.365,11.603,14.854,14.608,12.8,12.544,3.024,9.273
11.465,9.749,16.405,12.25,13.107,11.73,1.081,5.265
8.118,7.074,11.472,7.986,6.153,6.797,1.365,3.421
7.593,6.707,7.875,7.513,2.133,5.904,4.507,6.352
10.924,8.592,8.924,11.272,4.314,11.212,4.555,11.432
13.067,9.669,9.198,13.377,4.836,15.161,3.124,13.329
13.695,9.852,7.245,13.061,2.502,14.98,7.415,12.011
15.39,9.819,6.665,13.257,2.845,14.179,15.263,10.012
15.444,7.214,7.753,12.362,5.164,12.395,15.452,7.846
11.819,2.289,8.957,8.988,6.057,8.193,4.965,6.987
9.29,-0.087,10.812,6.971,6.405,5.638,-3.418,9.595
10.967,1.865,13.646,9.303,7.231,8.691,2.85,14.639
13.067,4.748,16.045,13.378,8.16,14.644,16.511,17.928
12.013,5.717,15.222,13.44,7.689,15.964,17.743,15.165
8.198,4.246,8.695,6.009,1.867,7.871,3.317,6.31
3.21,1.082,-0.095,-4.661,-7.559,-4.544,-6.826,-2.628
-1.072,-1.478,-3.107,-9.987,-10.646,-11.7,-0.948,-6.363
-3.02,-1.932,0.443,-8.913,-5.345,-12.171,7.575,-7.364
-2.147,-1.203,3.045,-7.389,-1.479,-10.565,7.1,-9.231
1.808,0.192,1.222,-6.862,-4.038,-8.087,2.31,-8.655
7.046,2.181,-2.564,-5.772,-9.183,-5.572,-5.379,-3.603
9.104,3.165,-6.28,-5.693,-13.084,-5.512,-16.365,0.172
7.826,2.85,-7.326,-5.912,-12.57,-5.325,-19.196,0.311
8.119,3.06,-3.104,-2.841,-6.267,-0.977,-6.368,2.882
10.605,3.482,3.366,1.738,1.115,4.049,12.106,9.13
11.341,2.423,5.838,2.136,3.58,3.7,20.044,10.578
9.896,1.028,3.257,-2.759,1.108,-2.008,11.532,3.358
8.959,1.434,-0.625,-8.021,-2.783,-7.979,-4.574,-3.596
9.316,3.177,-4.429,-8.443,-7.461,-8.856,-16.135,-1.182
10.168,4.638,-8.436,-4.852,-12.943,-4.01,-19.134,5.628
10.343,4.856,-11.18,-3.6,-16.127,0.161,-17.048,4.421
8.28,2.105,-12.495,-8.153,-16.005,-3.01,-13.66,-5.598
4.325,-4.248,-13.582,-14.59,-15.292,-12.065,-9.926,-13.51
1.627,-9.291,-13.086,-17.722,-13.865,-19.441,-7.071,-14.481
3.03,-7.582,-8.509,-16.714,-8.677,-20.072,-5.372,-12.16
8.217,-1.223,-1.117,-13.002,-1.289,-15.446,-1.862,-8.26
14.759,4.793,4.7,-7.446,3.01,-9.203,3.867,-2.416
20.836,9.144,7.611,-1.355,4.501,-3.144,7.204,2.482
24.221,11.004,9.854,2.686,7.447,0.547,6.041,2.631
21.441,8.836,11.427,3.396,10.279,0.112,3.996,-0.177
12.683,4.037,10.485,2.085,8.897,-2.497,4.433,-1.375
4.001,-0.077,8.492,0.311,6.044,-4.169,6.323,-1.12
0.669,-2.324,7.947,-1.625,5.968,-4.672,5.968,-2.282
1.124,-4.045,7.121,-4.893,5.912,-7.292,1.528,-6.329
0.645,-6.243,2.898,-10.259,1.805,-13.505,-4.929,-11.778
-1.905,-8.739,-4.061,-14.342,-4.956,-17.281,-9.884,-12.273
-4.549,-10.923,-9.761,-13.043,-10.243,-13.567,-9.58,-5.134
-5.963,-10.977,-10.187,-9.034,-10.595,-8.162,-3.193,0.17
-5.652,-7.718,-5.489,-7.969,-5.725,-7.894,2.597,-3.56
-3.615,-3.655,-0.972,-9.437,-0.643,-9.829,1.981,-8.893
-0.927,-1.502,-0.195,-9.708,-0.015,-9.175,-0.328,-8.564
1.626,-0.424,-1.224,-9.492,-2.419,-7.83,-0.02,-5.884
3.776,0.827,-2.937,-11.236,-5.372,-8.489,-1.642,-4.06
4.833,2.523,-5.913,-12.601,-8.128,-8.411,-5.398,-1.003
5.091,5.09,-8.081,-10.367,-9.17,-5.267,-4.472,2.874
5.398,6.637,-8.489,-7.392,-8.914,-3.199,2.367,1.825
4.953,5.003,-7.973,-7.808,-8.118,-6.242,11.294,-4.787
2.738,2.768,-5.34,-9.672,-4.897,-10.714,14.528,-8.001
-0.312,2.579,-1.953,-9.38,-1.638,-10.794,3.739,-3.607
-2.244,2.323,-1.553,-7.194,-3.412,-6.66,-11.231,1.569
-2.412,0.417,-2.273,-4.112,-6.943,-2.03,-12.284,2.879
-1.608,-0.859,1.081,0.357,-4.253,1.432,-1.291,4.387
0.508,0.356,9.352,5.851,5.849,4.351,11.106,9.31
3.658,1.898,16.292,9.672,14.802,6.53,20.43,12.921
4.403,0.539,13.077,9.622,11.536,6.879,18.801,12.24
2.394,-1.851,1.463,7.963,-1.554,6.481,3.316,11.637
1.059,-1.897,-7.456,5.747,-10.405,4.262,-12.959,8.385
-0.773,-2.676,-12.306,-1.506,-13.47,-4.438,-19.611,-4.491
-4.947,-6.907,-18.005,-11.99,-18.379,-15.524,-18.024,-18.095
-7.215,-9.607,-18.752,-15.625,-18.853,-18.094,-8.018,-19.283
-6.23,-7.847,-9.594,-11.173,-7.805,-12.625,8.283,-11.325
-7.528,-6.224,-1.176,-7.755,1.9,-8.753,14.724,-4.577
-11.106,-6.735,-2.182,-8.198,-1.386,-8.608,3.415,-2.682
-10.062,-6.158,-5.11,-7.438,-7.566,-7.932,-6.716,-3.459
-4.549,-4.655,-3.03,-5.514,-5.306,-7.011,-4.271,-4.639
-1.262,-4.652,-0.04,-6.37,0.52,-7.879,-3.305,-5.058
-0.707,-4.826,1.063,-7.201,2.898,-7.439,-7.933,-2.678
1.098,-3.645,3.027,-3.614,3.603,-3.431,-5.494,1.313
3.975,-1.457,7.028,1.128,6.564,0.054,5.275,2.248
5.763,1.639,11.87,2.556,11.971,-0.371,13.788,0.921
6.478,4.235,15.612,2.071,16.267,-2.151,13.882,1.678
6.994,5.708,16.701,3.568,16.733,-0.565,8.617,4.524
6.826,7.523,16.332,8.202,15.694,5.577,6.631,8.212
4.829,8.425,16.954,13.237,16.519,11.988,11.771,13.505
2.937,7.287,19.186,16.399,18.842,14.903,18.473,18.952
4.397,6.715,20.329,16.931,19.178,14.354,19.66,18.414
7.892,7.007,17.01,13.109,15.177,10.558,15.478,10.898
9.864,5.973,11.866,7.493,10.542,6.624,13.396,7.546
9.052,4.51,9.742,5.481,9.915,6.302,13.49,11.588
5.918,4.113,9.174,4.768,11.173,5.384,5.782,9.918
2.961,3.491,8.252,2.099,11.478,1.24,-6.231,2.13
2.598,1.607,8.577,1.713,11.453,0.435,-7.832,2.631
3.077,-0.048,8.713,4.291,9.875,4.662,-0.039,9.479
2.721,0.617,6.954,4.197,6.494,7.004,5.753,8.493
3.397,3.344,6.665,0.562,5.941,4.129,7.872,-0.158
5.593,6.765,10.496,-1.475,10.597,0.18,10.228,-3.346
8.487,11.665,16.478,2.141,17.032,1.212,14.029,4.614
12.267,16.861,20.601,8.537,20.677,6.663,18.07,13.619
15.34,17.755,19.403,10.344,18.918,9.04,17.484,12.074
16.123,15.231,13.769,6.265,13.353,5.426,10.745,2.664
14.889,13.857,7.589,1.568,7.935,0.107,2.881,-4.118
10.79,12.222,1.527,-0.912,2.776,-3.329,-4.813,-5.062
4.182,7.181,-4.29,-1.885,-3.386,-4.149,-11.161,-4.128
-1.024,0.704,-6.062,-1.497,-7.395,-2.715,-9.99,-2.525
-2.571,-3.357,-2.547,0.57,-6.123,0.016,-2.199,0.603
-3.063,-4.209,0.997,1.771,-2.541,1.043,2.959,0.585
-5.151,-3.667,0.008,-1.19,-1.709,-2.745,0.977,-6.043
-6.827,-1.797,-3.53,-5.133,-3.887,-7.128,-4.357,-11.556
-4.799,2.601,-5.415,-3.974,-5.275,-4.863,-7.408,-7.92
-0.257,7.323,-5.407,0.663,-4.07,1.721,-5.735,0.26
1.94,8.646,-6.745,2.22,-3.783,4.981,-0.808,3.747
-0.536,6.979,-10.408,-0.309,-7.653,4.469,4.596,0.881
-4.345,6.065,-12.469,-2.297,-11.709,4.496,8.771,-2.805
-5.343,7.487,-9.904,-1.356,-10.591,4.78,10.31,-1.872
-3.689,8.867,-5.475,0.46,-6.243,2.967,9.181,2.809
-1.579,7.306,-3.796,0.969,-4.03,0.581,6.306,4.32
0.418,3.271,-6.122,-0.261,-5.674,-1.395,-1.204,-0.733
2.461,-0.058,-9.574,-2.347,-8.68,-4.175,-12.47,-5.977
2.856,-1.07,-10.57,-3.174,-9.614,-5.618,-16.432,-4.924
-0.945,-0.662,-9.208,-1.653,-7.822,-2.893,-9.896,0.006
-7.494,0.349,-7.378,0.637,-4.743,1.442,-4.509,3.118
-11.411,1.024,-4.729,1.794,-1.2,3.132,-5.341,2.402
-10.644,-0.383,-1.358,1.559,1.491,2.011,-5.437,-0.013
-8.868,-4.104,-0.793,-0.681,0.84,-0.951,-3.998,-2.422
-9.497,-8.132,-4.938,-5.634,-3.32,-6.255,-6.498,-6.475
-10.876,-9.795,-8.549,-9.36,-5.803,-10.694,-9.435,-10.888
-8.902,-7.421,-5.019,-6.565,-0.92,-8.758,-5.233,-10.737
-4.022,-2.897,2.904,0.014,7.688,-2.39,3.78,-6.638
-1.425,-0.636,5.84,2.346,9.889,-0.004,8.146,-4.832
-2.952,-2.071,1.633,-1.202,4.185,-3.799,4.032,-7.101
-5.318,-4.375,-2.247,-4.149,-0.412,-6.221,-0.839,-7.59
-5.828,-3.968,-0.105,-1.66,2.319,-2.236,2.408,-2.883
-4.287,0.426,5.313,3.691,8.752,3.622,9.536,2.361
-2.282,5.588,7.16,6.661,10.87,5.836,9.368,3.738
-1.383,6.577,3.287,6.145,6.196,5.742,3.137,3.2
0.175,4.061,-0.389,5.471,1.066,7.481,3.653,4.424
4.613,4.129,2.547,7.351,3.522,11.323,12.788,7.889
9.469,9.117,9.506,11.207,12.351,15.394,16.363,12.338
9.709,12.781,10.1,12.655,14.34,16.308,6.356,13.125
3.059,7.875,0.278,5.956,1.898,7.623,-5.976,4.196
-6.451,-2.776,-9.959,-6.055,-12.406,-7.896,-7.3,-7.865
-10.909,-9.216,-11.281,-12.297,-14.829,-15.601,-1.101,-9.907
-7.805,-8.087,-6.914,-10.12,-8.839,-12.243,3.867,-4.95
-2.41,-4.414,-2.763,-6.683,-2.684,-8.711,7.329,-3.855
1.388,-0.869,1.11,-3.354,2.252,-6.11,9.571,-4.453
4.201,3.575,5.011,2.87,5.615,2.008,9.802,-1.46
5.234,6.464,5.227,7.586,4.113,9.295,6.706,0.513
3.431,4.961,-0.138,5.729,-2.588,6.232,-3.34,-0.908
2.012,2.528,-5.82,2.051,-7.7,-0.423,-13.637,-0.86
2.723,3.3,-6.452,2.93,-5.876,0.467,-14.219,1.501
0.514,4.679,-5.43,5.871,-3.353,5.523,-11.449,2.521
-7.88,1.757,-9.269,3.398,-8.995,3.408,-12.77,-1.578
-16.49,-4.906,-16.509,-5.539,-18.72,-6.688,-12.832,-10.459
-18.715,-10.389,-19.889,-12.469,-21.891,-13.178,-8.417,-15.289
-16.87,-12.46,-17.385,-11.996,-17.687,-11.251,-4.256,-11.044
-16.386,-13.754,-13.715,-9.326,-13.191,-9.064,-3.012,-4.801
-17.094,-16.951,-11.983,-9.089,-11.181,-10.446,-2.748,-3.106
-17.518,-20.846,-10.544,-8.814,-8.704,-10.462,-2.642,-5.666
-18.487,-21.283,-7.074,-5.643,-3.627,-6.291,-3.205,-8.569
-16.232,-14.693,-0.633,0.683,3.28,1.192,-1.955,-6.24
-6.354,-3.637,7.439,7.89,10.438,9.014,2.372,1.132
3.804,3.161,12.184,10.807,15.353,12.282,4.687,4.953
3.62,1.464,9.732,7.492,14.637,9.761,2.876,1.276
-4.166,-3.55,3.4,2.896,8.785,5.494,2.144,-2.226
-8.675,-5.83,-0.866,1.967,3.673,4.381,2.595,0.568
-6.459,-4.623,-2.816,3.546,2.557,6.97,-0.6,3.843
-3.593,-2.526,-5.551,2.318,2.072,6.713,-5.185,-0.349
-5.431,-2.695,-9.297,-4.478,-1.57,-1.359,-7.247,-9.517
-9.848,-6.465,-12.715,-12.644,-8.16,-11.972,-9.738,-15.127
-12.706,-11.139,-14.894,-15.64,-14.068,-16.679,-13.494,-14.159
-14.202,-12.127,-14.551,-12.815,-15.427,-14.53,-12.829,-10.184
-14.706,-8.165,-11.687,-8.85,-11.996,-10.669,-7.061,-7.144
-12.075,-2.401,-8.274,-6.282,-6.683,-7.584,-2.78,-5.81
-6.971,1.471,-5.458,-3.832,-2.226,-3.998,-1.489,-4.623
-3.071,2.885,-3.23,-0.265,0.308,0.745,1.394,-1.312
-1.499,3.879,-2.749,3.748,0.606,5.745,6.701,4.041
-0.098,5.252,-5.096,5.664,-1.529,7.803,9.531,5.335
2.183,5.61,-8.664,4.328,-5.053,5.169,2.658,-0.623
3.874,5.245,-10.276,3.149,-7.233,3.135,-11.13,-5.32
4.972,6.825,-7.549,5.208,-4.939,6.122,-15.4,-2.227
7.093,10.001,-2.056,8.159,0.837,9.462,-9.173,2.239
7.756,10.263,-0.181,7.571,2.204,7.311,-10.875,0.367
2.868,5.931,-4.041,2.946,-4.152,1.504,-18.457,-5.196
-4.675,1.12,-6.593,-1.822,-8.323,-2.284,-13.232,-8.722
-8.569,-0.904,-4.235,-4.279,-4.177,-2.801,-1.687,-11.653
-7.77,-1.398,-2.443,-5.212,-0.082,-3.028,-3.176,-14.599
-4.646,-1.517,-4.311,-4.56,-2.267,-3.804,-11.734,-11.824
-0.698,-0.516,-6.793,-1.394,-5.496,-2.021,-10.973,-3.346
2.089,0.524,-7.187,2.174,-3.646,2.656,-3.305,0.749
0.747,-1.058,-6.853,1.055,0.208,2.909,-0.347,-6.24
-3.69,-4.22,-8.906,-5.369,-1.316,-4.821,-5.67,-17.062
-4.98,-4.179,-11.658,-9.194,-6.169,-10.223,-13.06,-19.146
-1.354,-0.265,-11.429,-5.427,-7.948,-5.806,-13.661,-11.15
0.401,1.889,-11.16,-1.387,-10.086,-1.493,-8.727,-4.368
-4.162,-0.901,-14.977,-4.904,-17.024,-6.816,-8.397,-6.895
-10.723,-4.854,-19.014,-11.389,-22.51,-15.124,-12.024,-12.213
-13.259,-5.399,-16.43,-11.511,-18.654,-15.642,-8.434,-9.88
-10.899,-2.615,-8.616,-5.523,-8.161,-7.964,-1.321,-2.471
-6.475,0.304,-4.217,-2.012,-1,-0.914,-5.057,-0.437
-3.339,0.605,-6.887,-5.056,-2.162,-2.026,-14.63,-5.143
-4.839,-2.354,-11.726,-10.119,-7.851,-8.982,-15.293,-9.411
-10.701,-6.721,-12.943,-11.807,-11.275,-12.777,-11.01,-9.206
-14.982,-9.472,-9.347,-9.897,-9.392,-9.874,-11.658,-6.069
-13.783,-9.378,-3.975,-7.65,-4.936,-6.023,-13.122,-3.778
-10.501,-8.316,-0.647,-7.331,-2.098,-6.095,-10.178,-5.05
-9.469,-8.539,-0.381,-8.213,-2.073,-7.594,-5.381,-7.557
-9.998,-9.519,-1.302,-8.109,-3.548,-6.623,-1.132,-5.862
-10.152,-9.962,-2.388,-6.244,-5.713,-3.56,-0.962,-0.235
-11.605,-11.088,-4.551,-4.974,-8.284,-2.086,-7.265,0.824
-15.917,-14.348,-7.112,-7.389,-9.154,-5.383,-13.042,-7.483
-19.203,-17.731,-6.937,-11.304,-5.679,-10.888,-10.896,-16.9
-17.019,-18.09,-3.501,-12.128,0.328,-13.146,-3.944,-18.905
-13.022,-16.402,-2.399,-12.786,1.417,-14.549,-0.592,-17.211
-13.352,-15.604,-7.148,-17.022,-5.5,-19.73,-3.916,-15.48
-15.509,-15.185,-11.96,-18.97,-12.631,-23.051,-9.037,-11.126
-14.987,-13.898,-12.503,-15.435,-14.206,-19.779,-11.749,-8.528
-14.463,-12.616,-13.166,-13.244,-14.478,-16.014,-13.943,-14.186
-15.861,-11.001,-16.059,-14.627,-16.054,-15.147,-16.71,-21.699
-15.305,-7.322,-16.366,-13.696,-14.491,-13.558,-15.688,-21.069
-11.575,-2.096,-12.599,-9.108,-8.58,-10.819,-10.079,-12.878
-9.018,1.471,-10.673,-5.879,-5.716,-8.942,-8.222,-5.06
-10.122,0.686,-13.973,-6.526,-10.554,-8.031,-13.4,-4.214
-11.946,-3.179,-17.015,-8.671,-15.394,-8.27,-16.446,-10.006
-10.641,-5.265,-14.173,-8.888,-11.902,-8.735,-12.205,-15.394
-6.1,-2.47,-7.932,-5.896,-4.457,-6.678,-7.453,-14.613
-1.889,2.57,-3.492,-1.977,-1.212,-2.589,-7.512,-9.197
-1.715,4.773,-1.301,-0.164,-1.206,-0.033,-8.587,-4.034
-4.885,3.197,1.362,0.256,0.85,0.295,-5.884,-1.136
-6.29,1.568,5.057,1.42,4.631,0.293,-1.701,-0.553
-3.397,1.554,7.029,1.878,5.711,0.506,-1.466,-2.859
0.468,1.091,5.802,-0.051,3.64,1.001,-4.489,-5.82
1.26,-0.508,3.967,-2.275,2.477,1.214,-6.18,-5.584
-2.15,-3.093,3.522,-3.374,3.433,-1.477,-6.767,-4.281
-8.135,-7.586,3.3,-4.298,3.801,-6.64,-8.201,-6.255
-12.266,-11.782,3.181,-3.926,3.272,-8.525,-8.336,-7.879
-10.414,-11.331,4.702,-0.401,4.354,-4.476,-6.113,-4.599
-4.573,-7.402,6.653,2.665,7.11,-0.908,-5.226,-3.588
-0.607,-5.468,6.428,0.294,9.04,-3.857,-6.697,-10.911
0.503,-6.402,5.402,-3.421,9.033,-7.304,-4.134,-15.119
2.404,-6.213,6.989,-1.017,8.603,-2.565,5.023,-4.876
5.118,-4.057,10.079,4.724,9.153,6.04,9.994,9.916
3.503,-4.558,9.109,3.998,8.343,6.432,2.031,10.646
-4.371,-10.149,1.894,-6.324,3.257,-5.054,-10.084,-5.265
-11.885,-15.499,-5.872,-17.479,-2.773,-18.184,-13.923,-21.443
-11.343,-14.39,-6.936,-19.091,-2.918,-21.146,-9.413,-25.325
-4.511,-9.105,-2.457,-13.19,2.146,-15.985,-4.636,-22.776
-0.511,-6.461,-0.701,-8.95,3.414,-11.84,-5.494,-21.211
-2.473,-6.236,-2.961,-6.513,-0.409,-8.414,-8.512,-16.779
-4.407,-3.08,-2.483,-1.213,-0.709,-1.738,-9.542,-9.318
-3.38,2.086,0.029,3.142,1.85,3.507,-13.485,-7.237
-2.972,4.331,-1.74,1.546,-0.825,2.635,-18.22,-10.734
-3.695,4.794,-5.721,-1.171,-6.227,0.83,-13.483,-10.093
-2.134,7.474,-5.957,1.072,-6.396,3.872,-4.593,-1.886
0.207,9.805,-3.87,4.667,-2.375,7.961,-4.873,5.51
-2.241,6.368,-4.766,2.919,-1.073,6.292,-12.692,3.185
-8.751,-1.075,-8.451,-2.578,-3.971,-0.262,-18.455,-6.776
-11.866,-5.432,-9.387,-4.528,-5.593,-4.519,-18.465,-13.241
-7.625,-2.483,-4.225,0.446,-1.582,-1.433,-12.968,-9.04
0.455,6.103,3.632,8.51,5.366,6.685,-4.846,0.191
6.648,13.85,7.553,13.082,9.013,12.965,-0.281,4.308
9.412,16.565,6.497,13.136,8.475,14.866,-0.588,3.094
12.054,18.165,6.797,14.029,10.016,15.694,0.79,3.62
15.281,21.56,10.912,16.835,15.396,16.091,6.586,6.66
14.443,21.16,11.606,15.434,15.28,12.446,11.082,6.468
8.764,13.938,4.912,8.149,5.572,5.069,11.285,1.616
3.818,6.715,-1.683,1.143,-2.398,-1.069,9.499,-2.974
2.232,5.635,-1.375,-1.312,-0.279,-3.442,6.176,-3.439
1.875,8.338,3.28,-0.156,5.881,-2.387,2.119,-0.804
2.13,9.799,6.942,2.873,8.228,1.619,-0.403,2.422
3.385,9.195,7.438,6.152,6.205,5.899,-2.25,5.178
3.406,8.708,5.319,7.118,3.184,6.614,-4.364,5.691
2.187,9.577,2.928,5.195,1.919,4.726,-4.061,2.476
4.002,10.858,2.522,3.431,2.35,4.877,0.777,-1.848
8.282,10.721,3.623,3.644,3.037,7.306,7.091,-3.381
8.753,8.599,4.245,3.385,3.786,6.49,8.344,-2.541
4.566,5.528,3.664,0.204,4.136,-0.246,1.225,-3.662
1.431,2.718,2.14,-4.052,2.423,-7.156,-9.329,-7.1
2.168,1.232,0.467,-5.339,-0.523,-7.542,-14.366,-7.087
4.632,2.294,0.369,-2.716,-0.873,-2.921,-11.987,-3.113
5.808,4.94,1.792,0.079,1.754,-0.094,-8.392,-2.236
4.183,5.703,2.297,0.004,3.183,-1.429,-6.002,-4.352
2.03,4.403,2.233,-0.287,3.059,-2.272,-1.238,-0.681
2.786,4.83,3.795,1.779,5.084,0.437,4.239,7.69
5.438,8.35,4.729,1.916,7.715,2.092,3.422,7.231
8.053,12.82,2.267,-2.828,6.558,-0.997,-1.868,-3.99
11.616,15.393,0.092,-6.11,4.312,-3.967,-1.062,-9.405
14.19,13.879,1.398,-3.289,4.783,-3.078,6.399,-2.578
10.922,8.985,1.414,0.31,3.245,-2.126,8.238,1.781
3.452,4.412,-3.228,0.195,-3.307,-3.037,0.542,-3.748
-0.468,3.099,-6.908,-1.463,-7.65,-3.819,-4.063,-8.206
2.297,5.718,-4.281,-2.268,-3.843,-4.327,3.735,-5.557
7.679,11.385,1.727,-1.685,3.799,-4.057,13.605,-3.355
11.476,16.597,4.832,-0.358,6.744,-2.457,10.289,-5.586
13.718,17.675,3.745,0.467,3.294,-1.727,-3.008,-5.321
16.671,16.225,3.335,1.472,1.596,-1.535,-11.896,0.114
20.162,15.594,7.707,3.351,8.67,0.942,-10.847,1.692
20.249,13.869,12.9,4.052,17.311,3.335,-3.489,-3.737
14.19,8.617,9.978,1.64,12.96,0.488,2.251,-7.259
5.413,3.883,-0.928,-2.624,-2.049,-5.567,0.196,-5.382
0.34,4.435,-8.537,-5.096,-9.613,-6.955,-3.983,-2.515
1.771,8.482,-7.331,-3.654,-5.283,-2.061,-2.099,0.339
7.509,10.937,-4.666,-1.233,-2.123,1.941,-0.039,2.731
12.131,9.245,-7.817,-2.635,-6.935,-0.094,-5.235,0.634
11.298,4.965,-12.785,-6.39,-11.931,-4.065,-9.099,-4.83
5.932,0.377,-13.162,-7.591,-10.858,-5.121,-5.777,-7.781
0.172,-3.946,-12.717,-7.276,-10.221,-5.988,-6.466,-8.627
-1.08,-4.885,-14.761,-6.673,-13.394,-6.85,-11.383,-8.285
4.471,0.43,-12.871,-3.213,-11.12,-3.67,-4.816,-2.292
10.834,5.97,-5.914,-0.452,-1.635,-1.566,7.964,5.082
10.522,4.926,-2.286,-3.588,3.611,-6.318,7.081,3.471
5.633,0.351,-5.14,-8.875,-0.69,-11.785,-3.815,-4.434
2.244,-3.172,-10.066,-11.648,-8.369,-12.806,-9.774,-9.791
1.428,-6.008,-13.117,-12.487,-12.357,-12.361,-10.912,-12.06
1.081,-8.19,-13.286,-11.588,-11.554,-11.731,-11.001,-12.557
-0.688,-9.269,-11.968,-8.666,-10.16,-9.806,-9.203,-9.828
-4.425,-10.812,-11.301,-6.259,-11.228,-8.639,-7.917,-5.528
-8.043,-12.544,-11.263,-6.503,-11.853,-9.93,-8.618,-3.564
-8.117,-11.768,-10.078,-7.675,-8.339,-11.143,-7.521,-3.892
-3.842,-8.402,-7.232,-6.673,-3.534,-9.343,-3.551,-2.811
1.846,-4.732,-3.564,-2.696,-2.183,-4.83,-1.256,0.809
5.197,-2.526,-0.313,1.391,-3.281,-0.518,-2.708,2.659
5.103,-2.672,1.581,2.253,-3.041,1.488,-1.726,0.506
4.537,-3.457,3.87,2.13,0.487,3.522,7.599,0.668
6.462,-1.748,7.605,4.532,5.547,7.165,16.558,5.261
8.331,1.469,7.847,4.943,6.269,6.428,11.182,3.537
6.302,2.111,1.644,-0.93,0.867,-1.257,-2.692,-6.399
2.906,0.222,-4.311,-6.156,-3.378,-5.361,-7.672,-10.845
3.019,-0.094,-3.773,-4.417,-1.706,0.213,-1.17,-7.361
5.756,1.458,0.431,-0.826,1.694,5.077,8.341,-4.889
7.519,1.324,3.704,0.252,3.74,2.725,15.202,-1.32
7.801,-0.229,5.879,2.455,5.997,0.936,16.497,8.075
6.603,-0.477,7.872,6.3,8.096,2.582,12.278,14.594
3.058,-0.381,9.177,6.838,8.013,1.292,7.397,9.332
-0.364,-1.219,9.662,4.007,7.181,-2.75,6.476,-0.836
0.508,-0.597,10.496,3.083,8.995,-3.025,9.33,-3.147
4.006,1.902,10.678,5.211,10.892,1.001,11.124,2.902
4.016,2.092,5.749,5.775,4.609,3.418,5.775,7.689
0.163,-1.555,-3.172,2.848,-8.154,1.204,-1.792,6.885
-1.629,-5.452,-6.559,-0.13,-12.526,-2.159,1.549,3.453
0.922,-6.985,-1.382,-0.731,-3.775,-2.254,11.582,1.117
4.894,-6.344,4.506,0.386,5.2,0.997,12.797,2.703
9.085,-3.724,6.482,1.997,6.103,4.063,5.387,5.697
13.734,0.22,6.551,2.65,3.914,3.776,-1.546,4.275
16.162,2.884,5.938,1.848,3.734,0.765,-3.81,0.447
13.456,1.996,4.051,0.917,3.849,-1.679,-0.015,0.351
7.438,-1.129,0.648,0.279,1.196,-2.586,6.643,2.427
2.68,-3.486,-3.082,-1.869,-2.37,-4.238,9.003,0.204
0.267,-4.982,-5.151,-6.049,-3.08,-7.412,4.388,-5.982
-1.771,-6.686,-5.013,-8.48,-1.759,-8.89,-2.045,-7.237
-3.279,-7.328,-3.053,-5.539,-0.897,-5.745,-2.657,-0.387
-2.589,-6.105,1.075,0.619,1.083,0.129,4.754,6.938
0.429,-4.529,7.06,4.976,6.623,3.485,13.723,9.553
4.496,-3.58,12.248,4.645,13.387,0.863,14.799,6.87
7.976,-2.703,14.052,1.375,16.698,-3.903,8.246,0.959
9.838,-1.862,12.851,0.765,15.287,-2.752,4.088,-0.336
10.008,-2.478,10.272,4.347,11.719,3.778,4.959,4.626
8.807,-5.23,7.524,6.991,9.518,6.972,4.885,7.171
6.116,-8.36,5.382,6.306,9.422,5.139,2.855,4.934
2.234,-9.4,3.198,6.034,8.065,4.865,2.413,4.209
0.139,-7.198,1,9.025,3.819,8.78,5.818,6.595
2.02,-3.157,1.332,13.234,1.181,12.293,12.231,7.415
3.652,-1.414,4.126,14.078,3.64,10.568,15.425,4.735
-0.188,-4.707,4.124,9.837,6.513,4.948,9.735,1.868
-7.616,-10.823,-1.595,3.928,3.986,0.57,-0.037,1.119
-13.329,-15.639,-8.55,-0.278,-2.32,-1.454,-3.459,0.185
-14.605,-16.356,-10.906,-2.492,-7.538,-3.131,1.408,-1.408
-10.973,-12.081,-8.17,-2.603,-9.075,-3.855,6.745,0.401
-3.861,-5.305,-4.125,-0.584,-6.884,-2.236,6.95,5.54
3.708,-0.1,-1.746,2.103,-3.044,0.933,4.578,8.889
9.389,2.803,-0.421,3.875,0.854,3.538,4.196,8.507
11.733,4.92,0.994,4.072,3.929,3.71,6.984,6.084
9.99,5.516,1.586,3.158,4.589,2.139,12.17,4.491
5.291,3.086,1.216,2.505,3.754,1.523,14.84,7.156
-0.397,-1.563,0.102,1.485,2.85,1.46,7.617,10.546
-6.025,-6.67,-4.328,-4.017,-1.562,-3.083,-6.036,4.308
-9.857,-10.086,-12.186,-13.927,-10.461,-12.693,-13.959,-9.405
-8.46,-9.112,-15.598,-18.983,-14.95,-17.952,-9.824,-14.152
-1.414,-4.067,-8.712,-13.496,-8.569,-13.304,4.2,-5.075
6.041,1.073,1.518,-4.452,0.932,-5.919,16.63,6.316
8.797,3.224,4.874,0.115,3.612,-2.447,15.329,11.18
6,1.196,0.774,-0.428,0.251,-2.486,5.328,9.154
0.094,-4.486,-4.866,-3.555,-3.872,-4.597,-0.049,4.536
-3.519,-8.971,-6.797,-5.056,-5.675,-5.766,2.706,4.226
-1.014,-6.977,-3.368,-1.053,-3.718,-2.074,10.08,10.641
4.632,0.067,2.111,6.456,0.608,5.324,15.619,16.793
8.819,6.709,5.638,12.309,4.608,11.745,14.349,15.927
11.205,9.918,7.229,14.956,7.175,14.979,10.413,12.207
13.455,10.212,8.33,16.602,7.206,16.252,10.123,13.817
16.27,9.579,9.627,19.416,5.487,17.501,13.669,20.766
18.016,8.305,11.053,21.611,5.766,18.129,17.612,25.684
16.33,5.499,11.175,18.863,8.525,15.417,17.695,22.892
12.103,2.832,9.904,12.239,10.615,9.95,14.259,14.774
7.164,1.463,8.488,7.153,9.902,5.24,13.224,8.085
1.583,-0.98,6.584,4.641,6.642,1.989,16.013,4.842
-2.348,-4.087,5.358,3.495,4.741,0.119,17.724,3.447
-1.775,-4.036,7.394,4.856,7.982,1.49,16.096,4.203
0.949,-1.09,10.265,7.96,12.776,5.656,13.103,6.351
2.158,1.433,8.798,9.134,11.885,9.108,9.859,8.033
3.334,3.195,4.683,7.607,6.442,10.12,9.152,10.792
7.155,4.994,5.713,6.332,6.1,10.169,18.098,14.631
9.997,4.413,12.382,5.635,13.13,9.791,32.692,14.823
6.606,0.026,14.239,2.673,16.434,7.512,30.634,10.864
0.4,-3.896,5.978,-1.644,8.833,4.462,5.243,7.573
-0.577,-3.302,-3.366,-3.409,-1.192,3.525,-15.43,5.453
4.328,0.131,-5.317,-2.665,-4.198,3.837,-12.978,2.246
9.299,3.56,-3.07,-1.081,-2.512,4.078,-3.872,1.38
11.452,7.429,-0.459,3.416,0.629,7.352,-0.282,6.164
10.717,11.384,4.065,10.471,7.253,13.222,5.873,10.955
6.253,11.355,9.373,13.739,14.985,14.436,15.171,10.847
-0.592,5.848,11.234,10.692,17.329,9.224,16.834,9.789
-6.604,-0.783,8.71,5.709,13.48,3.65,8.854,9.899
-9.777,-3.755,5.448,3.099,8.602,1.844,1.945,8.025
-9.635,-2.581,4.866,3.602,6.156,3.108,3.839,4.3
-8.81,-1.494,4.846,4.029,4.539,3.862,7.945,1.356
-9.895,-3.8,2.722,2.186,3.071,2.246,6.369,0.9
-10.035,-6.201,2.713,2.299,6.017,2.347,4.873,4.873
-6.091,-4.981,8.097,7.612,13.531,7.584,10.509,11.773
-0.597,-2.733,13.003,12.723,17.333,13.159,17.105,15.058
2.981,-1.891,13.142,12.654,14.691,13.9,17.681,12.174
4.677,0.126,14.252,12.065,14.159,13.997,17.484,9.911
5.403,3.753,19.469,16.348,19.149,18.525,20.35,14.743
4.765,4.436,21.72,21.681,21.423,23.301,18.822,22.813
2.326,0.58,17.892,21.964,17.772,23.211,11.483,25.077
-1.073,-4.052,14.279,17.44,14.299,20.22,7.45,18.744
-3.678,-6.636,13.016,12.07,11.186,17.271,7.961,9.729
-4.044,-7.18,11.756,9.564,6.121,14.63,10.48,5.613
-2.949,-6.751,12.782,11.063,5.217,12.728,18.954,8.028
-3.995,-7.714,16.072,13.021,9.745,11.515,28.046,11.643
-7.974,-10.816,16.198,11.724,11.81,9.837,24.021,10.369
-9.141,-11.962,12.914,9.202,10.422,8.162,7.899,5.307
-4.832,-8.892,9.44,8.407,8.568,7.078,-8.289,2.553
-1.374,-6.833,5.236,7.041,4,4.844,-17.28,2.493
-1.843,-8.259,1.946,5.011,-0.689,3.442,-15.147,2.724
-1.396,-7.098,3.436,7.775,1.203,8.357,-4.401,5.703
0.281,-1.562,6.659,14.005,6.073,16.375,4.74,11.558
-0.986,2.252,6.705,16.436,6.379,19.502,9.102,15.448
-3.087,2.393,5.424,14.912,4.05,18.501,12.463,14.539
-1.976,2.916,5.93,12.977,4.355,16.652,13.703,11.309
-0.009,5.607,6.635,10.955,5.925,13.188,11.26,11.632
-0.084,8.475,4.957,9.684,4.545,10.443,8.128,15.238
0.913,10.812,2.398,10.603,1.265,12.244,6.387,14.26
6.396,14.333,2.34,12.588,0.063,16.734,6.439,8.354
13.306,18.831,4.694,13.927,1.145,19.228,9,5.49
15.734,20.758,6.282,14.54,1.477,18.386,10.842,6.513
13.677,19.308,5.521,15.239,-0.67,17.743,6.168,6.735
13.931,19.641,4.943,16.704,-2.55,20.781,-1.092,7.003
19.38,24.071,7.328,18.925,-0.392,24.946,-0.32,10.024
24.127,27.45,10.644,21.104,4,25.548,7.026,12.938
24.589,26.504,11.977,22.507,7.062,22.835,10.639,11.857
23.616,23.325,12.367,23.132,8.86,19.681,9.872,9.467
20.807,19.336,12.652,22.906,8.718,17.207,10.606,11.171
14.343,15.378,11.899,21.494,6.209,15.551,11.661,15.045
9.225,13.164,11.165,19.033,5.353,14.471,8.924,13.802
10.009,12.008,12.182,16.554,8.225,13.816,6.415,8.947
12.265,9.491,14.459,15.519,11.593,14.289,10.308,10.228
9.578,4.559,15.23,14.641,11.969,14.375,14.905,14.959
3.963,-1.074,12.56,11.018,9.177,11.287,10.402,9.232
2.884,-3.312,9.612,6.557,7.45,7.483,0.175,-4.733
7.375,-0.764,10.52,5.592,10.609,7.726,-4.62,-10.63
11.023,2.74,13.061,7.601,14.946,10.278,-1.622,-5.963
10.182,3.67,12.128,8.758,13.463,9.375,-0.345,-1.216
7.316,2.808,8.033,8.312,7.059,5.91,-5.701,0.521
4.944,2.021,5.281,8.724,2.697,6.548,-8.388,3.105
3.391,1.383,5.532,10.313,2.599,11.013,-3.325,6.024
4.29,2.016,7.602,11.057,5.307,12.368,1.595,6.022
8.04,5.271,10.141,9.882,9.786,9.246,1.291,2.769
9.604,7.882,10.775,6.99,11.984,5.954,-1.205,-1.218
5.244,6.036,8.412,4.081,8.88,3.939,-4.144,-2.929
-1.667,1.778,5.723,3.313,4.756,2.344,-9.322,-2.657
-5.485,-0.264,6.459,5.041,5.386,3.128,-12.955,-2.725
-3.734,1.073,11.959,8.107,11.512,7.013,-6.45,-1.241
0.751,2.857,17.915,10.442,17.855,9.3,6.678,3.991
3.273,2.791,17.986,10.723,17.247,7.866,12.51,9.192
3.872,2.52,13.566,10.556,10.387,7.069,7.201,11.303
3.579,3.213,9.952,9.904,4.38,7.142,-3.111,8.845
-0.18,2.525,6.808,5.373,1.669,2.936,-11.6,-1.263
-5.938,0.093,3.763,-0.459,1.478,-2.984,-11.684,-11.683
-8.072,-1.16,3.429,-1.159,3.677,-3.603,-5.269,-10.768
-7.836,-1.221,2.986,0.075,3.939,-2.315,-3.06,-6.304
-10.362,-2.789,-2.042,-3.412,-1.353,-5.646,-7.843,-10.4
-13.65,-5.566,-7.016,-7.484,-5.748,-8.622,-11.284,-14.14
-12.908,-6.468,-5.273,-5.504,-2.777,-4.542,-7.73,-6.963
-9.645,-4.069,-0.011,-1.145,2.012,1.034,-0.425,2.173
-7.665,0.523,1.887,-1.115,1.679,0.119,4.807,1.579
-6.702,5.144,0.254,-4.201,-1.333,-3.801,6.831,-4.936
-5.47,6.558,-1.963,-5.531,-3.5,-3.093,6.949,-7.46
-5.498,3.119,-5.166,-5.222,-6.77,0.291,3.079,-5.26
-8.399,-2.26,-9.826,-6.25,-11.969,-1.044,-5.663,-3.241
-13.108,-7.119,-13.856,-8.791,-16.025,-6.894,-14.652,-2.094
-17.006,-11.992,-16.321,-11.126,-17.264,-10.904,-19.325,-1.296
-17.587,-14.246,-16.748,-12.124,-15.05,-10.956,-17.823,-3.296
-14.798,-10.124,-13.311,-11.521,-7.919,-9.425,-9.923,-6.891
-12.299,-4.063,-8.752,-11.09,-0.196,-9.25,-1.417,-7.902
-13.781,-4.639,-10.75,-14.512,-1.482,-13.389,-2.283,-9.065
-17.881,-11.227,-19.459,-20.69,-11.634,-19.459,-10.383,-12.857
-19.901,-15.491,-25.399,-22.071,-18.979,-20.216,-13.588,-12.86
-19.182,-14.978,-24.254,-16.981,-18.172,-16.211,-12.284,-7.903
-18.221,-13.654,-20.338,-12.465,-14.108,-14.144,-12.201,-6.233
-16.035,-12.265,-16.228,-10.224,-9.799,-12.353,-7.703,-7.668
-12.284,-9.197,-12.311,-5.764,-5.766,-5.985,0.189,-3.377
-11.917,-6.77,-12.226,-2.537,-5.882,-2,-3.152,3.763
-16.474,-7.787,-17.939,-8.692,-12.192,-9.193,-17.528,0.445
-19.202,-8.864,-23.364,-19.476,-18.1,-18.948,-24,-11.747
-15.641,-5.41,-22.232,-22.5,-16.525,-18.103,-16.781,-16.538
-10.813,-0.94,-18.139,-18.396,-11.608,-11.751,-9.766,-10.867
-9.857,-1.361,-16.435,-15.676,-10.43,-10.326,-9.321,-5.454
-10.293,-4.099,-15.124,-13.692,-11.325,-10.306,-8.529,-2.681
-9.31,-3.752,-12.829,-8.304,-11.428,-5.231,-6.535,2.044
-8.243,-0.862,-11.734,-1.578,-11.409,2.313,-7.279,6.848
-7.076,1.93,-10.727,2.206,-9.794,6.11,-7.062,5.279
-5.063,3.242,-8.441,0.577,-5.626,2.94,-3.467,-3.315
-4.382,1.97,-7.442,-4.782,-2.028,-3.78,-2.893,-11.047
-5.899,-0.911,-9.321,-8.347,-2.401,-7.024,-7.666,-11.855
-6.782,-2.661,-12.26,-8.256,-6.987,-5.989,-10.237,-8.544
-5.238,-2.21,-13.97,-7.674,-12.197,-5.741,-5.268,-5.286
-3.466,-1.036,-13.425,-7.451,-13.803,-7.531,4.032,-2.288
-4.657,-1.651,-11.408,-6.03,-12.012,-8.602,8.846,0.051
-8.149,-4.844,-10.323,-5.155,-10.884,-8.996,0.928,-0.567
-9.748,-7.774,-10.325,-7.237,-11.361,-10.462,-13.56,-3.836
-7.105,-7.172,-8.366,-10.118,-9.567,-12.356,-18.072,-5.212
-1.544,-3.342,-4.473,-10.538,-4.941,-13.088,-11.541,-2.369
4.222,1.294,-2.88,-8.295,-3.124,-10.967,-7.756,0.645
6.87,4.396,-5.047,-5.289,-6.698,-5.758,-9.474,-0.722
4.869,4.886,-6.423,-3.645,-9.016,-1.552,-4.633,-4.716
1.083,4.468,-3.735,-4.176,-5.363,-1.955,9.212,-5.887
-1.689,4.295,-2.926,-7.216,-4.303,-6.408,12.398,-4.771
-3.964,2.14,-9.68,-12.901,-12.409,-12.827,-7.202,-7.045
-5.09,-1.84,-16.9,-17.809,-18.965,-17.376,-27.938,-10.36
-3.101,-3.269,-16.03,-17.161,-14.523,-16.817,-26.905,-6.939
-0.515,-1.47,-11.434,-12.66,-7.713,-13.567,-15.026,-1.134
-1.259,-0.357,-10.375,-10.874,-7.619,-12.135,-12.025,-3.994
-2.957,-0.521,-10.616,-12.889,-7.943,-12.302,-16.45,-12.559
-1.583,0.583,-8.163,-13.946,-2.55,-11.345,-18.157,-16.925
0.709,1.975,-5.695,-12.884,1.55,-10.192,-15.595,-17.485
0.351,0.841,-6.955,-12.978,-1.917,-11.185,-14.051,-18.361
-1.1,-1.133,-11.174,-14.966,-8.999,-13.304,-16.745,-18.843
0.255,0.05,-14.172,-15.756,-13.334,-14.422,-18.818,-16.565
4.321,3.481,-12.683,-13.756,-12.013,-14.283,-14.395,-11.788
5.28,3.931,-9.17,-12.044,-7.704,-13.911,-8.43,-9.069
-0.441,0.295,-7.544,-12.774,-5.266,-13.546,-7.795,-10.332
-6.696,-2.015,-5.542,-11.972,-3.285,-11.351,-5.529,-10.981
-6,0.099,-1.412,-7.101,0.845,-7.076,3.596,-9.758
-0.343,2.721,-0.922,-3.687,1.373,-4.898,5.975,-10.629
5.081,3.221,-6.089,-5.497,-4.73,-6.688,-7.024,-12.726
10.111,5.243,-8.853,-6.996,-8.438,-7.547,-20.965,-10.714
13.905,10.206,-5.421,-3.793,-5.106,-4.051,-20.241,-4.662
12.67,13.585,-1.969,-0.211,-2.195,0.281,-7.361,-0.324
7.333,12.986,-1.96,-0.873,-3.205,2.043,4.513,-0.213
2.086,9.297,-3.473,-4.43,-4.567,2.144,5.196,-2.506
-2.331,2.421,-6.75,-8.022,-6.635,0.057,-6.016,-5.806
-5.378,-5.077,-11.341,-10.098,-10.948,-5.488,-18.216,-7.902
-4.494,-7.718,-13.025,-10.172,-13.894,-10.554,-18.326,-7.174
-0.419,-5.118,-11.142,-10.186,-12.825,-12.102,-8.667,-6.373
2.828,-2.427,-10.324,-11.842,-10.865,-12.936,-3.685,-6.926
2.921,-2.269,-12.434,-13.486,-11.147,-14.104,-7.854,-6.197
0.736,-1.544,-13.613,-12.689,-11.797,-11.938,-10.91,-2.338
-1.132,2.667,-11.153,-9.393,-10.22,-5.278,-6.474,3.113
-1.143,7.285,-8.157,-7.715,-7.777,-1.192,-1.447,2.848
0.23,8.064,-7.513,-11.193,-5.855,-5.953,-2.341,-7.405
1.624,6.208,-7.936,-15.461,-4.579,-13.093,-6.809,-17.527
1.325,3.992,-9.031,-15.555,-6.471,-13.825,-11.264,-17.958
-0.668,1.505,-10.234,-13.058,-10.183,-9.484,-12.128,-11.783
-1.709,0.714,-7.734,-8.866,-8.706,-4.523,-5.041,-3.401
-0.214,3.326,-2.48,-2.865,-3.075,-0.956,4.768,4.743
2.977,7.119,-0.835,1.807,-1.41,1.341,7.192,9.525
6.826,9.95,-3.368,3.689,-4.339,4.87,3.866,9.648
8.852,11.205,-6.056,2.848,-7.452,7.71,-1.353,4.511
5.844,9.748,-8.003,-1.45,-9.734,3.851,-10.136,-3.167
0.489,6.682,-8.824,-5.124,-10.735,-2.799,-16.643,-5.192
0.283,5.893,-7.052,-3.237,-8.694,-2.068,-15.323,0.104
7.172,7.983,-3.608,-0.436,-3.618,2.616,-11.473,1.144
14.156,8.34,-1.723,-4.427,0.649,-1.458,-9.003,-8.269
13.335,3.879,-4.334,-12.839,-2.009,-13.755,-7.481,-15.904
5.774,-1.381,-9.838,-16.676,-10.594,-20.861,-7.254,-11.525
0.699,-1.395,-12.258,-13.464,-15.063,-17.382,-6.742,-3.629
3.353,2.89,-10.04,-8.831,-11.695,-11.031,-3.649,-2.806
9.442,5.866,-7.218,-6.146,-6.98,-7.556,1.339,-3.99
13.821,6.99,-5.004,-3.09,-4.454,-4.758,5.074,0.988
17.214,9.9,-2.147,-0.181,-2.346,-2.878,4.149,4.371
21.887,14.46,0.397,-1.767,-0.064,-5.731,-0.086,-3.388
26.424,17.315,1.321,-6.134,1.551,-10.118,-2.344,-12.157
27.198,17.059,0.496,-7.132,1.851,-9.562,-2.181,-9.068
23.603,15.324,-1.457,-4.636,0.435,-5.759,-2.167,-0.731
19.609,14.115,-3.181,-3.314,-2.534,-4.45,-1.187,0.872
18.82,12.974,-3.524,-4.298,-4.895,-5.648,0.825,-2.599
20.566,11.207,-1.437,-3.685,-2.077,-4.637,1.053,-2.582
21.997,10.784,2.504,0.749,5.076,-0.082,0.311,1.979
22.059,13.164,4.945,5.42,7.235,3.744,2.666,4.815
21.517,16.224,5.69,7.258,2.916,4.734,8.773,3.927
19.662,16.754,8.256,8.067,2.373,5.737,13.493,3.834
15.33,13.876,11.101,8.753,6.71,6.998,12.384,5.718
11.189,9.691,9.818,7.11,7.13,5.731,7.012,5.342
11.421,7.685,6.613,3.89,4.359,3.39,-1.076,1.479
14.648,8.82,6.153,2.973,4.851,3.244,-10.183,-0.144
15.467,10.405,7.319,4.902,6.372,4.35,-13.021,4.623
13.343,10.827,7.03,6.923,4.544,4.639,-7.504,9.57
13.044,11.21,6.37,7.829,2.82,4.588,-1.184,8.886
16.67,12.866,8.212,8.847,6.144,6.424,2.706,8.603
19.821,15.205,11.529,10.192,12.011,10.606,5.804,13.073
16.363,13.919,11.343,8.333,12.981,11.628,6,14.228
6.641,6.05,5.976,0.95,6.721,3.926,3.935,5.839
-1.664,-2.329,0.528,-6.203,-0.197,-6.83,3.859,-4.192
-3.048,-3.319,-1.253,-6.109,-1.897,-9.791,1.868,-6.427
-1.009,0.426,-2.111,-1.835,-0.98,-5.195,-5.422,-4.231
-1.069,1.688,-3.447,0.023,-0.919,-1.144,-9.412,-3.161
-1.665,1.214,-1.576,0.74,0.616,0.577,-5.366,-0.72
1.243,2.989,4.227,3.39,4.652,2.37,-0.305,3.433
6.258,5.293,9.08,5.593,7.477,3.559,1.684,4.105
10.012,6.439,10.085,6.034,8.087,4.148,3.963,1.393
12.227,9.259,8.45,7.436,7.851,6.296,6.387,1.651
12.906,13.744,5.124,10.504,4.892,10.093,3.62,7.607
10.986,15.755,1.789,13.177,-0.257,14.002,-2.035,14.648
7.362,14.218,1.483,13.414,-1.846,15.643,-1.126,14.946
4.336,11.122,3.658,9.539,1.199,12.129,4.9,5.005
3.311,7.489,4.999,3.494,3.545,5.181,4.758,-6.63
4.201,4.161,4.923,1.129,2.471,1.068,-2.616,-7.363
5.365,2.609,4.919,4.29,0.002,2.593,-6.749,0.462
5.874,3.67,5.806,8.564,-0.738,6.561,-1.504,4.879
6.426,6.188,7.406,9.82,1.319,8.502,8.818,3.681
6.516,6.56,8.029,7.556,3.057,6.547,14.868,1.672
4.972,3.356,6.663,4.446,1.748,3.138,10.261,1.83
3.003,0.536,6.234,4.726,0.95,3.362,1.131,7.084
2.527,0.75,9.569,8.978,4.762,7.848,1.158,17.061
3.758,2.016,13.526,12.074,9.558,10.607,8.418,22.519
5.87,3.27,12.835,9.421,8.751,7.31,6.656,15.095
6.7,4.181,7.835,1.984,2.526,0.02,-4.65,1.47
4.691,2.565,3.743,-5.429,-2.441,-6.502,-9.735,-6.183
2.388,-1.786,2.833,-8.704,-2.469,-8.517,-6.399,-7.983
3.613,-4.639,2.748,-6.697,-0.744,-4.215,-5.19,-8.367
7.515,-2.236,3.052,-0.38,-0.119,4.773,-4.308,-4.419
7.874,1.626,5.223,6.002,0.226,10.948,3.064,3.471
0.789,-0.872,6.486,6.447,0.07,7.362,7.826,6.103
-8.793,-9.779,3.259,1.362,-2.108,-1.491,0.684,1.09
-13.569,-17.348,-0.899,-1.843,-4.819,-5.212,-7.22,-1.772
-13.22,-19.274,0.215,0.555,-4.48,-2.321,-2.717,2.012
-11.274,-17.591,5.843,4.745,-0.344,1.425,8.158,6.09
-8.138,-14.525,10.678,7.165,4.953,4.349,12.24,7.58
-5.096,-12.04,12.353,7.781,8.381,7.233,8.489,8.414
-7.194,-13.363,12.188,6.684,8.683,7.461,7.287,7.511
-13.049,-17.105,12.981,5.048,8.632,4.365,14.388,5.053
-13.613,-16.6,15.846,5.775,12.205,3.117,20.278,4.976
-7.939,-10.441,17.936,9.133,16.777,7.287,14.901,8.399
-6.13,-6.164,16.042,11.342,15.466,11.799,4.624,11.234
-12.123,-8.941,11.792,9.036,9.008,8.745,-0.047,9.277
-17.276,-13.462,10.427,4.425,6.305,0.539,2.016,4.334
-15.841,-13.993,11.759,1.623,8.413,-3.431,5.965,0.706
-12.48,-13.343,9.721,0.003,6.395,-2.12,5.523,-1.447
-10.378,-14.13,5.8,-1.148,1.168,-0.356,0.223,-2.068
-7.918,-13.887,6.625,0.255,1.226,0.388,-2.803,0.605
-7.257,-12.341,10.323,3.151,4.273,-0.231,3.835,4.972
-11.34,-12.02,12.837,4.682,5.703,-1.664,21.066,6.83
-16.087,-12.7,15.143,5.902,7.839,-0.446,32.852,6.061
-16.265,-12,15.588,9.293,8.456,4.897,18.93,8.483
-13.552,-10.169,11.582,12.954,3.036,9.842,-7.864,14.145
-11.385,-9.36,7.769,12.866,-1.895,9.882,-16.165,14.052
-8.936,-8.93,8.313,9.442,0.718,7.327,-6.148,6.435
-6.329,-7.728,8.715,4.809,4.201,4.668,0.966,-1.523
-7.225,-7.99,6.349,-1.022,3.204,-0.42,3.68,-5.73
-11.599,-10.705,6.748,-5.005,4.698,-5.446,10.042,-5.403
-14.173,-12.764,11.189,-2.491,10.517,-2.917,10.456,-1.053
-12.209,-12.246,13.394,4.236,12.135,5.964,-2.807,3.918
-9.209,-10.901,11.968,8.386,7.952,11.327,-11.988,5.697
-9.378,-10.414,11.081,7.447,4.777,8.91,-2.726,3.822
-11.168,-10.188,10.975,4.746,4.431,5.285,9.682,2.061
-10.286,-9.715,8.888,4.462,3.536,7.35,7.31,3.894
-7.644,-10.35,5.054,6.258,1.334,11.256,-2.734,6.388
-8.02,-12.924,1.967,6.435,-0.85,8.975,-3.612,4.146
-11.828,-15.862,1.21,4.75,-2.421,3.176,5.001,-0.601
-14.72,-17.702,2.47,4.481,-2.415,2.817,9.275,-0.977
-15.988,-19.77,2.631,4.495,-1.687,6.457,2.683,1.088
-19.89,-23.845,-1.368,0.029,-3.699,4.759,-7.066,-2.303
-25.515,-27.764,-6.059,-6.607,-7.402,-2.181,-9.603,-8.231
-25.443,-27.541,-5.488,-8.124,-7.747,-5.791,-3.824,-7.72
-18.273,-23.547,-1.504,-4.643,-4.988,-4.33,1.564,-3.403
-11.977,-19.671,0.395,-1.385,-2.942,-2.095,-0.036,-2.526
-12.491,-17.963,0.409,0.054,-2.046,-0.815,-3.668,-3.732
-16.623,-17.299,1.232,0.879,-1.236,-0.118,-0.795,-3.349
-18.538,-16.042,2.474,2.06,-0.588,1.067,5.577,-3.43
-18.489,-14.806,2.684,2.524,0.32,2.56,5.07,-7.509
-19.252,-14.634,2.404,1.088,2.058,2.62,-0.948,-11.192
-18.726,-14.52,1.786,-0.517,1.69,1.701,-3.882,-8.959
-14.619,-14.669,-0.92,-2.587,-3.726,-0.035,-6.235,-7.476
-9.603,-16.372,-4.029,-7.261,-8.738,-3.627,-11.801,-11.575
-7.087,-17.75,-3.556,-11.318,-7.571,-6.523,-13.8,-13.184
-8.576,-17.402,-1.569,-11.389,-5.599,-6.866,-11.114,-9.408
-12.759,-16.724,-1.452,-9.848,-7.189,-7.214,-11.189,-7.314
-14.784,-14.77,0.077,-7.909,-6.047,-7.764,-11.969,-9.012
-12.013,-9.716,4.753,-3.804,-0.035,-5.604,-7.344,-10.044
-6.915,-3.113,7.92,1.687,3.567,-1.131,-0.735,-7.501
-0.711,3.272,9.181,6.312,4.7,2.868,3.652,-1.972
7.115,8.998,13.43,9.585,10.953,6.093,6.611,3.717
12.128,12.177,18.439,11.205,18.662,9.021,8.046,7.272
9.705,11.698,17.959,11.524,18.111,11.32,8.218,10.377
3.755,9.668,13.861,11.807,12.004,12.442,8.465,13.029
-0.452,6.558,9.385,9.158,5.487,8.761,6.623,8.687
-2.897,1.322,3.832,1.456,-2.059,-0.323,2.114,-2.477
-1.827,-1.512,1.936,-3.212,-4.074,-5.285,0.693,-7.063
4.55,2.998,7.811,1.944,4.612,-0.114,5.076,1.913
9.111,8.3,12.989,8.734,11.813,6.575,9.131,12.534
5.178,4.316,9.61,7.115,7.177,5.675,6.56,11.607
-2.213,-5.953,3.762,1.16,-0.163,1.127,0.559,2.833
-6.855,-12.924,2.586,-1.215,-0.493,-0.288,-1.405,-4.268
-9.407,-15.374,2.956,-1.175,1.333,-0.244,-0.24,-8.169
-10.791,-16.451,0.38,-1.485,-1.168,-0.876,-1.356,-7.606
-11.511,-15.691,-2.839,-0.117,-4.843,0.958,-1.475,-0.961
-13.51,-12.504,-2.7,3.643,-4.398,5.67,5.473,5.359
-15.976,-10.071,-1.516,5.568,-2.803,7.269,11.266,4.447
-16.401,-11.429,-4.676,1.324,-6.407,1.438,3.95,-1.825
-14.73,-14.03,-9.771,-6.082,-12.147,-6.322,-6.558,-6.241
-11.909,-13.35,-9.188,-8.416,-10.859,-7.154,-4.366,-3.217
-9.018,-11.209,-3.464,-4.896,-2.803,-3.066,3.566,4.144
-8.057,-12.798,0.023,-3.511,2.502,-3.09,5.48,4.706
-9.224,-17.192,-1.035,-7.106,0.907,-7.233,4.129,-4.63
-10.297,-18.889,-3.029,-9.457,-2.761,-8.629,2.565,-11.296
-10.454,-16.004,-3.332,-6.648,-3.633,-6.254,0.328,-6.439
-10.744,-11.134,-3.121,-3.272,-2.509,-4.223,-1.93,1.011
-11.052,-6.781,-4.595,-3.911,-2.821,-4.265,-5.8,0.991
-10.064,-3.942,-6.236,-5.332,-3.938,-4.525,-8.072,-2.754
-7.996,-3.645,-4.198,-3.643,-2.011,-3.514,-1.28,-3.806
-6.232,-5.778,1.256,-0.884,2.668,-1.742,9.605,-3.003
-5.3,-8.076,4.46,0.33,4.712,0.202,9.115,-2.126
-5.789,-8.922,1.518,0.348,0.823,1.93,-4.722,-0.713
-7.879,-8.637,-2.766,0.444,-4.272,2.786,-13.712,0.421
-9.418,-8.522,-1.599,1.269,-3.729,2.585,-7.308,-0.043
-7.914,-8.83,2.671,2.706,0.78,2.151,1.256,-0.845
-3.706,-7.528,3.567,4.586,2.607,3.16,0.51,0.849
-0.45,-4.956,0.924,5.983,0.889,5.711,-2.065,4.421
-1.544,-5.535,-1.975,4.978,-0.383,6.284,-1.049,4.888
-6.057,-10.152,-5.458,0.904,-1.344,2.11,-3.872,-0.427
-10.778,-13.975,-11.189,-4.947,-6.41,-3.874,-11.041,-7.621
-14.5,-14.947,-16.665,-10.261,-14.491,-7.668,-12.139,-10.093
-18.114,-16.683,-17.694,-13.038,-18.621,-10.199,-5.436,-6.551
-22.047,-20.261,-14.789,-14.001,-16.959,-13.513,-0.38,-3.4
-24.15,-21.583,-12.044,-15.125,-14.05,-15.814,-1.547,-4.77
-21.333,-18.615,-10.278,-14.245,-11.343,-13.108,-3.558,-5.412
-14.099,-13.751,-6.501,-7.663,-5.704,-4.44,-1.83,-1.384
-6.878,-9.881,-1.086,0.312,1.622,3.463,0.435,0.792
-3.219,-8.266,0.68,0.409,3.591,2.109,-0.349,-4.221
-3.139,-8.995,-3.317,-7.387,-1.938,-6.543,-2.069,-11.43
-5.438,-11.885,-8.541,-14.023,-8.661,-13.576,-2.612,-15.946
-9.943,-15.856,-11.177,-15.142,-11.63,-15.898,-2.357,-17.812
-16.261,-18.659,-13.288,-13.727,-13.287,-15.302,-1.334,-15.759
-22.169,-19.101,-17.372,-12.367,-16.539,-12.31,-2.453,-9.743
-25.203,-18.495,-20.961,-11.425,-18.651,-8.815,-8.802,-5.202
-24.655,-19.018,-20.847,-11.366,-17.409,-8.435,-13.354,-5.983
-20.934,-20.504,-18.153,-11.795,-15.592,-10.008,-8.249,-8.139
-15.658,-20.226,-14.869,-10.405,-14.312,-8.205,-0.605,-6.465
-12.281,-16.89,-9.615,-5.311,-10.012,-1.853,0.64,-0.286
-12.71,-12.69,-2.882,2.096,-2.895,4.697,-0.718,8.871
-14.814,-10.956,-1.265,7.167,-0.595,7.958,-0.074,14.701
-15.998,-12.855,-7.446,5.521,-6.242,7.161,0.392,8.515
-16.044,-15.694,-14.073,-1.603,-12.266,2.664,-2.765,-4.611
-14.849,-15.202,-15.357,-6.956,-12.639,-2.155,-9.47,-9.302
-12.014,-11.111,-14.613,-7.473,-10.946,-4.303,-14.216,-6.388
-9.124,-7.165,-16.208,-8.75,-12.884,-6.202,-14.791,-9.6
-6.65,-3.756,-17.47,-11.536,-16.375,-8.104,-15.034,-16.302
-1.977,1.913,-13.486,-8.456,-14.334,-5.223,-13.612,-14.258
4.606,8.056,-7.175,-0.323,-7.719,1.483,-7.956,-7.714
8.428,9.726,-6.238,2.937,-5.889,4.413,-4.287,-7.525
7.409,6.497,-10.035,-0.826,-10.452,0.654,-7.218,-11.009
4.78,3.002,-9.462,-3.458,-11.044,-3.451,-9.529,-9.134
3.919,3.025,-1.097,0.062,-2.01,-1.075,-1.93,-1.443
5.256,6.105,8.325,5.711,9.04,5.292,11.989,3.369
8.163,10.037,11.449,7.389,12.413,7.846,15.114,-0.45
11.253,13.991,7.706,5.269,7.357,5.86,0.296,-5.504
12.591,18.166,2.795,4.587,1.303,5.676,-14.268,-3.013
12.042,20.951,1.268,5.971,-0.403,7.623,-13.128,1.254
11.051,19.287,1.695,5.4,0.266,6.566,-4.194,-0.582
10.339,13.822,2.293,3.179,1.551,3.591,2.915,-5.472
9.279,9.477,3.923,2.835,4.112,2.65,7.329,-7.72
7.219,9.042,5.822,5.206,5.994,3.9,7.672,-3.394
4.946,10.018,5.906,8.243,5.371,6.326,6.708,6.18
4.273,9.338,4.198,8.886,3.592,8.044,7.072,10.289
5.959,7.504,2.328,5.67,2.481,6.783,-0.08,2.508
8.268,5.872,1.602,0.868,2.81,3.596,-14.202,-8.402
8.346,4.195,1.929,-2.042,3.314,0.509,-16.197,-12.206
5.301,2.515,1.957,-3.427,1.905,-3.636,-3.605,-11.791
1.154,2.319,1.169,-5.267,-0.06,-8.193,1.661,-13.218
-0.835,4.984,1.149,-5.318,0.966,-8.221,-7.312,-11.892
1.48,9.451,3.707,-1.196,5.067,-3.022,-11.876,-3.936
6.203,12.035,7.367,3.465,7.981,2.164,-5.355,2.277
7.818,9.535,6.741,3.593,4.919,3.689,-5,0.601
4.367,3.059,0.099,0.214,-3.483,2.309,-14.642,-2.49
-0.187,-2.703,-5.516,-2.038,-9.286,0.496,-14.994,-1.614
-4.154,-5.464,-5.416,-3.116,-7.848,-1.698,-2.138,-0.742
-9.244,-6.732,-4.935,-5.645,-4.957,-5.582,3.911,-3.147
-12.777,-7.138,-7.94,-7.82,-6.227,-8.507,-4.738,-6.171
-10.846,-6.065,-10.264,-6.309,-9.371,-6.061,-11.521,-5.735
-6.648,-3.931,-8.325,-1.888,-9.784,1.114,-3.613,-0.331
-5.778,-2.209,-4.678,0.655,-6.126,5.824,8.121,4.828
-7.602,-2.765,-4.163,-3.379,-1.719,1.333,7.366,0.743
-7.258,-5.375,-8.135,-12.047,-1.884,-9.315,-2.053,-11.299
-4.078,-7.542,-14.031,-18.463,-8.18,-17.515,-7.507,-19.357
-2.285,-7.817,-18.681,-19.492,-15.894,-19.576,-9.744,-18.046
-1.847,-5.672,-18.82,-15.788,-17.63,-15.729,-11.302,-11.78
2.053,-1.022,-12.949,-8.96,-11.127,-8.029,-6.156,-4.943
7.693,3.32,-6.037,-3.438,-3.567,-2.034,1.856,-0.539
7.55,3.485,-5.571,-3.216,-3.716,-1.748,-0.154,-0.595
1.875,0.124,-10.456,-5.985,-9.768,-5.028,-8.037,-2.981
-2.287,-2.922,-12.563,-7.394,-12.169,-7.992,-6.969,-5.005
-2.837,-3.979,-9.921,-7.822,-8.222,-9.438,0.418,-6.871
-1.634,-3.192,-7.504,-9.202,-4.363,-10.101,2.297,-7.629
0.267,-1.696,-7.028,-10.68,-4.015,-10.57,0.052,-6.389
1.058,-1.482,-6.461,-10.187,-4.217,-9.35,0.147,-4.481
0.033,-1.837,-6.428,-7.23,-5.104,-4.492,0.147,-1.594
0.072,0.036,-8.116,-5.188,-8.604,0.364,-4.161,0.218
2.841,3.671,-8.964,-7.889,-10.294,-1.434,-9.07,-3.312
5.044,5.754,-8.109,-11.889,-8.244,-7.431,-9.262,-6.958
4.805,5.655,-8.184,-10.409,-8.201,-8.722,-5.039,-3.796
5.2,5.069,-8.741,-5.026,-10.42,-5.554,2.073,0.024
6.568,3.511,-7.898,-3.002,-9.324,-5.103,8.438,-2.616
6.09,0.543,-6.91,-4.839,-5.73,-7.103,6.067,-6.9
4.104,-2.141,-7.16,-5.497,-4.884,-6.276,-4.181,-6.491
1.429,-4.352,-8.353,-5.326,-7.655,-4.508,-9.338,-4.231
-1.593,-5.722,-9.528,-7.894,-10.254,-7.33,-3,-5.152
-1.761,-3.443,-9.758,-10.559,-10.182,-11.828,4.54,-6.579
2.138,2.089,-10.254,-8.713,-9.97,-10.111,-0.364,-3.808
7.302,7.222,-11.069,-3.693,-10.023,-1.609,-11.732,0.994
12.482,11.35,-7.632,0.91,-4.406,6.404,-10.792,3.749
15.985,14.068,-0.972,3.343,4.043,7.782,-0.048,4.53
13.463,11.736,-0.094,3.024,2.442,3.265,2.333,5.169
6.36,5.315,-4.791,2.322,-7.171,-1.103,-2.086,7.038
3.077,2.009,-4.85,4.409,-9.127,-0.693,1.477,9.823
7.094,4.432,1.017,6.715,-1.504,2.063,10.164,9.713
12.811,8.091,3.89,4.184,3.229,1.521,9.957,3.605
13.475,9.303,0.104,-1.681,-0.719,-2.095,2.748,-3.256
8.708,8.772,-4.361,-4.129,-6.19,-3.475,1.57,-2.476
4.934,9.471,-3.524,-0.297,-5.422,-0.634,7.698,4.054
7.599,12.988,1.173,5.838,-0.362,3.703,12.003,7.989
13.838,16.81,4.087,9.358,2.055,6.577,10.54,7.802
16.461,16.626,3.337,9.347,0.422,6.847,7.9,6.132
13.702,11.961,2.932,7.587,0.402,4.936,11.33,3.087
9.37,6.219,4.656,4.742,3.867,1.56,20.684,-0.001
5.195,1.631,3.044,0.111,3.209,-2.628,22.916,0.13
2.059,-0.826,-4.168,-3.91,-4.862,-4.746,7.656,3.794
3.525,0,-9.395,-3.029,-11.091,-1.611,-13.165,9.092
8.906,3.242,-6.929,1.767,-8.646,4.712,-18.142,14.643
11.561,6.063,-2.431,4.127,-4.483,7.815,-8.07,15.193
8.878,6.306,-3.439,-0.354,-6.408,3.301,-2.078,3.968
5.881,5.32,-6.863,-7.585,-9.103,-5.132,-5.498,-11.851
6.149,6.285,-7.566,-10.596,-7.752,-10.069,-8.399,-17.736
6.641,8.474,-9.32,-10.976,-9.103,-11.358,-6.771,-15.025
5.307,9.256,-13.298,-12.854,-13.585,-11.916,-2.775,-12.862
3.762,8.802,-13.457,-13.452,-12.203,-10.501,3.658,-10.055
1.118,7.419,-10.535,-10.894,-6.736,-7.876,9.042,-4.219
-3.49,4.286,-11.208,-9.372,-6.992,-7.883,6.676,-0.747
-6.121,0.793,-14.912,-11.034,-12.169,-10.194,-1.444,-2.762
-4.223,-0.114,-16.108,-12.648,-14.267,-11.47,-7.397,-5.919
-1.291,1.198,-14.205,-11.927,-12.362,-11.739,-7.355,-5.965
-1.22,0.869,-12.826,-10.111,-11.088,-11.999,-3.653,-2.95
-3.734,-2.535,-14.12,-8.734,-12.124,-10.487,-2.488,0.989
-6.656,-5.552,-16.674,-8.054,-13.781,-7.636,-5.026,3.788
-8.561,-5.173,-17.913,-7.974,-15.139,-7.035,-6.744,4.115
-8.889,-3.62,-17.9,-9.537,-16.689,-9.58,-7.481,0.551
-7.606,-3.898,-16.999,-12.481,-16.531,-11.893,-7.76,-5.281
-5.577,-3.945,-13.703,-12.753,-11.878,-10.312,-4.576,-7.649
-4.344,-1.819,-10.711,-9.722,-6.912,-7.052,-1.427,-6.564
-3.931,-0.6,-13.022,-8.242,-8.59,-7.35,-4.588,-6.649
-2.236,-1.27,-16.784,-7.689,-12.979,-8.289,-8.836,-5.502
1.752,-0.308,-13.878,-3.057,-10.054,-2.831,-5.284,-0.659
5.844,2.318,-6.833,2.84,-2.045,5.766,1.998,1.696
7.068,3.213,-5.599,3.087,-0.997,8.128,2.997,-2.247
5.512,2.56,-11.044,-1.439,-7.876,3.285,-0.631,-6.69
3.9,2.747,-14.344,-4.954,-11.262,-2.692,-2.07,-6.146
3.674,3.541,-11.546,-5.561,-6.837,-6.04,-1.988,-2.047
4.011,3.778,-7.29,-4.578,-1.666,-5.992,1.249,2.429
3.947,3.804,-6.304,-3.784,-1.112,-4.2,7.593,3.588
3.84,3.992,-7.844,-5.016,-2.455,-4.456,1.909,-1.149
4.455,3.939,-7.762,-6.944,-1.211,-5.453,-17.779,-5.845
5.437,3.542,-5.022,-6.503,1.055,-2.987,-26.558,-4.61
6.558,3.005,-2.256,-4.705,1.131,-0.77,-16.502,-2.272
8.114,1.723,0.338,-4.052,2.374,-3.224,-6.995,-3.34
8.369,-0.892,3.771,-4.458,7.442,-6.342,-5.565,-4.677
5.213,-3.307,4.993,-5.552,9.491,-6.729,-3.562,-3.227
1.003,-3.434,1.837,-7.337,3.902,-6.776,0.453,-0.801
0.92,-1.404,-0.834,-8.979,-0.404,-8.692,1.465,-0.689
6.567,2.055,1.839,-9.225,4.54,-10.628,0.502,-1.815
13.947,6.365,6.614,-7.1,11.43,-9.242,2.328,0.13
17.538,8.784,8.434,-3.246,11.863,-4.631,6.803,4.862
16.156,7.09,7.972,-0.254,9.672,0.184,9.959,6.731
14.222,4.27,7.73,0.245,9.619,2.719,9.304,4.116
15.1,4.813,8.533,-0.05,10.536,1.838,5.957,3.212
16.011,7.678,10.944,1.148,12.817,-0.767,5.569,7.596
14.026,8.472,14.199,3.198,17.746,-1.043,11.264,12.19
11.002,6.762,15.564,4.767,21.658,2.914,16.224,14.098
8.246,5.262,14.048,6.24,20.476,8.778,13.977,16.099
4.572,4.015,12.004,6.162,16.564,10.934,7.889,15.115
1.212,1.571,11.262,2.084,14.268,5.909,3.369,6.726
1.355,-0.347,11.113,-2.893,13.34,-1.539,1.008,-1.951
5.388,0.543,10.511,-4.17,11.866,-5.263,-0.528,-3.698
10.591,2.949,10.207,-2.388,11.064,-4.957,-0.185,-1.714
14.313,5.412,12.835,2.035,14.223,0.184,5.472,3.228
16.587,8.895,19.833,10.747,22.47,11.314,20.27,13.833
18.911,13.118,27.308,19.609,30.985,21.748,39.499,21.373
19.236,14.81,26.802,20.545,30.048,22.788,40.374,15.331
14.036,11.822,15.187,13.314,16.461,15.276,11.675,4.462
6.609,7.156,3.09,6.764,2.79,7.985,-14.513,2.935
4.026,5.876,2.494,7.149,2.859,7.517,-10.729,8.14
6.718,8.635,8.901,11.323,11.713,11.942,0.287,11.543
9.834,11.897,11.567,13.715,16.069,15.184,-2.276,13.212
11.431,13.048,11.789,14.458,15.416,15.577,-0.199,15.549
12.021,11.885,14.223,15.027,15.631,14.553,15.073,14.802
11.696,9.79,15.526,13.09,15.877,11.299,21.972,8.308
12.095,9.753,13.377,9.022,14.302,6.419,11.292,3.798
14.518,13.554,11.595,7.853,12.962,4.342,1.308,6.849
16.699,18.107,12.827,10.203,13.87,5.987,6.067,10.663
16.657,19.163,15.119,11.825,16.317,7.958,15.322,10.265
15.625,16.926,14.949,11.917,16.231,9.675,13.838,10.207
15.401,14.587,12.343,12.782,12.166,11.971,5.657,13.519
16.652,14.894,12.084,14.344,10.985,13.465,5.21,16.308
19.679,18.643,17.006,15.23,18.451,14.296,14.277,15.565
24.479,23.851,23.001,16.159,28.333,17.197,21.761,14.414
28.096,26.661,23.566,18.1,29.146,21.481,20.688,16.44
25.489,24.211,18.103,19.452,20.073,21.909,15.488,19.699
17.627,18.508,13.314,18.515,12.978,17.187,13.827,19.692
12.418,15.443,14.238,16.847,15.36,13.26,18.4,15.771
13.928,17.42,17.661,17.792,20.508,14.93,25.618,12.615
17.669,21.278,18.203,22.389,20.157,20.091,26.984,14.806
18.504,24.461,16.022,27.54,16.103,24.245,19.162,19.459
16.934,26.864,14.767,29.737,14.226,26.21,11.447,18.743
15.07,26.644,15.506,28.878,15.3,25.963,10.799,12.481
13.02,22.052,16.422,26.067,16.096,22.025,12.711,9.507
11.555,16.618,16.911,22.293,15.56,16.35,14.542,13.776
11.808,15.227,17.816,19.594,15.596,13.728,17.598,18.914
12.848,17.551,18.8,18.559,17.202,13.903,18.285,18.344
13.771,20.119,18.89,17.899,18.843,13.905,14.043,14.908
15.322,21.474,18.267,17.838,18.763,14.761,8.82,15.121
17.116,21.451,17.844,19.019,17.727,17.719,5.814,17.932
17.329,19.332,18.425,20.721,18.012,21.011,6.639,19.621
16.319,16.726,19.944,22.298,19.361,23.178,12.719,21.072
15.054,16.281,19.953,22.02,18.236,22.164,17.636,21.455
11.996,16.269,15.534,16.944,12.988,15.417,11.315,16.376
7.524,13.896,8.398,8.131,7.264,5.859,-1.297,6.173
5.839,10.816,4.447,1.783,6.055,0,-2.483,-1.229
8.661,9.79,6.878,2.361,10.069,-0.18,9.527,1.563
13.467,11.886,12.886,8.505,15.314,3.634,17.082,11.912
17.745,17.136,18.03,15.729,18.44,10.194,14.869,19.55
20.089,22.115,20.083,20.197,19.715,16.859,12.287,20.213
19.862,22.07,19.214,20.948,20.068,19.428,10.08,18.392
17.614,17.614,17.868,18.694,20.249,16.461,7.734,15.15
14.661,13.324,18.381,15.401,21.595,12.418,10.579,9.891
13.008,12.198,20.717,15.534,24.075,13.527,15.068,9.088
13.137,14.075,23.693,19.696,25.952,18.293,15.133,14.663
12.342,16.134,25.098,21.057,25.387,18.334,13.945,17.051
9.689,15.942,23.088,16.872,22.393,12.205,14.315,12.469
8.006,14.483,20.416,13.829,20.49,8.775,15.473,9.831
7.662,13.773,20.078,15.46,21.048,11.915,17.02,13.504
6.367,14.124,18.901,16.953,19.392,14.882,16.046,16.38
5.438,14.991,15.031,15.474,14.717,13.291,12.184,13.976
7.231,15.083,12.687,13.743,12.305,10.439,10.951,11.664
9.824,13.705,13.453,14.272,12.751,10.734,13.458,14.615
10.589,12.493,14.379,16.821,13.231,15.014,16.858,19.199
9.57,12.112,13.909,18.757,13.786,19.729,19.655,19.473
8.46,12.099,12.249,17.836,13.899,20.348,17.015,16.402
8.93,13.857,10.423,15.418,12.79,16.655,9.183,13.352
10.066,17.147,10.19,14.22,13.05,13.232,6.897,10.602
10.04,19.103,11.214,15.242,15.394,14.684,10.905,10.404
10.551,19.775,11.709,17.747,16.195,19.498,10.336,14.49
13.913,21.506,12.405,19.733,14.684,21.37,5.858,18.198
17.521,23.643,13.77,19.746,12.896,18.891,5.377,18.721
17.84,24.263,13.478,18.776,10.678,16.867,5.25,18.141
16.847,24.684,12.448,18.473,9.363,17.305,1.533,14.937
17.939,26.595,14.672,18.19,12.065,16.807,2.535,7.05
19.482,27.631,18.96,16.687,16.792,13.624,10.111,0.265
18.153,24.934,20.058,15.567,18.049,11.619,13.391,1.295
15.07,20.46,16.445,16.161,14.343,12.707,10.015,7.275
13.047,17.597,10.86,15.278,8.531,11.591,6.983,10.108
11.971,16.313,7.007,11.518,4.703,6.866,7.873,8.472
12.695,16.921,8.118,10.822,6.679,7.126,13.263,9.369
16.9,21.114,13.116,15.724,13.185,14.951,16.839,15.161
19.727,25.06,16.027,18.169,17.155,19.077,10.727,18.347
16.141,22.624,15.192,13.782,16.344,13.515,3.494,16.043
12.108,16.933,16.221,10.205,17.143,7.957,7.19,14.035
14.153,15.82,20.151,12.351,21.356,9.816,16.294,13.341
16.879,18.184,19.771,14.454,20.741,13.442,20.455,11.245
14.204,18.085,12.96,12.729,12.321,12.844,17.796,10.744
10.567,16.298,7.073,11.398,5.034,10.069,11.759,14.658
11.123,16.525,6.509,12.286,4.906,8.711,8.53,17.992
12.492,17.144,6.712,11.078,6.471,8.081,9.759,15.655
10.987,15.399,3.866,7.401,4.3,6.859,11.268,12.165
10.614,14.442,3.073,7.423,4.072,7.891,15.819,14.158
14.936,18.221,9.343,12.534,12.405,13.016,27.128,18.833
18.601,22.865,15.415,15.787,21.681,17.454,31.578,19.951
15.629,21.686,11.747,13.14,20.16,16.524,18.448,18.199
9.586,15.879,3.393,9.404,10.905,13.415,4.817,18.242
7.193,11.802,0.41,9.459,4.416,13.376,4.74,20.649
8.336,11.078,1.218,10.45,2.054,13.662,7.099,19.774
8.724,10.836,0.064,7.869,-0.725,8.537,5.221,11.637
7.635,10.602,-0.894,4.531,-2.945,2.339,5.977,3.478
8.65,12.812,3.373,5.645,0.912,3.103,10.574,4.593
13.264,17.273,10.684,8.857,9.409,6.866,15.104,9.967
18.119,20.828,14.247,8.828,14.196,5.87,17.695,9.727
20.12,22.226,12.552,6.565,12.998,3.149,16.098,7.179
20.581,22.617,10.041,6.375,10.902,4.903,9.502,10.258
22.307,22.941,10.256,8.583,11.366,9.399,2.752,15.475
24.843,23.71,12.936,10.493,14.35,12.201,2.294,15.566
25.771,25.375,16.304,11.808,18.417,14.414,8.528,12.824
23.856,26.477,18.01,13.199,20.084,17.727,14.266,11.638
20.059,24.908,16.808,13.475,17.929,19.135,13.713,10.315
17.796,22.405,15.025,13.166,16.15,17.01,9.835,8.497
17.966,21.624,13.432,13.845,15.607,14.249,6.292,8.718
16.349,20.778,9.843,14.495,12.151,13.893,3.325,9.971
10.755,16.831,5.854,13.295,7.007,13.943,3.913,9.737
4.382,10.74,4.393,9.715,4.521,8.951,9.222,8.507
0.975,6.325,4.629,5.869,5.185,1.78,14.143,8.01
1.381,5.322,5.276,5.629,7.759,2.339,15.137,9.621
3.344,5.62,5.484,8.196,9.975,8.44,13.428,12.716
3.793,4.67,3.632,8.216,8.701,8.738,11.409,13.131
2.856,3.501,1.624,6.393,5.567,5.407,11.911,10.983
3.164,5.028,4.01,8.969,6.042,8.869,15.785,12.885
4.243,7.828,8.494,13.87,8.465,15.241,18.113,16.741
2.974,7.574,7.899,13.019,5.468,13.458,13.832,13.261
-0.13,5.533,3.746,8.88,-0.667,7.471,6.033,6.901
-1.992,5.949,3.569,9.76,-0.958,8.464,1.017,7.7
-2.599,6.369,6.028,11.781,2.676,12.168,-0.244,9.923
-3.269,2.608,4.512,6.257,1.826,6.841,0.036,5.623
-3.37,-1.687,0.899,-1.561,-1.447,-2.897,2.801,2.246
-3.452,-1.714,1.329,-1.438,0.521,-3.471,9.697,6.461
-6.008,0.914,3.791,3.754,5.214,4.171,14.978,9.862
-9.929,3.853,2.45,5.594,4.685,9.071,12.81,5.883
-10.186,7.454,-1.104,4.163,0.55,8.719,8.045,2.386
-5.227,10.921,-2.245,3.783,-1.226,7.942,5.341,5.939
0.698,12.341,-2.367,4.248,-2.819,7.414,1.578,9.815
4.436,12.504,-4.181,3.056,-7.341,4.904,-3.431,7.589
7.083,13.456,-5.62,1.113,-10.236,2.154,-5.311,3.597
8.709,13.781,-4.787,0.2,-8.676,0.567,-5.143,1.056
7.992,11.788,-2.749,-0.043,-6.048,-1.241,-6.901,-1.911
6.902,10.632,0.871,1.758,-2.567,-0.726,-6.617,-1.93
7.689,12.923,6.168,6.845,3.87,4.896,0.764,3.45
8.514,16.034,9.479,11.243,9.715,10.362,7.781,6.484
7.785,17.27,9.634,11.92,11.662,9.72,6.103,2.952
6.945,16.162,10.406,11.045,12.98,5.412,2.184,-0.354
6.48,12.003,11.299,8.852,14.217,1.538,2.665,-0.982
4.32,5.428,6.715,3.147,9.245,-2.71,1.753,-3.235
-0.87,-0.313,-1.506,-3.102,-0.23,-6.977,-2.254,-4.941
-6.621,-2.422,-4.504,-4.443,-3.68,-7.644,-1.283,-1.921
-9.216,-1.563,-2.295,-2.238,-2.085,-4.996,3.969,1.044
-8.393,-0.381,-1.738,-1.425,-4.012,-2.273,4.498,0.296
-6.013,0.527,-1.162,-0.678,-5.084,1.551,1.822,1.156
-4.108,0.797,3.362,2.646,0.775,6.276,3.469,3.317
-6.134,-2.892,5.822,3.521,5.135,4.252,5.108,-1.145
-12.959,-11.525,0.795,-2.127,0.979,-5.985,-2.604,-9.822
-18.652,-19.516,-5.459,-8.348,-4.27,-13.348,-15.381,-12.788
-17.831,-20.867,-5.269,-8.281,-3.169,-11.754,-19.66,-9.125
-14.352,-16.974,-1.659,-4.25,-0.439,-6.861,-13.557,-5.358
-15.08,-14.494,-2.058,-3.289,-3.028,-4.788,-9.875,-5.586
-17.889,-15.239,-5.297,-5.511,-7.234,-5.101,-13.731,-6.241
-15.638,-14.323,-4.508,-3.703,-5.71,-3.275,-14.149,-0.818
-9.23,-9.832,-0.149,2.72,-1.323,0.438,-5.893,6.273
-5.906,-6.052,0.927,4.331,-1.451,-0.68,0.808,1.468
-8.365,-5.731,-3.286,-3.355,-5.673,-8.515,-1.793,-15.976
-12.015,-5.489,-6.992,-11.476,-7.49,-14.632,-5.582,-27.01
-11.028,-1.897,-4.866,-10.41,-3.354,-11.903,-0.046,-20.777
-6.247,1.203,-1.51,-4.521,0.679,-5.471,5.134,-12.238
-2.986,-0.926,-4.168,-3.189,-2.771,-3.403,-4.038,-12.628
-1.449,-3.677,-8.187,-4.044,-8.04,-3.46,-13.879,-11.044
1.071,-0.505,-5.186,-0.22,-5.586,0.352,-5.862,-2.08
2.659,5.246,1.843,4.786,2.323,4.542,6.709,1.763
0.724,6.413,4.258,3.842,6.72,1.547,2.905,-4.597
-2.857,3.214,-0.422,-0.312,2.666,-4.632,-8.773,-8.608
-4.742,1.351,-6.867,0.186,-5.427,-3.273,-9.972,-2.395
-4.163,2.864,-9.021,5.296,-8.28,4.773,-4.722,4.781
-3.29,3.983,-7.943,8.222,-5.938,9.342,-3.617,4.075
-4.371,1.947,-7.89,6.226,-5.915,7.256,-2.987,0.396
-7.056,-1.281,-7.999,2.292,-7.801,3.417,0.34,-0.454
-8.96,-3.342,-5.592,-0.764,-6.416,1.224,1.578,-1.45
-8.651,-4.916,-2.096,-2.374,-3.518,-0.185,3.293,-4.825
-7.261,-7.504,0.555,-3.462,-2.056,-2.908,12.011,-7.693
-6.67,-10.699,2.71,-4.85,0.436,-6.168,16.437,-7.571
-7.758,-13.386,2.907,-5.526,3.212,-6.285,1.09,-3.825
-10.437,-15.407,-1.303,-4.734,0.281,-3.457,-19.916,1.047
-13.756,-16.724,-8.466,-4.971,-8.308,-3.536,-24.453,0.586
-16.228,-16.832,-14.262,-8.602,-14.985,-9.06,-18.255,-6.977
-16.297,-15.763,-15.531,-12.741,-15.548,-14.329,-13.159,-13.809
-13.59,-14.754,-12.467,-13.111,-12.661,-13.899,-6.485,-13.419
-10.393,-14.551,-7.698,-10.249,-9.067,-9.384,1.059,-8.311
-9.268,-14.102,-3.613,-6.83,-5.039,-4.288,1.57,-3.219
-10.355,-13.238,-2.297,-5.003,-2.461,-1.454,-4.69,-0.724
-12.236,-13.324,-4.466,-7.115,-3.44,-4.427,-9.324,-3.02
-11.804,-13.625,-5.747,-10.731,-4.302,-9.904,-6.857,-8.013
-7.242,-12.898,-1.934,-9.528,-0.882,-8.351,-1.144,-8.466
-3.388,-12.915,2.405,-4.865,2.214,-1.535,-1.391,-3.155
-5.752,-14.764,1.345,-4.162,-0.357,-1.474,-6.898,0.222
-11.309,-16.551,-1.929,-8.185,-3.75,-9.276,-6.13,-3.089
-13.786,-17.16,-2.385,-11.771,-2.118,-15.196,1.141,-8.778
-13.133,-17.724,-2.207,-12.618,-0.169,-15.288,2.415,-10.207
-12.911,-18.529,-4.216,-11.845,-3.482,-12.859,-2.934,-7.453
-13.501,-17.503,-5.099,-10.379,-6.639,-10.219,-2.854,-6.434
-13.709,-14.482,-1.759,-8.773,-3.072,-7.725,5.096,-9.608
-15.192,-13.108,1.19,-8.42,1.331,-6.765,8.741,-13.178
-19.8,-15.122,-3.362,-10.415,-3.74,-8.773,-2.096,-13.681
-24.06,-17.347,-12.224,-12.807,-14.583,-11.761,-19.331,-11.81
-22.85,-16.021,-14.742,-12.016,-18.313,-11.68,-25.161,-8.976
-18.673,-12.102,-9.879,-8.042,-14.247,-7.867,-15.947,-5.068
-18.15,-10.766,-5.444,-4.869,-10.807,-4.203,-2.098,-2.544
-20.735,-14.239,-4.646,-6.072,-9.506,-4.841,4.835,-6.256
-21.758,-18.883,-6.785,-11.153,-9.12,-8.921,-3.436,-14.02
-21.265,-21.179,-10.976,-15.135,-11.28,-11.057,-20.124,-16.441
-20.834,-21.368,-13.312,-14.1,-13.828,-9.3,-25.187,-10.832
-19.515,-20.481,-10.78,-10.548,-12.3,-7.991,-13.395,-5.667
-16.748,-18.321,-6.248,-8.917,-7.735,-9.875,-1.073,-6.87
-13.592,-15.687,-3.606,-9.155,-4.887,-11.484,0.616,-9.341
-11.147,-14.669,-3.475,-9.327,-5.699,-10.085,-2.868,-8.146
-9.295,-14.403,-4.779,-9.49,-7.869,-8.165,-8.315,-5.123
-7.086,-11.808,-5.784,-9.437,-8.325,-7.19,-17.042,-1.428
-4.802,-8.096,-5.18,-8.887,-6.546,-6.616,-20.497,-0.155
-4.209,-7.808,-4.471,-10.258,-4.88,-8.838,-13.891,-7.773
-6.401,-11.371,-6.436,-14.43,-6.329,-14.353,-9.197,-19.384
-9.851,-14.824,-9.922,-17.417,-9.97,-18.168,-13.563,-22.027
-11.678,-15.896,-10.614,-16.791,-10.733,-18.085,-17.663,-16.559
-11.616,-15.764,-8.328,-15.921,-7.565,-17.936,-15.535,-14.997
-11.668,-15.664,-7.388,-18.103,-5.669,-19.941,-13.677,-19.486
-12.577,-16.049,-9.689,-21.874,-7.885,-22.1,-17.338,-22.723
-13.774,-17.997,-12.894,-24.152,-11.107,-23.112,-22.878,-22.323
-14.367,-21.009,-13.664,-22.761,-11.47,-22.163,-22.807,-18.737
-13.91,-22.529,-10.175,-17.054,-8.052,-17.036,-14.522,-10.605
-13.881,-22.663,-4.508,-11.053,-3.103,-9.819,-4.63,-3.339
-16.304,-24.345,-2.818,-11.847,-1.948,-8.768,-2.463,-7.219
-19.985,-27.42,-8.04,-19.811,-7.738,-16.531,-10.334,-20.223
-21.206,-27.952,-13.74,-25.852,-14.026,-23.403,-19.938,-27.966
-19.46,-24.533,-12.375,-23.643,-11.586,-21.585,-19.687,-24.173
-18.672,-21.155,-6.191,-17.594,-2.8,-16.339,-8.94,-16.275
-21.182,-22.105,-2.463,-13.801,1.886,-13.803,1.313,-11.459
-24.862,-26.217,-3.257,-11.988,-0.97,-11.878,3.18,-9.995
-27.487,-28.807,-6.257,-10.97,-7.078,-9.965,-1.845,-10.201
-28.479,-27.315,-9.262,-11.699,-12.76,-10.965,-8.707,-10.121
-27.068,-23.347,-10.994,-12.258,-16.962,-11.972,-14.255,-6.467
-24.357,-21.998,-12.428,-11.488,-19.822,-9.914,-18.268,-2.191
-22.786,-26.122,-14.897,-13.737,-20.947,-10.16,-20.156,-5.783
-22.231,-30.587,-16.621,-19.463,-19.686,-15.527,-19.574,-14.784
-22.179,-30.392,-16.303,-22.911,-17.595,-20.288,-18.988,-19.382
-23.182,-28.673,-16.162,-22.912,-17.215,-21.463,-19.3,-19.233
-23.372,-27.558,-17.019,-21.679,-18.44,-20.725,-18.615,-17.566
-20.564,-23.631,-16.253,-18.491,-18.492,-17.899,-16.444,-13.22
-16.598,-17.989,-13.329,-14.48,-15.763,-14.112,-14.221,-7.526
-13.807,-15.95,-10.774,-13.762,-11.801,-13.706,-11.494,-5.365
-11.32,-16.493,-9.188,-16.444,-8.802,-17.057,-6.156,-8.502
-8.57,-15.188,-8.625,-18.839,-8.885,-19.448,-2.794,-12.627
-7.163,-13.215,-11.264,-19.557,-13.607,-18.494,-8.192,-12.975
-7.6,-13.566,-15.862,-20.205,-19.401,-17.079,-15.276,-12.432
-8.789,-15.361,-17.423,-21.59,-20.332,-18.254,-12.565,-15.309
-9.749,-16.658,-14.99,-21.654,-16.184,-19.631,-5.207,-16.928
-10.249,-16.779,-12.329,-18.588,-11.466,-17.444,-4.239,-12.635
-11.416,-16.096,-12.228,-15.127,-10.28,-14.345,-4.941,-8.544
-13.796,-16.291,-14.095,-15.967,-13.377,-15.612,-0.325,-11.359
-16.391,-19,-17.059,-21.513,-18.535,-20.919,-2.53,-16.913
-18.429,-22.69,-21.006,-26.528,-23.067,-24.862,-18.886,-17.818
-18.536,-22.94,-22.858,-26.398,-23.441,-24.016,-30.112,-15.108
-15.993,-18.436,-19.543,-22.799,-18.11,-20.333,-23.255,-12.828
-13.666,-13.381,-14.121,-19.788,-11.706,-16.511,-11.901,-10.146
-13.975,-11.901,-11.979,-19.844,-9.617,-14.905,-8.252,-8.641
-15.293,-13.77,-13.946,-23.43,-11.995,-18.348,-8.338,-12.467
-15.9,-16.162,-16.697,-26.484,-15.679,-23.508,-7.047,-17.207
-16.426,-17.187,-17.741,-24.474,-17.54,-23.082,-6.519,-15.132
-16.568,-16.68,-17.723,-19.016,-17.127,-17.136,-8.623,-7.757
-14.032,-14.439,-17.964,-13.716,-16.943,-10.647,-9.494,-2.282
-8.378,-10.321,-17.918,-9.438,-17.688,-5.595,-5.827,-2.538
-2.228,-6.476,-16.18,-7.838,-16.347,-4.026,-1.483,-8.167
0.995,-6.756,-14.912,-11.497,-14.092,-8.647,-4.371,-16.267
-1.571,-12.157,-19.428,-18.239,-18.399,-16.619,-17.237,-22.749
-9.203,-18.128,-27.323,-22.049,-27.568,-21.373,-28.99,-24.657
-16.608,-19.476,-28.548,-20.523,-29.033,-19.736,-26.157,-21.09
-20.342,-17.312,-22.333,-17.7,-21.09,-14.723,-16.156,-15.685
-21.678,-16.774,-17.39,-18.628,-14.3,-12.763,-15.889,-15.019
-20.869,-18.465,-16.047,-22.035,-12.842,-15.433,-22.644,-18.705
-16.231,-17.856,-14.484,-22.173,-12.864,-17.598,-21.055,-19.626
-10.261,-13.817,-13.296,-18.906,-12.745,-17.313,-10.07,-17.084
-9.185,-11.853,-16.694,-18.477,-15.797,-19.002,-4.954,-17.09
-14.135,-15.915,-24.316,-22.152,-23.76,-23.464,-14.493,-19.074
-18.731,-21.68,-29.725,-23.756,-30.511,-24.379,-26.831,-18.15
-18.723,-23.487,-28.56,-21.051,-29.372,-19.534,-26.403,-17.083
-16.712,-21.91,-23.011,-18.238,-22.672,-14.893,-16.272,-18.555
-14.744,-18.846,-15.92,-16.771,-15.517,-14.146,-8.387,-16.285
-11.846,-14.23,-8.635,-15.081,-9.244,-14.977,-5.525,-8.67
-9,-10.402,-4.318,-14.145,-5.308,-15.23,-4.872,-5.113
-8.645,-11.107,-5.536,-16.426,-5.827,-16.959,-6.325,-11.125
-10.812,-15.975,-10.38,-21.822,-9.73,-22.735,-11.493,-19.773
-12.686,-20.246,-13.6,-25.345,-12.87,-27.557,-16.419,-21.085
-10.847,-19.053,-10.64,-21.624,-11.099,-24.031,-12.17,-15.182
-5.139,-12.16,-3.135,-13.056,-4.974,-15.464,-0.878,-9.446
-0.386,-5.571,0.837,-6.976,-1.289,-9.758,2.459,-5.794
-0.873,-4.919,-2.548,-5.678,-3.691,-6.946,-5.679,-1.756
-4.163,-7.686,-7.141,-5.693,-6.728,-4.266,-10.918,1.34
-4.981,-7.511,-6.726,-4.223,-5.476,-2.55,-4.264,1.451
-2.961,-3.75,-2.646,-1.581,-1.879,-1.906,7.865,1.356
-1.416,-0.861,0.533,0.699,0.449,-0.756,15.922,3.05
-0.388,-0.378,0.781,1.928,0.368,0.583,14.644,3.075
3.752,0.906,-0.443,3.031,-1.152,1.389,4.283,0.51
10.51,4.003,-1.188,4.777,-2.966,2.608,-6.339,-0.143
13.137,4.957,-1.483,6.047,-4.335,4.369,-8.962,2.792
8.406,1.769,-1.435,5.952,-4.016,5.408,-5.647,6.309
0.86,-3.008,0.194,4.65,-1.413,4.665,1.123,5.904
-5.136,-7.271,2.569,1.033,1.557,1.137,7.388,-1.133
-9.036,-9.851,2.209,-4.366,2.227,-3.614,1.184,-10.055
-10.605,-9.335,-0.292,-6.517,1.487,-4.797,-13.39,-12.396
-9.231,-6.861,0.132,-3.095,2.495,-1.841,-16.107,-7.834
-5.506,-4.963,3.79,1.64,4.678,1.043,-8.244,-2.591
-1.555,-3.66,5.43,4.072,4.696,3.176,-4.642,1.301
0.535,-2.354,2.914,4.145,2.047,5.256,-2.465,4.046
2.022,-1.472,0.4,2.512,0.501,4.626,6.203,3.325
5.745,-0.389,1.88,0.741,3.114,1.349,13.934,0.276
9.58,0.989,4.652,0.533,6.659,-0.625,9.432,-0.074
9.254,1.295,4.94,2.122,7.227,0.518,-0.809,3.478
5.942,0.699,4.994,5.036,7.543,4.462,0.354,7.684
2.826,-0.08,6.535,7.361,10.185,9.123,10.462,8.482
0.173,-1.636,6.573,6.819,11.998,10.233,10.986,4.564
-1.745,-3.546,4.978,5.007,11.488,7.284,1.821,0.625
-2.277,-4.536,5.101,5.471,11.536,5.528,-0.424,2.612
-2.639,-5.041,6.613,7.598,12.722,7.62,6.621,9.562
-3.933,-5.983,6.24,6.601,12.448,8.534,10.783,12.315
-5.193,-6.654,3.193,0.012,9.868,3.37,7.339,3.21
-4.855,-5.849,-0.116,-7.31,6.94,-3.672,1.453,-9.595
-3.039,-4.641,-1.513,-9.044,5.087,-5.912,-2.27,-11.837
-1.463,-5.217,-1.078,-6.271,4.338,-4.114,-1.893,-6.006
-1.076,-6.299,0.3,-3.342,5.112,-1.695,3.001,-1.832
-1.481,-5.6,1.129,-0.97,5.72,0.348,8.396,1.796
-1.681,-4.394,0.207,1.442,3.632,1.545,7.894,7.329
-0.803,-3.932,0.028,3.224,2.585,2.228,4.699,9.541
0.013,-3.857,2.779,3.162,6.486,2.421,5.901,4.587
-1.149,-4.653,4.203,1.19,8.985,1.121,2.596,-2.073
-3.455,-5.99,0.822,-0.241,3.606,-0.381,-11.552,-2.789
-4.901,-6.496,-3.75,-0.316,-4.865,-0.639,-19.579,-0.248
-5.163,-6.372,-6.599,-2.449,-9.727,-2.532,-13.301,-2.786
-4.465,-6.305,-8.386,-6.693,-10.196,-7.272,-7.515,-9.454
-3.403,-6.176,-8.448,-8.127,-7.595,-9.947,-8.211,-12.386
-3.832,-6.879,-7.224,-6.202,-4.99,-7.815,-8.47,-9.311
-6.424,-9.087,-7.2,-4.096,-5.743,-3.36,-8.288,-3.234
-8.643,-10.102,-7.151,-1.833,-7.156,1.201,-8.811,1.992
-7.98,-7.83,-4.939,-0.047,-4.943,2.851,-5.324,1.107
-5.002,-5.003,-3.385,-1.171,-2.334,-0.722,1.216,-5.288
-1.319,-3.8,-4.778,-3.288,-3.779,-4.72,4.327,-9.463
1.391,-2.848,-7.256,-3.902,-7.292,-4.294,1.845,-10.644
0.223,-2.435,-10.116,-4.503,-10.776,-2.092,-4.551,-12.8
-5.365,-4.865,-13.672,-5.363,-14.593,-1.024,-10.566,-13.213
-10.14,-8.743,-15.107,-5.359,-15.786,-1.177,-9.619,-9.956
-8.598,-8.824,-12.106,-5.465,-11.491,-3.076,-1.193,-6.98
-2.524,-3.457,-8.336,-5.822,-6.412,-4.808,4.36,-5.394
1.562,1.937,-8.43,-4.491,-6.68,-2.477,-0.49,-2.194
1.146,2.206,-9.72,-1.136,-9.451,2.823,-6.83,3.425
-1.672,-1.222,-7.496,1.856,-8.175,5.811,-4.852,8.341
-6.007,-4.727,-4.852,1.552,-4.416,4.069,-1.86,7.4
-11.571,-7.707,-6.932,-2.93,-4.115,-1.005,-3.861,-0.962
-15.056,-10.632,-10.839,-8.593,-6.477,-6.811,-0.547,-9.451
-13.988,-12.849,-12.198,-11.549,-7.847,-10.784,8.099,-10.298
-11.017,-13.843,-14.013,-12.532,-10.165,-12.341,4.276,-7.081
-10.081,-14.011,-18.827,-14.498,-14.656,-12.502,-11.205,-7.676
-12.718,-15.091,-22.667,-17.194,-17.053,-12.466,-19.333,-11.297
-18.086,-18.98,-23.141,-19.024,-16.145,-14.143,-17.443,-12.961
-22.261,-23.511,-22.112,-18.988,-15.58,-16.818,-14.401,-12.529
-21.523,-23.946,-20.101,-16.371,-15.724,-16.324,-11.264,-10.761
-17.443,-20.079,-16.979,-12.794,-14.294,-12.339,-5.485,-5.782
-13.656,-15.544,-14.874,-10.164,-12.5,-8.464,1.983,1.509
-10.863,-11.716,-15.936,-7.957,-13.09,-6.313,5.511,4.557
-8.914,-8.303,-20.835,-7.666,-17.751,-7.259,-1.39,-2.691
-7.678,-6.173,-27.072,-11.051,-25.395,-11.004,-15.266,-13.903
-5.202,-5.237,-27.803,-13.202,-28.479,-11.299,-22.07,-14.94
-2.146,-4.274,-20.957,-10.058,-21.955,-5.401,-15.093,-6.604
-3.395,-3.8,-14.854,-6.739,-13.608,-0.657,-4.483,-2.491
-9.744,-5.01,-16.742,-8.986,-13.333,-3.487,-3.428,-6.924
-15.582,-7.36,-23.549,-14.937,-19.403,-10.551,-11.423,-14.096
-16.396,-8.993,-27.651,-18.736,-23.238,-13.528,-16.529,-17.816
-12.858,-9.328,-26.816,-18.207,-22.221,-10.276,-14.32,-16.168
-8.592,-9.946,-24.6,-16.967,-20.148,-7.977,-12.387,-13.279
-6.115,-11.027,-22.359,-17.555,-17.814,-11.159,-13.384,-12.534
-4.424,-9.912,-18.034,-17.273,-13.103,-14.352,-11.213,-11.501
-2.026,-6.041,-12.01,-13.816,-7.545,-12.356,-5.107,-7.578
-0.716,-3.683,-7.58,-9.351,-4.937,-7.897,-2.625,-1.206
-1.824,-6.082,-6.943,-6.436,-6.829,-4.723,-6.134,5.331
-3.757,-10.61,-9.637,-4.998,-11.774,-3.071,-7.37,6.629
-6.649,-13.464,-13.447,-5.018,-16.369,-3.608,-1.955,-1.045
-10.736,-14.152,-16.251,-6.781,-18.06,-6.719,1.577,-10.909
-11.208,-12.336,-16.356,-8.067,-16.161,-8.975,-2.961,-13.376
-4.788,-7.023,-12.581,-6.288,-10.792,-6.449,-7.761,-10.486
2.127,-1.454,-7.544,-3.03,-5.853,-1.264,-5.506,-8.536
1.55,-0.74,-5.328,-1.743,-5.656,0.279,-0.277,-5.784
-4.106,-4.032,-4.627,-2.044,-6.566,-2.257,2.423,-1.147
-7.796,-7.01,-4.037,-2.054,-5.77,-4.296,0.596,-1.267
-9.377,-8.768,-7.427,-3.261,-8.825,-5.476,-8.096,-8.321
-11.657,-9.858,-13.987,-6.342,-14.918,-6.675,-19.79,-12.985
-13.098,-9.187,-16.319,-7.686,-14.705,-5.303,-22.529,-8.785
-11.792,-6.803,-13.604,-5.944,-9.299,-2.085,-14.551,-4.048
-9.074,-4.686,-11.165,-4.638,-7.836,-2.114,-6.535,-6.744
-6.194,-2.786,-8.684,-4.516,-8.718,-4.645,-1.882,-9.159
-3.397,0.439,-4.087,-2.708,-5.699,-3.981,0.698,-4.491
-1.911,2.488,-2.086,-0.775,-3.081,-1.281,-3.791,-2.122
-2.307,-0.764,-5.444,-2.405,-5.865,-2.041,-13.283,-8.848
-2.179,-5.923,-7.294,-3.911,-7.682,-3.943,-13.845,-13.348
0.692,-4.578,-2.039,0.589,-2.212,-0.521,-2.633,-5.946
3.491,2.824,5.129,6.994,5.174,5.826,5.158,3.693
2.549,7.106,7.176,7.795,6.672,7.709,0.959,4.08
0.766,5.536,6.152,5.267,4.645,5.355,-6.024,0.002
1.931,3.136,7.892,4.586,6.854,3.108,-5.512,-0.635
3.075,1.754,11.687,3.597,13.003,0.791,1.516,-0.735
1.132,-0.163,11.859,0.021,14.201,-2.516,6.222,-2.839
-1.289,-2.574,7.21,-2.409,7.696,-3.98,1.896,-1.489
-2.466,-5.433,2.202,-2.48,1.422,-3.043,-8.588,1.884
-4.782,-9.343,-0.505,-4.778,0.16,-4.657,-14.359,-2.959
-8.396,-12.951,-1.018,-9.16,1.202,-9.61,-8.249,-12.743
-9.868,-14.411,0.584,-9.387,2.503,-11.007,0.255,-12.85
-7.411,-13.22,2.902,-4.105,3.963,-6.003,-1.792,-4.808
-3.204,-9.638,4.059,1.004,5.527,-0.964,-8.009,-3.814
-1.388,-6.039,2.096,1.313,4.453,-1.517,-9.737,-11.6
-2.688,-5.202,-4.452,-1.583,-3.599,-5.187,-13.107,-16.004
-2.633,-5.39,-9.975,-2.842,-12.058,-6.058,-16.558,-12.751
0.85,-3.124,-6.808,-0.626,-9.1,-2.284,-8.082,-7.597
2.879,0.255,-0.167,2.412,-0.768,2.234,6.089,-3.681
-0.029,1.149,-0.886,3.27,-1.214,2.914,4.599,-1.186
-2.935,0.07,-6.72,2.18,-7.099,0.533,-12.511,-1.698
-0.799,-0.549,-7.726,1.216,-6.285,-0.514,-20.738,-4.836
2.149,-1.615,-4.478,0.793,-0.245,1.055,-11.833,-6.884
-0.705,-4.554,-5.789,-0.209,-0.324,2.318,-3.805,-6.054
-7.37,-6.303,-11.396,-1.399,-7.489,0.844,-4.029,-4.133
-10.207,-3.227,-11.926,-1.086,-10.234,-1.622,0.632,-2.481
-6.335,2.324,-6.352,0.457,-4.661,-1.498,9.323,-0.643
0.225,5.122,-4.849,0.92,-2.187,0.423,1.577,0.719
4.67,4.336,-11.477,-0.768,-9.842,-0.492,-20.734,-0.296
5.784,3.185,-17.326,-2.804,-17.463,-4.48,-29.958,-2.125
5.522,3.867,-14.887,-2.747,-14.14,-6.298,-19.623,-1.887
5.883,6.151,-7.877,-0.723,-4.223,-3.967,-8.22,-1.22
6.451,9.441,-3.501,1.357,1.261,-0.913,-3.093,-0.519
6.29,13.406,-2.813,2.979,0.119,1.286,2.496,3.985
6.611,17.189,-1.973,5.093,-0.873,5.016,9.43,10.673
9.187,19.556,-0.11,6.696,1.236,9.266,10.443,11.844
12.836,19.279,-0.411,4.346,1.364,7.306,4.733,5.131
14.31,16.698,-2.973,-1.52,-2.911,-1.398,2.582,-2.288
13.235,14.244,-4.717,-5.275,-7.408,-7.361,5.733,-3.696
12.267,13.1,-5.658,-4.958,-9.476,-6.574,2.202,-1.572
12.571,12.695,-6.233,-3.359,-9.338,-4.437,-6.113,-0.73
13.604,13.531,-3.49,-0.095,-6.021,-2.367,-3.734,0.756
15.053,16.073,1.996,6.203,-1.069,2.494,4.26,5.749
15.792,18.551,4.113,11.579,-0.197,7.894,0.968,10.029
14.996,19.282,2.192,12.427,-3.372,10.089,-7.523,9.042
14.071,19.132,2.763,11.678,-2.975,10.469,-6.617,6.342
13.793,19.479,7.092,13.266,2.485,11.63,0.123,7.071
13.544,19.985,10.284,15.966,6.968,13.078,5.357,9.323
13.697,19.562,11.767,16.004,9.563,12.88,10.878,8.523
13.846,17.528,13.945,13.002,13.053,10.891,15.817,4.96
11.957,13.48,14.289,10.04,13.923,9.203,13.299,2.444
8.865,8.831,9.477,8.71,8.004,8.876,2.836,2.63
8.569,7.543,4.303,8.884,1.605,9.295,-4.142,4.435
11.87,11.17,6.129,11.162,3.396,10.733,1.853,7.478
16.054,16.516,13.183,15.39,10.137,14.218,15.891,11.416
19.669,20.58,17.885,19.521,12.998,19.311,25.862,13.519
21.164,22.399,17.234,21.051,11.024,22.629,22.818,12.225
19.161,21.88,13.926,19.297,9.157,20.743,8.969,9.543
17.295,21.284,11.886,16.802,9.79,16.008,-1.239,7.429
19.586,23.127,12.724,16.207,11.487,14.047,0.89,7.298
22.783,25.105,13.758,15.853,11.438,14.11,5.753,8.85
21.382,22.607,10.474,11.969,7.2,9.931,0.016,7.676
16.503,16.135,4.101,5.747,0.414,2.215,-10.499,2.994
14.059,10.97,1.756,3.194,-2.594,-0.212,-9.484,0.487
16.132,9.727,4.68,5.482,0.792,4.874,-1.775,1.347
18.63,9.672,6.047,6.622,5.089,8.612,-3.734,1.239
17.8,8.104,3.739,3.598,5.364,5.152,-8.808,-0.529
14.784,7.055,3.212,1.168,4.187,0.63,-1.802,-1.143
11.863,8.928,5.245,3.376,4.613,2.131,6.662,1.126
9.268,10.898,3.831,6.397,3.451,5.476,-0.727,4.453
8.031,9.885,-1.22,4.395,-0.73,3.121,-13.598,2.567
10.342,8.085,-2.344,-0.873,-1.343,-2.615,-13.158,-5.61
14.878,8.276,3.801,-2.221,6.473,-3.764,-0.834,-9.72
16.61,9.653,11.141,1.629,16.023,0.682,9.079,-4.885
13.739,10.559,12.168,4.492,16.72,4.546,6.236,-0.744
10.312,10.524,7.662,3.395,9.033,4.474,-2.985,-2.428
9.863,10.134,4.576,1.696,2.701,2.988,-2.705,-4.442
12.42,11.465,5.926,2.118,2.445,2.692,4.91,-5.211
16.634,15.314,8.886,4.27,5.339,3.267,4.761,-5.981
19.318,17.45,10.625,6.899,8.264,4.239,-1.595,-4.082
17.618,14.151,10.557,8.963,9.831,6.442,-3.051,-0.121
13.502,9.385,9.81,10.04,9.895,9.146,0.411,0.716
11.067,8.387,11.02,10.248,11.143,9.555,4.85,-1.76
10.21,8.737,13.525,8.461,13.745,5.786,8.532,-3.246
7.044,5.22,11.038,2.888,10.747,-1.24,7.533,-3.302
1.039,-1.123,2.495,-3.886,0.369,-6.915,1.107,-3.706
-2.366,-4.479,-2.551,-5.403,-6.115,-5.813,-4.448,-3.494
0.507,-2.73,1.901,0.423,-1.315,2.334,-4.083,-1.518
5.514,-0.498,9.408,7.675,6.694,10.18,-0.2,0.21
7.46,-1.585,12.583,9.645,9.007,9.823,3.062,-0.934
7.741,-2.255,12.868,8.063,7.895,4.876,5.859,-2.528
8.91,1.491,13.585,8.849,7.732,5.067,7.727,0.08
9.275,5.792,12.91,11.216,6.859,9.093,4.699,5.087
8.038,6.176,9.814,11.386,4.472,9.524,-1.296,7.398
7.916,6.105,9.244,11.686,5.915,8.458,-1.543,7.752
10.315,10.226,14.864,15.707,14.853,11.899,5.307,10.205
12.321,14.599,21.345,19.895,24.956,16.706,12.658,12.927
10.677,12.845,20.403,18.182,25.517,15.882,16.364,9.977
6.844,7.124,12.371,11.849,15.299,10.066,13.407,2.732
4.416,3.848,5.895,8.037,5.284,5.462,4.236,-0.558
4.217,4.423,6.593,10.34,4.322,5.831,-0.756,4.477
5.024,6.161,10.794,15.341,8.388,9.862,5.124,13.235
5.686,7.269,12.396,17.302,9.929,13.05,12.753,15.953
6.041,8.19,11.992,14.84,10.453,12.576,11.792,10.255
7.105,9.573,13.68,11.697,14.633,9.998,5.751,3.347
8.854,10.487,16.342,10.866,18.401,7.983,4.673,0.423
9.795,10.039,16.885,12.453,16.248,8.084,9.612,3.215
8.935,9.065,16.912,15.322,12.692,10.313,13.502,9.866
6.664,9.181,19.273,17.761,14.651,12.824,17.099,13.24
5.95,11.727,24.359,20.462,22.122,16.034,27.038,11.925
8.304,15.387,27.904,23.676,27.641,20.364,33.715,10.741
8.719,15.757,22.199,21.742,21.477,19.429,19.399,8.874
4.339,11.861,9.316,12.789,6.548,9.927,-4.495,4.885
1.655,8.659,2.794,6.018,-1.425,1.417,-7.382,3.393
5.834,9.63,8.156,9.068,3.447,3.471,11.695,7.396
12.007,12.338,16.751,18.017,11.796,12.522,26.887,13.955
13.461,13.562,20.526,24.183,16.256,18.773,26.869,17.603
11.52,14.295,20.245,24.594,17.956,19.534,21.288,16.407
11.03,16.037,18.34,21.86,17.683,18.256,18.206,13.302
11.5,17.105,14.157,18.008,13.503,15.843,15.294,10.062
10.501,17.364,10.12,15.18,8.761,13.192,12.115,7.745
10.038,19.829,12.128,16.548,11.155,14.396,17.067,9.28
12.359,23.932,19.227,20.841,19.597,19.4,30.673,14.295
14.704,24.446,21.7,21.375,21.759,21.519,34.486,16.916
13.202,19.364,13.728,13.745,10.801,15.649,18.469,11.837
9.428,13.887,2.875,3.657,-2.654,6.439,0.023,3.484
9.206,13.685,0.106,0.992,-4.669,2.796,-8.139,1.162
13.689,16.638,4.284,4.582,1.688,3.215,-13.156,2.523
17.121,16.991,7.756,5.965,4.822,0.729,-14.556,0.61
16.329,15.001,10.192,5.327,5.074,-1.498,-4.943,-0.252
14.359,14.521,14.09,7.643,8.33,2.24,8.423,4.362
13.207,15.331,16.537,11.283,11.583,8.529,13.485,8.512
11.64,15.165,15.412,12.557,11.159,12.412,11.265,8.068
10.373,15.256,14.616,12.811,11.794,14.033,8.861,7.749
11.543,17.634,16.577,13.743,16.036,14.139,7.834,9.773
12.8,19.589,16.433,11.806,16.181,10.311,6.625,7.497
10.275,17.61,10.802,5.142,7.383,2.616,5.615,-0.69
7.06,14.11,6.762,1.674,-0.16,-0.203,8.239,-3.448
8.61,13.205,11.587,9.033,4.432,8.669,16.083,6.934
12.899,14.183,19.806,21.361,14.813,21.794,22.49,21.352
14.741,14.832,22.031,26.425,18.663,26.62,20.536,24.656
13.377,14.699,18.003,20.513,15.479,20.32,12.729,14.268
9.98,12.978,12.315,10.535,10.914,10.147,5.605,1.488
5.99,10.53,8.355,5.225,7.811,4.981,3.379,-3.633
4.488,10.732,8.557,6.658,7.803,7.001,4.387,-1.038
6.503,13.287,11.538,10.301,9.797,10.075,4.136,3.688
10.096,14.949,14.501,12.872,12.019,9.984,7.693,7.329
14.004,16,18.083,15.053,16.403,10.225,19.95,9.71
15.972,17.384,19.808,16.127,20.086,12.335,26.085,9.464
12.46,16.658,13.96,13.894,15.152,12.014,12.357,6.215
4.648,12.657,4.214,9.771,4.691,8.369,-6.66,3.304
-1.378,8.502,0.522,7.748,0.05,6.159,-10.949,3.985
-2.134,7.056,3.614,8.51,2.601,7.142,-3.629,6.695
-0.494,6.517,6.899,8.317,5.484,7.091,5.11,6.608
-0.831,4.021,8.739,5.723,7.319,4.28,15.539,3.885
-2.882,1.463,11.499,4.675,11.084,3.589,24.354,4.391
-4.163,0.811,11.885,6.073,12.611,6.487,17.001,7.564
-5.753,-1.512,3.58,3.812,3.626,5.511,-8.025,4.666
-8.565,-5.842,-8.05,-3.452,-9.813,-2.077,-24.693,-4.121
-9.167,-5.676,-9.159,-6.582,-11.175,-6.008,-13.509,-5.402
-6.784,-1.134,0.812,-0.709,0.105,0.213,9.581,6.083
-6.516,-0.575,8.12,5.712,8.641,7.9,18.131,16.749
-11.287,-6.03,4.767,3.928,6.323,7.618,7.088,12.988
-17.462,-11.385,-4.042,-3.78,-1.468,0.488,-8.155,-1.049
-19.708,-13.354,-10.027,-10.22,-6.971,-7.955,-12.454,-12.53
-17.016,-14.17,-11.211,-12.805,-8.358,-13.593,-6.622,-17.162
-13.347,-15.185,-9.906,-12.795,-7.767,-14.292,-0.307,-16.065
-12.246,-14.283,-6.902,-9.613,-6.05,-9.596,3.493,-7.422
-12.169,-10.053,-2.202,-2.506,-2.76,-0.414,6.921,5.037
-9.892,-5.135,1.999,4.025,1.328,8.072,9.077,9.484
-6.127,-3.242,3.902,5.097,4.771,8.629,9.994,3.87
-3.141,-4.012,4.846,3.663,6.735,3.495,12.029,0.125
-0.189,-4.252,6.095,4.841,6.948,2.242,11.019,2.999
3.638,-2.974,7.104,7.398,6.924,5.376,4.449,5.627
5.506,-1.889,8.035,8.084,8.842,5.781,4.167,6.311
2.546,-2.881,9.214,7.147,11.4,3.489,14.339,7.273
-3.552,-5.976,8.284,5.321,10.242,2.475,14.863,5.229
-8.687,-8.502,2.757,1.841,3.405,-0.088,-3.657,-0.95
-9.994,-8.059,-4.042,-2.463,-4.296,-6.664,-19.133,-5.778
-7.537,-6.217,-6.613,-5.765,-6.378,-12.01,-16.83,-6.865
-4.263,-5.676,-6.349,-8.55,-4.964,-12.974,-9.212,-7.987
-2.53,-5.163,-7.694,-10.431,-6.43,-11.935,-6.542,-9.773
-2.157,-2.211,-9.114,-8.33,-8.939,-9.221,-4.544,-7.338
-2.836,1.161,-6.923,-3.714,-6.495,-6.029,-0.246,-2.114
-4.732,0.957,-3.704,-2.669,-1.393,-6.394,-0.821,-2.187
-6.171,-2.004,-5.212,-5.77,-1.713,-9.246,-12.346,-7.58
-4.111,-2.382,-9.803,-8.06,-7.482,-10.749,-22.607,-11.592
1.486,1.421,-8.632,-6.703,-8.748,-9.91,-14.187,-10.949
6.233,3.803,0.127,-1.925,-1.585,-5.152,5.028,-4.992
6.074,0.939,6.807,4.002,4.754,3.074,11.114,3.315
1.074,-3.501,5.023,6.44,3.213,7.405,0.024,6.088
-4.992,-5.624,0.537,2.79,-0.465,2.403,-9.209,0.882
-7.344,-5.439,1.121,-2.28,1.569,-5.661,-2.767,-2.394
-5.562,-3.853,4.847,-3.247,6.488,-7.68,11.881,2.642
-4.29,-2.694,3.856,-4.324,5.806,-6.85,16.969,4.068
-4.76,-3.074,-2.493,-11.523,-0.479,-11.962,4.608,-6.325
-2.65,-3.272,-6.49,-19.133,-4.356,-20.117,-12.014,-14.475
1.607,-3.185,-4.226,-18.659,-2.409,-21.514,-14.482,-10.359
1.441,-4.963,-0.465,-13.157,0.491,-15.991,-7.967,-5.481
-3.867,-7.462,-0.486,-11.196,-0.575,-12.464,-9.162,-9.238
-7.105,-6.373,-1.998,-12.315,-2.93,-13.674,-11.809,-12.456
-4.118,-0.111,1.08,-8.541,0.024,-11.872,0.347,-5.812
1.048,7.475,7.195,0.624,6.983,-3.637,18.57,3.47
2.365,10.941,7.63,6.797,7.699,3.592,20.395,6.68
-0.548,8.945,0.908,6.702,-0.94,4.617,5.781,7.302
-3.328,4.899,-3.554,5.555,-7.36,3.24,-2.827,9.307
-5.243,0.791,-0.697,6.043,-3.058,3.062,4.903,9.247
-10.048,-5.485,2.249,4.018,3.478,2.015,12.376,4.178
-16.281,-12.856,-0.917,-2.19,1.57,-1.178,5.297,-2.563
-16.998,-14.887,-6.081,-6.769,-5.744,-3.526,-6.94,-4.423
-11.117,-9.099,-6.548,-4.469,-8.24,-2.751,-9.484,1.452
-6.039,-1.805,-0.979,2.389,-1.495,0.054,-0.547,10.519
-7.957,-0.736,5.004,7.089,7.271,2.346,9.68,15.02
-13.984,-5.673,4.408,6.413,6.363,2.301,11.342,11.811
-16.62,-9.724,-1.004,3.526,-3.597,0.515,7.139,4.81
-14.576,-9.238,-3.664,2.229,-10.269,-0.484,3.593,0.18
-12.729,-7.413,-2.944,1.261,-9.635,-0.914,-1.924,-0.286
-12.217,-7.134,-3.193,-1.999,-8.492,-3.775,-9.483,-0.124
-10.43,-6.928,-4.1,-5.247,-8.865,-7.465,-11.156,-0.735
-8.862,-5.862,-3.685,-5.035,-7.566,-7.777,-6.442,0.706
-9.962,-5.539,-2.908,-3.193,-4.981,-5.732,-1.105,3.255
-11.108,-7.224,-3.04,-3.677,-3.703,-5.167,2.927,2.783
-9.812,-10.371,-4.36,-6.747,-4.429,-7.745,3.72,0.192
-8.024,-12.671,-5.772,-9.171,-5.219,-11.452,0.185,-0.58
-8.281,-13.374,-5.428,-9.136,-3.867,-12.385,-3.092,-0.616
-9.972,-13.884,-3.37,-8.05,-1.289,-9.764,-2.17,-3.359
-9.748,-12.475,-1.358,-6.898,0.116,-6.093,1.342,-7.015
-5.588,-6.621,-0.417,-5.602,0.451,-3.834,4.818,-8.187
0.391,0.013,-0.08,-5.047,1.099,-4.712,6.107,-6.767
4.342,1.369,-0.178,-5.679,0.821,-7.747,1.902,-2.986
3.769,-3.003,-1.086,-6.247,-1.555,-8.313,-5.096,2.225
-1.007,-8.309,-2,-5.733,-2.99,-4.383,-6.577,5.993
-5.534,-9.571,-1.853,-4.358,-1.447,-0.305,-1.827,7.983
-4.94,-5.894,0.165,-2.875,1.136,-0.205,6.98,8.953
-0.922,-1.935,4.686,-2.727,4.3,-2.895,18.728,6.057
0.817,-2.194,8.883,-4.37,7.913,-5.241,20.734,-0.085
-0.913,-4.943,8.002,-5.118,7.839,-4.991,4.988,-2.115
-3.034,-6.078,2.844,-2.606,2.22,-1.322,-13.242,1.352
-4.064,-5.451,-0.47,0.719,-2.589,2.531,-19.775,2.342
-4.816,-5.65,1.857,0.825,0.352,1.557,-14.493,-1.267
-4.466,-6.331,7.883,-0.292,8.628,-2.128,0.307,-0.976
-1.485,-4.964,11.436,1.426,12.614,-2.176,13.514,4.539
1.459,-2.894,7.887,1.517,7.552,-1.219,8.393,3.382
2.182,-2.019,1.564,-3.529,0.477,-4.433,-8.345,-5.633
4.505,0.633,0.424,-4.961,0.053,-5.403,-11.629,-6.426
9.319,5.77,3.522,1.777,4.669,1.301,-0.415,4.121
9.91,7.606,3.827,6.908,6.848,7.261,3.445,9.99
2.94,2.731,-0.117,4.453,2.929,5.656,-2.678,5.78
-6.227,-4.721,-3.535,0.774,-3.062,1.988,-3.993,2.042
-11.818,-9.607,-3.945,0.756,-4.856,1.659,-0.605,3.493
-13.93,-11.978,-4.371,1.129,-4.168,2.16,-0.851,4.09
-15.008,-13.82,-6.585,-1.262,-5.853,0.471,-1.016,0.285
-14.871,-14.077,-7.809,-4.468,-7.129,-1.877,2.987,-3.387
-12.226,-10.998,-6.838,-5.368,-4.222,-2.354,4.02,-2.222
-8.564,-6.126,-6.19,-3.629,-0.784,-0.971,-1.165,2.015
-6.446,-2.717,-7.064,-1.049,-1.567,0.786,-3.307,5.088
-5.151,-1.691,-6.538,1.433,-3.723,2.434,4.394,6.82
-2.797,-1.557,-2.155,3.655,-1.005,3.831,14.258,8.667
-0.693,-1.809,1.807,3.806,4.281,3.82,14.278,8.008
-0.247,-2.674,0.399,1.349,5.273,2.868,7.039,3.833
-0.118,-3.065,-3.107,-0.408,2.951,3.811,5.827,2.025
-0.23,-3.11,-5.779,-0.45,-0.692,6.111,9.224,4.533
-1.247,-4.253,-10.469,-1.601,-7.786,4.811,3.077,6.083
-0.988,-5.426,-14.192,-3.105,-12.875,0.042,-6.079,5.832
0.442,-5.867,-11.146,-2.917,-9.441,-2.336,-0.634,4.544
-0.587,-7.369,-6.792,-4.472,-5.184,-2.669,5.255,-0.822
-2.52,-8.935,-7.906,-8.634,-7.39,-4.182,-7.643,-6.108
-1.116,-7.885,-9.694,-8.836,-9.246,-2.76,-19.443,-2.791
1.616,-4.767,-7.263,-3.007,-5.68,3.882,-12.927,6.036
1.98,-1.331,-4.921,1.884,-2.584,8.395,-6.683,10.081
1.022,0.667,-6.599,0.627,-4.629,4.96,-10.522,6.43
