EEG 1,EEG 2,EEG 3,EEG 4,EEG 5,EEG 6,EEG 7,EEG 8
-4.326,-1.749,-5.844,-3.149,-5.131,14.695,-2.651,-3.331
-6.375,-4.484,-5.403,-5.3,-4.786,12.41,-2.965,-3.742
-8.155,-5.366,-5.825,-5.784,-4.144,11.879,-2.421,-3.25
-8.523,-4.15,-7.004,-4.857,-4.07,13.184,-2.201,-2.968
-6.019,-1.393,-6.813,-3.024,-3.678,15.637,-2.187,-2.901
-1.339,2.401,-4.614,-0.952,-2.436,18.039,-1.841,-2.421
1.829,5.552,-3.672,-0.393,-2.478,18.598,-2.23,-2.616
1.584,6.447,-5.837,-1.878,-4.926,16.989,-3.975,-4.354
0.548,5.878,-8.285,-3.546,-7.419,15.214,-5.432,-6.205
0.999,5.526,-8.592,-4.034,-7.87,14.736,-4.999,-6.618
1.375,5.327,-8.288,-4.382,-7.377,14.363,-3.941,-6.408
1.337,5.317,-8.544,-5.042,-6.969,13.496,-3.919,-6.431
3.112,6.702,-8.039,-4.623,-6.15,13.695,-4.183,-5.946
5.859,8.696,-6.649,-3.405,-5.23,14.848,-3.673,-4.937
6.245,8.592,-6.046,-3.738,-5.022,14.7,-2.907,-4.696
4.083,5.927,-6.925,-5.978,-5.53,12.913,-2.63,-5.743
2.363,3.622,-7.88,-7.098,-5.975,12.029,-2.142,-6.455
1.929,3.455,-7.499,-5.372,-5.847,13.249,-0.963,-5.477
1.188,3.777,-6.46,-3.231,-5.242,14.596,-0.255,-4.092
0.374,3.462,-5.849,-2.861,-4.025,14.848,-0.69,-3.828
0.687,3.305,-5.261,-3.174,-2.361,15.097,-1.519,-4.235
2.314,4.115,-3.573,-2.121,-0.616,16.419,-1.463,-3.867
4.703,5.98,-0.9,0.543,1.163,18.718,0.024,-2.359
6.254,7.784,0.991,3.048,2.352,20.931,1.807,-0.764
5.535,8.242,0.951,3.827,1.961,21.769,2.199,-0.069
3.508,7.723,0.011,3.366,0.38,21.276,1.262,-0.129
3.423,7.86,0.274,3.493,-0.182,21.224,1.2,0.449
6.733,9.486,2.032,4.554,1.018,22.2,2.775,1.795
10.446,11.502,3.176,4.813,1.817,22.4,3.812,1.917
10.96,11.988,2.391,3.541,0.964,20.992,2.96,0.41
8.443,10.528,0.867,2.35,-0.118,19.533,1.674,-0.807
6.158,9.182,0.862,2.946,0.365,19.696,2.113,-0.436
5.791,9.36,2.898,4.653,2.165,21.137,3.836,0.668
5.949,9.547,5.254,5.727,3.854,22.281,5.165,1.469
5.841,8.581,6.794,6.004,5.196,22.6,6.938,2.562
5.854,7.036,7.257,5.337,6.121,21.8,9.114,3.534
5.744,5.362,6.096,2.813,6.179,19.206,9.085,2.832
5.51,4.306,3.661,-0.65,5.713,15.797,7.016,1.172
6.083,4.736,1.578,-2.913,5.005,13.599,5.828,0.619
7.432,5.579,0.645,-3.693,3.411,12.927,6.118,1.331
7.861,4.853,-0.333,-4.173,0.573,12.562,5.986,1.737
6.966,3.022,-1.79,-4.109,-1.946,12.517,5.098,1.682
5.788,1.56,-2.445,-2.912,-2.847,13.319,4.378,1.855
4.359,-0.382,-2.331,-2.131,-3.471,13.648,3.247,1.112
2.665,-3.295,-2.584,-2.69,-4.788,12.856,1.401,-0.952
1.123,-5.044,-3.491,-3.239,-6.056,12.46,-0.103,-2.511
-1.127,-5.151,-5.422,-3.775,-7.614,12.343,-1.2,-3.264
-5.383,-6.691,-9.146,-6.283,-10.818,10.048,-3.325,-5.142
-9.993,-10.508,-13.482,-10.296,-14.711,5.714,-6.703,-8.086
-11.557,-12.597,-15.298,-12.274,-16.376,3.21,-9.075,-9.45
-10.524,-10.78,-13.777,-10.768,-15.463,4.365,-8.834,-8.555
-10.242,-8.376,-11.763,-8.284,-14.534,6.495,-7.36,-7.606
-11.214,-8.294,-11.33,-6.928,-14.764,7.541,-6.76,-7.773
-11,-8.549,-10.807,-5.389,-14.174,9.298,-6.718,-7.398
-9.216,-6.804,-8.292,-2.063,-11.324,13.064,-5.751,-5.329
-8.189,-4.574,-4.822,2.267,-7.896,17.086,-4.171,-3.065
-7.892,-3.472,-1.428,6.644,-5.055,20.439,-2.663,-1.407
-7.105,-3.356,1.352,9.258,-2.786,22.402,-1.544,-0.462
-6.969,-4.342,1.95,7.362,-2.027,20.677,-1.569,-1.298
-6.944,-4.773,1.639,3.213,-1.746,16.898,-1.565,-2.53
-4.625,-2.627,3.588,1.72,0.478,15.494,0.274,-1.776
-1.211,-0.794,6.473,1.789,3.695,15.518,2.302,-0.604
-0.146,-3.088,7.025,-0.481,5.364,13.326,2.152,-1.47
-1.152,-7.152,6.108,-4.055,5.819,9.8,1.064,-3.113
-0.845,-8.307,5.693,-5.954,6.243,7.426,0.767,-3.772
1.936,-6.18,4.93,-6.574,5.731,6.016,0.252,-4.37
6.416,-2.199,4.134,-6.503,4.88,6.002,-0.026,-4.672
11.857,3.45,5.87,-3.956,6.515,9.279,2.837,-2.418
17.275,10.009,10.547,1.976,11.431,15.614,9.38,2.734
22.414,16.105,16.724,9.657,18.479,22.839,17.71,9.399
26.096,19.613,22.473,15.632,25.231,28.312,25.894,16.134
25.269,17.712,24.825,17.126,28.017,30.003,31.9,21.361
19.148,10.728,22.347,15.014,25.383,28.4,33.374,23.351
9.7,1.591,15.748,10.904,18.467,24.393,28.209,20.498
-2.297,-9.08,4.631,3.314,7.242,16.543,15.749,12.142
-14.975,-20.205,-9.781,-7.349,-7.176,5.73,-0.32,0.692
-21.97,-25.96,-20.691,-14.713,-18.318,-1.677,-11.756,-7.827
-20.406,-22.8,-23.182,-14.32,-21.428,-1.71,-14.074,-9.688
-15.245,-15.091,-20.101,-9.297,-19.384,2.467,-10.72,-7.119
-10.455,-8.316,-15.75,-4.127,-16.075,7.064,-5.823,-3.347
-6.16,-3.648,-11.953,-0.025,-12.522,11.164,-1.189,0.243
-2.957,-0.361,-9.824,2.87,-9.733,14.146,1.068,2.599
-1.973,1.405,-9.564,3.948,-8.91,15.024,0.086,2.983
-2.989,1.012,-9.685,3.577,-9.145,14.297,-1.413,2.441
-4.27,-0.787,-8.15,3.611,-7.874,14.085,-0.28,3.022
-4.625,-2.429,-4.807,4.51,-4.579,14.731,2.497,4.352
-4.8,-3.841,-1.818,4.44,-1.526,14.209,3.903,4.468
-5.575,-5.518,-0.918,2.82,-0.622,12.245,3.596,3.49
-5.583,-6.22,-1.239,1.676,-1.118,11.113,3.372,2.963
-2.96,-4.41,-0.622,2.526,-0.836,12.105,3.919,3.314
1.541,-0.757,1.658,4.309,0.771,13.861,4.556,3.798
5.711,2.909,4.671,5.025,2.598,14.162,5.134,3.858
8.8,5.763,7.248,4.212,3.768,12.65,5.545,3.459
11.948,8.369,9.196,3.776,4.676,11.863,5.623,3.322
15.71,11.253,11.035,5.405,6.167,13.805,6.106,4.088
18.049,13.64,12.322,7.526,7.463,16.342,6.763,4.683
18.009,15.411,13.02,8.582,8.255,17.321,6.903,4.672
18.009,17.767,14.75,10.208,10.425,18.515,7.422,5.363
19.286,19.794,17.403,12.944,13.972,20.922,8.642,6.654
19.44,18.806,18.321,14.179,16.041,22.028,9.406,7.228
16.765,14.936,16.875,12.978,15.737,20.831,9.766,7.216
14.097,11.579,16.133,12.013,15.812,19.953,11.049,7.809
13.933,10.288,17.69,12.542,17.579,20.28,12.465,8.639
14.018,9.094,19.182,12.472,18.804,19.65,12.204,8.444
12.338,7.089,18.733,10.949,18.24,17.921,11.147,7.611
9.802,5.28,16.533,9.281,16.397,16.66,10.396,6.678
7.442,4.029,13.388,8.302,13.609,15.981,9.175,5.376
5.658,3.638,11.014,8.088,10.931,15.523,7.323,4.061
4.756,4.008,10.472,8.154,9.663,15.039,5.896,3.354
4.35,3.209,10.157,7.469,9.179,13.802,5.277,3.04
3.126,-0.073,7.812,5.493,7.513,11.584,4.255,2.034
0.837,-3.921,3.905,3.134,4.462,9.485,2.031,0.053
-0.651,-5.519,1.332,1.864,2.049,8.681,-0.108,-1.563
0.756,-3.96,2.236,2.536,2.146,9.514,-0.02,-1.37
4.411,-0.386,5.436,4.836,4.343,11.457,2.548,0.43
6.746,2.373,7.52,6.624,6.007,12.596,4.754,1.707
6.314,2.586,7.356,6.102,5.787,11.648,4.685,1.205
5.176,1.84,6.276,3.959,4.387,9.496,3.494,-0.242
5.194,2.686,5.346,1.843,2.738,7.487,2.314,-1.54
7.505,6.115,6.364,1.423,2.881,6.899,1.856,-1.604
12.147,10.503,10.385,3.338,6.072,8.195,2.656,-0.094
16.685,12.585,14.575,5.679,9.758,9.85,3.639,1.503
18.255,11.266,15.523,6.238,10.738,10.24,3.37,1.473
17.389,9.537,14.191,5.896,9.655,10.029,2.657,0.507
17.543,10.766,14.282,7.112,9.765,11.07,3.55,1.056
20.091,14.106,17.033,9.707,12.417,13.162,5.818,3.452
23.186,16.664,20.515,11.682,15.917,14.597,7.689,5.921
24.51,17.585,22.622,12.556,17.758,15.087,8.421,7.175
23.265,17.533,22.878,13.03,17.121,15.436,8.089,6.895
21.27,17.899,22.488,13.663,15.599,16.201,7.449,6.144
20.711,19.582,22.499,14.112,14.708,16.925,7.151,6.052
21.689,21.619,22.716,13.485,14.625,16.499,6.986,6.148
23.107,22.662,22.833,11.999,15.206,15.035,6.958,5.779
23.437,21.827,22.385,10.268,15.545,13.208,6.934,4.998
21.564,19.03,20.535,8.34,14.387,11.074,6.209,4.025
18.638,16.123,18.067,7.341,12.431,9.724,5.367,3.604
17.445,15.433,17.565,8.87,12.217,10.759,6.153,4.75
17.922,16.349,19.09,11.205,14.114,12.555,7.873,6.472
16.852,16.13,19.129,10.706,15.082,11.684,7.907,6.484
13.769,14.442,16.38,7.778,13.263,8.659,6.4,5.051
11.505,13.153,13.704,5.799,10.273,6.799,5.57,4.178
11.026,12.795,12.937,5.408,8.323,6.723,6,4.366
10.213,12.321,12.2,4.7,7.256,6.495,6.61,4.585
7.936,11.009,9.921,3.247,5.503,5.36,6.412,4.213
5.964,9.371,7.591,2.194,2.983,4.104,5.156,3.709
5.457,8.325,6.305,1.351,0.857,2.724,3.194,3.126
5.535,8.255,5,-0.396,-0.244,0.503,1.413,2.087
5.31,8.744,3.208,-3.015,-0.667,-2.45,0.138,0.777
4.953,9.198,2.218,-5.353,-0.72,-5.069,-0.893,-0.291
5.284,9.719,3.001,-6.255,-0.151,-6.26,-1.488,-0.881
5.579,10.022,3.997,-6.031,0.144,-6.318,-2.194,-1.74
3.86,9.272,2.906,-5.798,-1.221,-6.258,-3.701,-3.274
0.804,8.133,0.338,-5.269,-3.42,-5.791,-4.89,-4.131
0.003,8.127,-0.992,-3.412,-4.179,-3.999,-4.387,-2.981
2.285,8.718,-0.774,-1.011,-3.364,-1.665,-2.98,-0.941
3.362,7.608,-1.828,-0.389,-3.616,-0.994,-3.031,-0.872
1.21,4.687,-4.203,-1.242,-4.977,-1.716,-4.38,-2.538
-0.721,2.183,-3.995,-0.599,-3.986,-1.149,-3.966,-2.411
-0.593,0.667,-0.472,1.523,-0.302,0.6,-1.31,-0.061
-0.556,-0.737,2.76,2.201,2.797,1.034,0.723,1.528
-2.217,-2.15,3.53,0.802,3.489,-0.315,0.525,1.18
-4.072,-2.903,3.06,-0.544,2.856,-1.696,-0.376,0.611
-3.934,-2.406,3.111,-0.751,2.666,-2.027,-0.198,1.005
-2.614,-1.642,3.655,-1.228,3.178,-2.397,0.411,1.214
-2.272,-1.96,3.959,-3.004,3.596,-4.123,0.136,0.276
-2.118,-2.22,4.218,-4.827,3.586,-6.417,-0.647,-0.928
0.35,-0.48,5.06,-5.078,3.627,-7.422,-0.623,-1.107
3.646,2.188,5.852,-4.407,3.542,-7.243,-0.072,-0.709
4.019,3.507,5.569,-4.67,2.766,-7.649,-0.352,-1.197
3.09,4.615,5.929,-5.134,3.153,-8.322,-0.456,-1.792
4.851,7.549,9.046,-3.723,6.453,-7.469,1.195,-0.804
7.925,10.626,12.431,-1.475,9.519,-5.724,2.721,0.598
8.929,11.807,12.076,-0.786,8.283,-4.94,1.659,0.234
9.011,12.776,9.263,-0.52,4.911,-4.202,-0.21,-0.696
10.988,15.645,8.925,2.098,4.802,-1.305,0.612,0.82
13.77,19.037,11.953,6.057,8.153,2.586,3.544,4.136
14.702,20.485,14.505,8.301,10.703,4.531,5.493,6.13
13.959,20.4,14.285,8.9,10.457,4.729,6.054,6.55
13.39,20.882,12.665,9.754,9.061,5.157,6.801,7.287
13.429,21.934,11.198,10.534,8.206,5.592,7.45,8.267
12.99,21.914,9.84,9.81,7.606,4.799,6.778,8.185
12.407,21.387,8.839,8.601,6.92,3.634,6.059,7.979
13.015,22.24,8.876,8.716,6.43,3.445,6.43,8.708
13.962,23.635,9.536,9.43,6.014,3.505,6.401,8.988
13.511,23.531,10.032,9.28,5.871,2.866,5.839,8.307
11.465,22.004,9.927,8.433,6.12,2.018,6.249,7.867
8.657,19.993,9.287,8.13,6.323,1.954,7.643,8.3
5.742,17.073,8.686,8.948,6.221,2.951,8.732,9.229
3.098,12.786,7.826,9.871,5.494,3.998,8.282,9.599
0.947,8.706,5.838,10.038,3.734,4.152,6.408,8.799
-0.929,6.669,3.606,10.007,1.471,3.826,4.739,7.64
-1.742,6.629,3.669,10.44,0.852,3.866,4.82,7.649
-0.087,7.31,6.635,11.094,3.203,4.291,6.404,8.923
3.223,7.818,10.078,11.501,6.729,4.426,7.958,10.069
5.734,8.311,11.781,11.35,8.688,3.771,8.719,10.518
5.961,8.621,11.522,10.265,8.375,2.4,8.979,10.619
4.957,8.218,10.928,9.072,7.897,1.248,9.456,10.903
4.721,7.463,11.669,8.959,8.967,0.87,10.083,11.374
5.393,6.98,12.95,9.011,10.178,0.279,9.777,11.121
6.312,7.167,13.027,8.28,10.173,-0.813,8.617,10.142
7.866,8.258,12.071,7.998,9.792,-0.875,7.891,9.683
10.942,10.662,12.074,9.861,10.363,1.501,8.593,10.822
14.72,14.39,14.113,13.509,11.881,5.429,10.584,13.205
16.398,16.964,16.237,15.99,12.659,7.629,12.104,14.712
14.974,15.545,16.106,15.362,11.526,6.523,11.663,13.859
12.654,11.364,14.545,13.65,9.696,4.708,10.071,11.892
11.532,8.169,13.818,13.539,8.966,4.794,9.327,11.279
11.511,7.68,13.857,14.576,8.784,5.925,9.934,12.354
13.019,9.806,13.945,15.669,8.491,6.886,11.031,13.513
17.72,14.747,15.673,17.734,10.093,8.684,12.585,14.469
23.061,20.543,18.861,19.912,13.363,10.636,14.13,15.255
23.217,22.244,19.478,18.52,14.199,9.228,13.795,14.446
17.772,18.055,16.073,13.44,11.438,4.246,11.346,11.811
11.979,11.967,12.048,9.233,8.235,0.108,9.054,9.453
8.807,7.942,10.074,8.373,6.516,-0.641,8.44,8.836
7.261,6.11,9.727,8.908,5.773,-0.107,8.618,9.086
7.374,5.916,10.48,9.067,6.274,-0.429,8.705,9.279
9.854,8.051,12.397,9.474,8.536,-0.672,9.311,9.919
11.812,10.851,13.707,10.064,10.603,-0.173,10.633,11.005
9.648,10.152,11.843,8.904,9.673,-1.032,11.024,10.897
4.733,5.558,7.537,5.344,5.873,-4.624,8.938,8.452
1.559,1.463,4.223,1.503,2.332,-8.789,5.829,5.331
1.515,0.376,2.947,-0.456,0.955,-10.87,4.015,3.694
1.953,0.227,1.752,-0.642,0.333,-10.965,3.158,3.3
0.687,-1.384,-0.406,-0.165,-1.378,-10.355,2.212,3.235
-2.029,-4.299,-3.505,0.2,-4.622,-9.842,0.871,2.888
-5.011,-7.167,-7.646,-0.086,-8.48,-10.135,-1.247,1.504
-7.493,-9.216,-11.452,-0.807,-11.073,-11.194,-3.619,-0.584
-8.818,-10.156,-12.502,-1.054,-11.198,-11.975,-4.685,-1.753
-8.091,-9.504,-10.214,-0.496,-9.23,-11.824,-3.839,-0.999
-6.237,-7.755,-6.548,0.291,-6.747,-11.205,-2.352,0.565
-5.941,-7.05,-4.015,0.667,-5.234,-10.957,-1.579,1.236
-7.894,-8.86,-4.042,-0.073,-5.362,-11.755,-2.063,0.438
-9.24,-11.44,-5.784,-1.908,-6.608,-13.248,-3.673,-1.189
-7.584,-11.709,-6.624,-3.12,-7.127,-13.912,-5.014,-2.064
-5.617,-10.67,-6.171,-3.193,-6.562,-13.902,-5.305,-1.845
-6.499,-11.681,-6.009,-3.469,-6.028,-14.64,-4.913,-1.527
-8.377,-13.842,-6.051,-4.259,-5.53,-15.63,-4.09,-1.539
-9.175,-14.456,-6.124,-5.74,-5.419,-16.531,-4.268,-2.528
-9.516,-13.731,-6.728,-8.035,-6.122,-18.28,-6.28,-4.583
-8.641,-11.96,-6.307,-8.955,-5.757,-19.525,-7.48,-5.669
-3.916,-7.71,-2.297,-6.132,-1.913,-17.257,-4.8,-3.786
3.93,-1.334,4.677,-0.727,4.662,-11.9,1.241,0.4
10.067,4.111,10.597,3.906,10.557,-7.205,7.756,4.751
12.453,7.301,13.201,6.716,14.27,-4.575,13.405,8.731
13.817,10.022,14.265,9.113,16.875,-2.128,18.472,12.824
16.251,13.428,15.864,11.655,18.75,0.888,22.236,16.447
17.888,15.561,16.536,12.685,18.24,2.218,22.078,17.688
14.57,12.426,11.75,8.976,12.398,-1.593,14.793,13.684
5.407,3.193,0.233,-0.37,0.845,-10.902,0.663,3.775
-3.929,-6.289,-11.503,-10.42,-10.738,-20.618,-13.958,-7.467
-7.1,-9.819,-15.921,-15.293,-15.537,-25.481,-21.582,-14.012
-4.811,-8.341,-13.137,-14.887,-13.302,-25.597,-20.9,-14.564
-1.473,-6.058,-8.077,-12.147,-8.429,-23.245,-16.022,-11.774
2.419,-3.058,-3.333,-7.66,-3.463,-18.663,-10.551,-7.716
7.604,2.014,0.24,-2.048,0.216,-12.872,-6.81,-4.194
10.72,6.217,0.593,1.25,0.239,-9.444,-7.008,-3.609
8.398,5.995,-2.943,0.298,-3.73,-10.15,-10.716,-6.139
3.204,2.993,-7.133,-2.121,-8.223,-12.448,-14.059,-8.773
0.382,1.236,-8.248,-2.457,-9.523,-12.9,-13.991,-8.775
0.955,1.521,-6.656,-1.112,-7.965,-11.416,-11.864,-7.135
2.52,2.141,-5.539,-0.906,-6.771,-10.558,-10.822,-6.7
3.794,2.695,-6.247,-2.154,-7.303,-11.085,-11.415,-7.78
4.951,4.171,-7.062,-2.224,-7.808,-10.931,-11.344,-7.894
5.561,5.997,-6.486,-0.472,-6.895,-9.517,-9.266,-6.048
4.103,5.207,-6.41,-0.079,-6.255,-9.671,-7.656,-4.963
0.694,0.814,-9.038,-2.659,-7.393,-12.739,-8.838,-6.496
-2.55,-3.848,-12.871,-6.103,-9.062,-16.439,-11.335,-8.946
-5,-6.235,-15.432,-8.878,-10.305,-19.009,-13.013,-10.508
-7.274,-7.416,-16.278,-10.502,-11.228,-20.102,-13.325,-10.714
-9.413,-9.326,-16.446,-10.417,-11.696,-19.681,-12.751,-10.007
-11.616,-12.38,-17.142,-9.577,-12.212,-18.872,-12.24,-9.49
-13.857,-14.764,-17.978,-9.197,-13.317,-18.619,-12.279,-9.548
-14.36,-14.435,-16.753,-8.311,-13.35,-17.762,-12.013,-9.178
-11.697,-12.023,-12.574,-5.599,-10.379,-14.964,-10.088,-7.279
-8.44,-10.422,-8.575,-2.545,-6.851,-11.805,-7.742,-4.995
-7.786,-11.319,-8.288,-1.599,-6.685,-10.804,-7.934,-4.545
-8.508,-13.117,-10.284,-2.304,-8.769,-11.527,-10.501,-5.801
-8.128,-13.66,-10.798,-2.979,-9.34,-12.428,-12.412,-7.074
-7.368,-13.318,-9.711,-4.304,-8.209,-14.085,-12.194,-7.843
-8.451,-13.668,-9.932,-7.638,-8.361,-17.52,-11.388,-8.867
-10.809,-14.538,-11.837,-11.331,-10.393,-21.111,-11.775,-10.175
-11.441,-14.374,-12.594,-12.675,-11.58,-22.414,-13.289,-10.998
-9.455,-13.108,-11.495,-12.354,-11.004,-22.075,-14.892,-11.59
-6.731,-11.886,-10.778,-12.456,-10.579,-21.993,-15.622,-12.484
-5.231,-10.928,-11.412,-12.691,-11.314,-21.964,-15.442,-13.26
-5.692,-9.982,-12.385,-11.921,-12.23,-21.194,-15.166,-13.348
-7.519,-9.412,-13.021,-10.411,-12.532,-20.084,-15.328,-13.096
-9.076,-9.001,-13.385,-8.802,-12.61,-18.926,-15.565,-13.099
-8.994,-7.212,-13.691,-6.937,-13.083,-17.176,-15.189,-13.1
-8.036,-4.18,-14.626,-5.364,-14.332,-15.416,-14.863,-13.117
-7.575,-2.492,-16.066,-5.507,-15.629,-15.263,-15.426,-13.371
-7.219,-3.034,-16.448,-7.005,-15.448,-16.392,-15.842,-13.196
-6.443,-4.061,-15.202,-7.687,-13.6,-16.74,-14.998,-12.155
-6.325,-4.749,-13.328,-6.69,-11.232,-15.783,-13.414,-10.746
-7.993,-6.242,-11.748,-5.489,-9.461,-14.966,-12.374,-9.839
-10.261,-8.76,-10.536,-5.23,-8.377,-14.829,-11.957,-9.423
-11.528,-11.183,-9.816,-5.779,-7.704,-15.014,-11.238,-8.876
-12.532,-13.484,-10.263,-7.329,-7.802,-16.185,-10.389,-8.581
-13.892,-15.659,-11.538,-9.716,-8.541,-18.456,-10.211,-9.034
-14.468,-16.29,-12.417,-11.625,-9.345,-20.321,-10.903,-9.746
-13.456,-14.729,-12.689,-12.272,-10.123,-20.899,-11.967,-10.048
-12.093,-12.827,-13.358,-12.669,-11.266,-21.339,-12.723,-10.408
-12.132,-12.95,-14.783,-13.959,-13.053,-22.85,-13.102,-11.715
-12.758,-14.634,-15.364,-15.142,-14.43,-24.304,-13.425,-13.034
-12.098,-15.515,-14.105,-14.955,-14.392,-24.184,-13.922,-13.058
-10.259,-14.826,-12.771,-14.058,-13.828,-23.066,-14.285,-12.329
-8.638,-13.646,-13.335,-13.405,-14.115,-22.129,-14.346,-12.105
-8.425,-13.191,-15.199,-12.986,-15.174,-21.696,-14.753,-12.725
-10.133,-13.94,-16.263,-12.659,-15.654,-21.698,-15.566,-13.566
-13.381,-15.527,-15.874,-12.633,-15.01,-21.913,-15.936,-14.169
-16.266,-16.568,-14.61,-12.236,-13.624,-21.358,-14.931,-13.863
-16.862,-15.79,-12.756,-10.379,-11.852,-19.252,-12.724,-12.013
-15.751,-13.957,-11.114,-8.331,-10.72,-17.114,-11.395,-10.029
-14.276,-12.459,-10.412,-7.903,-10.659,-16.637,-12.318,-9.714
-12.641,-11.76,-10.211,-8.146,-10.519,-16.782,-14.033,-10.624
-11.515,-12.578,-10.404,-8.013,-9.927,-16.579,-14.543,-11.502
-12.226,-14.848,-11.683,-8.591,-10.083,-17.235,-14.173,-12.118
-14.342,-16.482,-13.905,-9.953,-11.316,-18.672,-14.209,-12.327
-15.655,-16.267,-15.957,-10.407,-12.213,-18.934,-14.134,-11.623
-15.365,-15.448,-17.389,-10.206,-12.103,-18.535,-13.167,-10.753
-14.629,-15.07,-18.387,-11.241,-11.983,-19.84,-12.224,-10.863
-14.619,-14.996,-18.827,-13.179,-12.704,-22.292,-12.483,-11.55
-15.419,-15.397,-18.533,-13.782,-13.63,-23.081,-13.495,-11.831
-16.001,-16.4,-17.383,-12.457,-13.462,-21.602,-14.058,-11.71
-15.432,-16.937,-15.138,-10.748,-12.187,-19.787,-14.346,-11.778
-13.422,-15.516,-11.281,-8.904,-10.019,-17.923,-14.286,-11.324
-10.858,-12.613,-6.262,-5.35,-6.707,-14.193,-12.718,-9.178
-9.444,-10.401,-2.423,-0.431,-3.632,-9.203,-10.061,-6.16
-9.06,-9.212,-1.14,3.209,-2.518,-6.122,-7.79,-3.896
-8.362,-7.604,-1.377,3.978,-2.985,-6.023,-6.661,-3.149
-7.434,-5.62,-2.148,2.75,-3.859,-7.036,-6.8,-3.867
-7.639,-5.321,-3.984,0.696,-5.537,-8.326,-8.156,-5.759
-8.675,-7.321,-7.005,-1.72,-8.454,-10.46,-10.082,-7.988
-7.529,-8.501,-9.246,-3.071,-10.56,-12.07,-10.885,-8.607
-3.788,-6.835,-9.827,-2.642,-10.852,-11.825,-10.277,-7.401
-0.839,-4.289,-10.132,-1.709,-10.973,-10.771,-9.697,-6.527
0.333,-2.149,-10.185,-0.501,-11.055,-9.579,-9.522,-6.67
1.37,-0.152,-9.196,1.356,-10.157,-8.233,-9.401,-6.651
1.757,0.43,-8.127,2.248,-9.123,-7.728,-9.522,-6.026
-0.523,-1.728,-8.281,0.972,-9.293,-8.732,-10.116,-5.724
-4.293,-5.02,-9.364,-0.685,-10.345,-10.045,-10.532,-6.048
-6.367,-6.811,-10.622,-1.164,-11.337,-10.528,-10.081,-6.228
-7.282,-7.515,-12.828,-2.126,-12.846,-11.31,-9.891,-6.697
-9.543,-9.08,-16.905,-5.241,-15.634,-13.746,-11.307,-8.413
-12.612,-11.263,-21.767,-9.448,-18.796,-17.448,-13.522,-10.505
-14.902,-13.085,-25.212,-12.92,-20.947,-21.217,-14.658,-11.35
-16.641,-14.943,-25.933,-14.852,-21.481,-23.749,-14.231,-11.127
-17.484,-16.603,-24.058,-15.18,-20.015,-24.212,-12.959,-11.041
-15.741,-16.478,-20.22,-13.81,-16.41,-22.603,-11.048,-10.693
-12.281,-15.251,-15.132,-10.822,-11.656,-19.481,-8.896,-9.162
-9.893,-15.148,-9.464,-6.914,-6.52,-15.762,-7.055,-6.873
-9.087,-15.23,-4.302,-3.213,-1.499,-12.383,-5.447,-4.986
-8.94,-13.956,-1.414,-0.908,1.751,-10.045,-4.339,-4.342
-9.381,-12.95,-0.986,-0.193,2.723,-8.909,-3.657,-4.444
-10.956,-13.641,-1.667,-0.262,2.358,-8.706,-2.95,-4.463
-13.184,-14.429,-2.78,-0.157,1.111,-8.582,-2.774,-4.423
-14.713,-13.703,-3.654,0.78,-0.127,-7.394,-3.538,-4.067
-15.77,-13.005,-3.771,1.899,-0.514,-5.692,-4.361,-3.016
-17.262,-13.947,-4.012,2.074,-0.89,-5.043,-4.413,-2.043
-18.529,-15.214,-5.43,1.242,-2.5,-5.715,-4.357,-2.376
-17.97,-15.166,-7.303,0.048,-4.254,-6.858,-4.684,-3.481
-15.195,-13.981,-7.919,-0.795,-3.893,-7.617,-4.549,-3.752
-11.838,-12.804,-7.013,-1.128,-2.019,-7.816,-4.02,-3.398
-9.199,-12.116,-5.636,-1.064,-1.014,-7.529,-4.008,-3.41
-7.211,-11.177,-4.772,-0.581,-1.414,-6.764,-4.395,-3.619
-5.364,-8.777,-4.436,0.002,-1.807,-5.958,-4.305,-3.393
-3.261,-4.838,-3.903,0.109,-1.4,-5.72,-3.566,-2.716
-1.925,-1.796,-3.921,-1.17,-1.658,-6.881,-3.615,-2.791
-2.867,-2.018,-5.91,-4.178,-3.717,-9.755,-5.512,-4.586
-5.098,-4.303,-8.548,-7.207,-5.757,-12.605,-7.429,-6.64
-6.245,-6.162,-9.286,-8.705,-5.455,-13.713,-6.805,-6.602
-6.531,-7.655,-8.677,-9.753,-3.721,-14.24,-4.69,-5.251
-7.554,-9.653,-8.693,-11.384,-2.85,-15.575,-4.212,-5.33
-8.163,-10.434,-8.034,-11.879,-1.84,-15.967,-5.246,-6.414
-6.581,-8.151,-4.451,-9.491,1.667,-13.431,-4.969,-5.912
-4.007,-4.632,0.583,-5.338,6.491,-9.083,-2.323,-3.625
-2.665,-2.881,4.041,-1.747,9.362,-5.048,0.956,-1.459
-3.048,-3.298,5.226,0.364,9.51,-2.229,3.04,-0.233
-4.465,-4.564,5.23,1.636,8.934,-0.63,4.066,1.062
-6.688,-6.048,4.923,2.858,8.963,0.361,4.679,2.812
-9.331,-7.668,5.008,4.253,9.561,1.457,5.088,4.16
-11.29,-8.765,6.213,5.526,10.606,2.521,5.501,4.694
-12.235,-8.903,8.329,6.291,11.674,3.162,5.768,4.785
-12.583,-8.583,10.711,6.972,12.644,3.949,6.073,4.941
-12.472,-8.212,12.91,8.077,13.907,5.35,6.77,5.044
-11.809,-7.679,13.971,8.737,15.112,6.435,7.277,4.742
-10.793,-7.051,13.139,7.886,15.237,6.118,7.058,4.281
-9.703,-6.241,11.552,6.507,14.272,5.106,6.775,4.257
-8.771,-4.987,10.772,6.283,13.114,4.982,6.881,4.705
-9.112,-4.555,9.691,6.349,11.224,5.186,6.102,4.133
-10.778,-6.115,7.116,5.429,8.148,4.339,4.128,2.07
-11.414,-7.794,4.966,4.911,5.683,3.533,2.82,0.738
-9.958,-7.427,4.547,5.68,4.816,4.09,2.68,1.002
-7.845,-5.502,4.435,6.049,4.391,4.77,2.48,1.157
-6.31,-3.532,3.191,4.354,3.119,3.528,1.418,0.017
-5.206,-2.277,0.593,0.659,0.501,0.115,-0.475,-2.037
-4.196,-1.922,-2.824,-3.678,-3.023,-3.953,-2.652,-4.272
-3.468,-2.142,-5.968,-7.133,-5.968,-7.221,-4.232,-6.058
-3.04,-1.906,-7.981,-9.307,-7.029,-9.328,-4.572,-6.738
-3.477,-1.472,-9.735,-11.607,-7.505,-11.301,-4.862,-7.105
-5.549,-3.139,-12.13,-15.319,-9.183,-14.35,-6.489,-8.397
-8.642,-7.679,-13.587,-19.315,-10.541,-17.714,-7.849,-9.656
-11.216,-12.449,-12.311,-21.325,-9.134,-19.358,-6.719,-9.363
-11.609,-14.298,-8.598,-20.317,-5.124,-18.335,-3.724,-7.618
-9.684,-13.047,-3.922,-16.796,-0.974,-15.122,-0.899,-5.446
-7.75,-11.204,-0.111,-11.968,1.245,-10.615,0.968,-3.533
-8.113,-10.8,1.094,-7.71,1.408,-6.402,1.525,-2.524
-9.786,-10.82,0.217,-5.357,0.846,-3.844,0.75,-2.709
-9.414,-8.437,0.468,-3.475,1.584,-1.736,0.65,-2.553
-7.104,-4.212,2.612,-0.452,3.666,1.353,2.317,-0.925
-6.55,-2.118,3.581,2.213,4.68,4.028,3.75,0.729
-8.58,-3.245,1.919,2.435,3.352,4.403,3.094,0.617
-10.244,-4.775,-0.432,0.793,1.028,2.999,1.001,-1.024
-9.584,-4.689,-1.347,-0.428,-0.004,1.995,-0.229,-2.141
-7.657,-3.803,-0.862,-0.311,0.749,2.347,0.233,-1.784
-5.325,-2.663,0.205,0.619,2.152,3.347,1.201,-1.047
-2.025,-0.016,2.193,2.318,4.271,4.709,2.605,-0.404
1.806,3.939,5.68,4.831,8.385,6.835,5.779,1.195
5.603,7.459,10.612,7.679,14.715,9.78,11.195,4.621
9.82,10.413,15.958,10.166,21.012,12.828,17.889,9.352
14.628,13.946,20.457,12.306,25.147,15.576,24.968,14.857
19.035,17.885,23.962,14.824,27.647,18.267,31.533,20.895
20.538,19.764,25.006,15.916,27.921,19.025,34.529,24.754
16.975,17.101,19.562,11.442,21.97,14.303,29.781,22.107
9.036,10.206,6.336,0.798,7.859,3.847,16.176,12.023
0.709,2.551,-8.762,-10.697,-8.639,-7.438,-0.82,-0.371
-3.502,-1.675,-17.775,-17.144,-18.538,-13.838,-12.033,-8.27
-2.951,-1.399,-19.229,-17.692,-19.626,-14.116,-13.758,-9.963
-0.263,1.36,-16.738,-14.819,-16.256,-10.88,-9.866,-7.973
2.248,4.153,-12.71,-10.899,-11.851,-7.062,-4.841,-4.518
3.8,5.562,-7.876,-7.724,-6.937,-4.268,-0.304,-0.989
4.975,6.485,-3.208,-5.399,-2.089,-2.029,2.751,1.301
6.466,8.37,0.411,-2.624,1.15,0.932,3.627,2.025
7.999,10.393,3.215,0.919,2.681,4.576,3.704,2.411
9.194,11.476,6.018,4.333,4.298,7.992,4.811,3.571
10.606,12.734,8.998,7.16,7.161,10.967,6.924,5.351
12.209,15.034,11.11,9.138,10.027,13.212,8.476,6.544
12.467,16.408,10.705,9.126,10.437,13.365,7.906,5.813
11.053,14.972,8.387,7.436,8.6,11.76,6.248,4.095
9.605,12.458,7.495,7,7.906,11.377,6.398,3.905
8.986,11.631,9.242,8.803,9.812,13.18,8.353,5.26
7.968,11.802,10.538,9.743,11.392,14.385,8.705,5.476
5.517,10.345,9.089,7.697,10.24,12.989,6.35,3.635
3.286,7.69,6.885,4.725,8.39,10.448,4.302,2.048
3.256,6.427,5.87,3.106,8.185,8.595,4.112,1.759
5.269,7.207,4.782,2.055,8.521,7.142,4.056,1.144
8.26,9.097,2.189,-0.077,7.088,5.116,2.677,-0.464
11.148,11.24,-1.475,-2.976,3.183,2.575,0.01,-2.145
13.233,13.108,-4.751,-4.922,-1.277,0.585,-2.588,-3.14
14.419,14.494,-6.28,-5.564,-3.444,-0.31,-3.598,-3.466
15.17,15.457,-5.516,-5.688,-2.517,-0.329,-2.962,-3.196
15.949,16.153,-3.203,-5.132,-0.252,0.455,-1.574,-2.115
16.43,16.429,-1.015,-3.819,1.404,1.641,-0.145,-0.58
16.751,16.545,0.894,-2.063,2.966,3.104,1.55,1.051
17.549,17.225,4.008,0.402,5.829,5.421,3.912,2.775
18.201,18.085,8.069,3.095,9.159,7.993,6.028,3.967
17.296,17.834,10.707,4.435,10.617,9.14,6.368,3.901
14.897,16.317,10.865,4.263,9.381,8.905,5.381,3.33
12.886,15.023,10.026,4.426,7.591,9.283,5.46,3.828
11.657,14.156,9.125,5.139,7.208,10.303,6.589,4.762
9.207,11.442,7.253,4.326,7.112,9.618,6.289,4.101
4.632,6.073,4.286,1.696,5.381,6.846,4.259,1.939
0.071,0.98,2.14,-0.512,2.856,4.338,2.764,0.195
-1.632,-0.688,2.672,-0.675,2.482,4.06,3.463,0.41
-1.441,0.053,4.517,0.307,4.013,5.324,4.912,1.892
-2.568,-0.011,4.48,0.832,3.823,6.205,4.716,2.673
-4.647,-1.286,2.461,0.916,1.508,6.411,3.608,2.532
-5.213,-2.202,0.91,1.024,0.146,6.528,3.41,2.281
-4.114,-2,0.944,1.192,0.949,6.736,3.965,2.192
-2.43,-0.257,2.265,1.826,2.926,7.41,4.589,2.683
-0.063,3.096,4.653,3.26,5.752,8.708,5.434,4.166
2.966,6.575,7.644,5.079,9.339,10.198,6.839,6.113
5.254,8.089,9.943,6.26,12.38,11.337,8.533,7.491
6.274,7.695,10.621,6.059,13.689,11.639,9.639,7.896
7.166,7.715,10.426,4.954,13.393,11.117,9.698,7.58
8.9,9.773,11.029,4.56,12.625,10.88,9.765,7.557
11.273,12.972,12.791,6.023,12.57,11.958,10.718,8.802
13.394,15.293,14.345,8.442,13.105,13.625,11.326,10.629
14.976,16.37,14.9,9.947,13.1,14.545,10.621,11.763
16.074,17.082,14.742,9.508,11.864,14.165,9.353,11.56
16.55,17.35,14.073,7.482,10.044,12.668,8.211,10.1
16.687,17.104,13.593,5.654,9.096,11.385,7.348,8.509
17.078,17.63,14.517,5.865,9.923,11.829,7.069,7.9
18.032,19.673,16.578,7.925,11.951,13.589,7.412,8.039
19.191,21.876,17.904,9.801,13.128,14.875,7.336,7.719
20.508,23.015,18.609,10.623,13.038,15.388,6.464,6.882
22.458,23.452,21.122,11.574,14.26,16.459,6.425,6.785
24.319,23.24,25.404,13.072,17.651,18.284,7.99,7.433
24.485,22.028,28.356,14.32,20.556,19.831,9.433,7.86
22.058,19.956,27.776,15.04,20.668,20.548,9.11,8.002
18.451,17.821,24.811,15.803,18.929,21.101,8.372,8.737
16.659,17.215,22.586,17.106,17.883,22.391,9.702,10.462
16.567,17.426,21.434,17.288,17.371,22.716,11.579,11.414
15.239,14.971,18.676,13.896,15.134,19.428,10.284,9.661
12.724,9.896,14.255,8.538,11.522,14.263,6.797,6.554
11.933,6.669,11.173,5.803,9.293,11.725,5.668,5.31
12.605,6.701,9.869,6.638,8.738,12.448,7.387,6.348
11.385,6.557,7.603,7.501,7.336,13.013,8.035,6.96
8.467,5.074,4.082,6.684,4.785,12.126,6.261,6.105
7.446,5.085,2.215,6.4,3.368,12.053,4.767,5.515
8.739,6.876,2.578,7.54,3.545,13.47,5.206,5.9
8.691,7.094,1.763,7.251,2.913,13.537,5.372,5.489
5.858,5.125,-2.038,4.259,0.155,10.93,3.363,3.541
3.542,4.07,-5.813,1.709,-2.553,8.396,1.603,2.378
3.202,4.323,-7.421,0.898,-3.948,7.197,1.765,2.722
2.454,3.181,-8.371,-0.698,-5.459,5.304,1.713,2.552
1.449,1.098,-8.716,-3.039,-6.614,2.915,0.828,2.012
2.953,1.409,-6.655,-3.423,-5.38,2.462,0.859,2.641
6.642,4.507,-2.933,-1.862,-2.534,3.95,1.902,3.639
8.755,6.817,-0.367,-0.826,-1.106,5.034,2.198,3.177
7.827,6.491,0.769,-0.751,-1.348,4.96,1.721,1.933
6.652,6.545,2.97,0.24,-0.17,5.388,2.411,2.133
7.016,9.096,6.591,2.302,3.141,6.909,4.26,3.571
7.708,11.711,9.398,3.77,5.822,8.279,5.72,4.549
7.556,11.961,10.304,4.139,6.327,8.83,6.509,4.969
6.612,10.384,9.898,4.218,5.942,9.153,6.923,5.609
5.196,8.426,8.957,4.836,5.858,10.077,6.926,6.302
3.746,6.847,8.282,6.432,5.757,11.807,7.034,6.67
3.237,6.055,8.674,8.833,5.696,14.036,8.031,7.385
3.666,5.813,9.383,10.523,5.85,15.514,9.062,8.334
3.759,5.596,8.462,9.901,5.439,14.744,8.798,8.284
3.089,5.621,5.657,7.551,3.942,12.396,7.66,7.167
2.288,5.829,2.868,5.359,2.114,10.483,6.715,5.909
1.792,5.47,1.811,4.571,1.524,9.839,6.731,5.513
1.007,4.004,1.765,4.848,2.13,9.759,7.622,6.111
-0.284,1.745,0.843,4.69,2.11,9.118,7.91,6.443
-0.943,0.028,-0.874,3.524,0.906,7.874,6.823,5.86
-1.261,-0.949,-2.439,1.967,-0.873,6.674,5.664,5.228
-2.695,-2.669,-4.354,0.275,-3.062,5.307,5.319,5.016
-3.935,-4.753,-6.731,-1.56,-4.963,3.394,4.833,4.618
-2.118,-4.781,-7.947,-3.308,-5.233,1.334,3.893,3.776
1.989,-2.634,-7.805,-5.302,-4.651,-0.864,3.096,2.431
5.284,-0.47,-7.938,-7.599,-5.355,-3.198,2.171,0.695
7.729,1.342,-7.744,-8.702,-6.426,-4.352,1.248,0.066
10.607,3.575,-5.668,-7.86,-5.713,-3.695,1.043,1.041
13.15,5.566,-2.77,-5.81,-3.894,-1.88,1.291,1.871
14.71,6.83,-0.392,-2.548,-2.359,1.177,1.334,1.987
16.099,8.358,2.205,1.895,-0.595,5.318,1.325,2.511
17.542,10.77,5.918,6.167,2.474,9.159,2.093,3.545
17.396,12.93,10.008,9.166,6.392,11.883,3.664,4.086
14.993,13.756,13.309,11.745,9.659,14.275,5.296,4.516
12.41,13.919,15.485,15.045,11.407,16.995,6.651,5.938
10.902,13.982,16.34,17.882,11.741,18.985,7.407,7.382
9.544,13.557,16.168,18.975,11.574,19.618,7.687,7.525
7.471,12.385,16.187,19.184,11.9,20.016,8.174,6.95
5.064,10.241,17.019,19.307,12.96,20.736,8.899,6.848
3.164,7.092,17.473,18.858,13.8,20.86,9.414,7.471
1.533,3.591,15.749,17.45,12.893,19.61,9.384,8.021
-0.468,0.794,12.24,15.634,10.268,17.501,8.626,7.751
-2.499,-0.529,9.185,13.877,7.466,15.344,7.305,6.487
-3.538,-0.257,7.411,11.729,5.586,12.925,6.186,4.596
-3.125,1.098,5.855,8.668,4.333,9.637,5.419,2.747
-2.17,2.502,3.56,5.066,2.578,5.771,3.966,1.218
-1.794,3.057,0.29,1.874,0.042,2.37,1.882,0.052
-2.102,2.443,-3.938,-0.76,-2.853,-0.276,0.213,-0.848
-1.912,1.456,-8.108,-3.084,-5.884,-2.383,-0.8,-1.466
-0.541,1.435,-11.035,-4.859,-8.885,-3.911,-1.427,-1.718
0.289,1.602,-13.44,-7.033,-11.723,-6.049,-2.382,-2.423
-0.181,0.272,-15.732,-10.885,-13.671,-10.013,-3.926,-3.971
0.576,-1.174,-16.333,-14.816,-14.039,-13.979,-4.898,-5.124
4.108,-0.183,-14.906,-16.169,-13.447,-15.259,-4.522,-4.999
7.707,2.217,-13.632,-15.47,-13.095,-14.498,-3.807,-4.69
8.868,3.818,-13.409,-14.766,-13.002,-13.888,-3.674,-5.313
10.646,7.049,-11.313,-12.933,-11.006,-12.31,-2.894,-5.3
15.994,14.743,-5.323,-8.054,-6.084,-7.538,-0.551,-3.075
21.807,23.273,1.805,-1.936,-0.725,-1.289,1.932,-0.164
25.052,27.927,7.562,3.077,3.418,3.647,3.76,1.794
27.225,29.586,13.212,7.924,7.889,8.052,6.098,3.645
30.302,31.512,19.76,14.154,13.97,14,9.626,6.542
33.586,33.964,25.349,20.6,20.122,20.503,12.773,9.512
35.307,34.573,28.582,25.16,24.272,24.934,13.865,11.315
35.058,32.582,30.454,27.739,26.407,27.193,13.728,12.206
33.635,29.872,31.428,29.272,27.088,29,13.591,12.069
31.851,28.274,30.651,30.199,26.197,30.94,13.201,10.751
29.566,27.666,27.735,30.283,23.597,31.855,12.209,9.377
26.184,26.523,23.123,28.53,20.028,30.092,11.052,8.684
22.414,24.238,18.386,24.679,17.334,25.815,10.246,8.178
19.793,22.037,15.186,20.587,16.341,21.511,9.699,7.674
18.285,20.494,12.832,17.986,15.409,18.802,9.11,7.628
16.136,18.004,9.176,15.58,12.709,16.131,8.08,7.246
13.896,14.995,4.737,11.946,9.346,12.29,6.76,5.817
14.227,15.153,2.114,8.704,7.571,9.075,6.072,4.805
15.529,17.655,0.345,5.998,6.136,6.486,5.141,4.385
14.208,17.053,-3.674,1.265,2.458,1.894,2.18,2.53
12.019,13.296,-8.759,-4.509,-2.378,-3.737,-1.744,-0.667
12.157,10.828,-11.681,-7.735,-5.781,-6.965,-4.148,-3.129
12.731,9.723,-13.11,-8.862,-8.023,-8.201,-4.935,-4.592
11.623,7.894,-15.295,-10.52,-10.568,-9.952,-5.513,-5.904
11.269,7.094,-17.426,-12.193,-12.809,-11.811,-6.033,-6.491
12.607,8.688,-17.962,-12.652,-14.145,-12.528,-6.973,-6.486
13.039,10.405,-17.11,-12.748,-15.345,-12.565,-9.457,-7.446
12.508,11.038,-14.811,-12.755,-15.915,-12.024,-12.289,-9.256
12.801,11.061,-11.093,-12.1,-14.872,-10.869,-13.762,-10.695
13.312,10.07,-7.517,-11.141,-13.015,-10.044,-14.139,-11.502
13.005,8.549,-4.9,-9.767,-11.148,-9.218,-13.403,-11.401
13.301,8.579,-1.586,-6.345,-7.893,-6.234,-9.854,-9.052
15.395,10.632,4.028,-0.254,-1.774,-0.379,-2.639,-3.725
17.296,12.456,11.038,6.505,6.189,6.249,6.726,3.307
16.678,12.029,17.285,11.721,13.851,11.42,16.626,10.555
13.335,9.155,21.09,14.574,19.412,14.261,25.609,17.074
8.313,4.81,22.212,15.364,22.049,14.983,31.135,21.727
2.157,-0.225,20.467,14.473,21.078,14.052,30.214,22.589
-6.927,-7.464,13.339,10.245,13.982,10.07,20.507,16.98
-19.219,-17.544,1.103,2.143,1.457,2.481,4.609,6.011
-29.391,-25.729,-9.162,-4.905,-8.818,-4.304,-8.433,-3.452
-32.23,-27.102,-12.042,-5.98,-10.759,-5.638,-11.853,-6.122
-28.64,-22.847,-9.587,-2.212,-6.262,-2.085,-7.774,-3.327
-22.691,-17.136,-5.499,2.722,-0.169,3.29,-1.943,1.069
-17.326,-12.362,-1.308,6.841,4.515,8.233,2.668,4.897
-14.782,-9.823,0.676,8.728,5.703,10.579,4.602,6.494
-15.855,-10.419,-1.886,7.236,2.868,9.008,2.862,4.655
-17.836,-12.589,-6.558,3.57,-0.899,5.332,-0.337,1.312
-17.601,-13.423,-8.56,0.287,-2.213,2.561,-1.166,-0.108
-15.918,-12.626,-8.193,-2,-2.274,0.916,-0.05,0.333
-15.716,-12.548,-9.658,-4.545,-4.627,-1.412,-1.223,-0.596
-16.929,-13.873,-13.037,-7.052,-8.696,-3.981,-4.939,-3.129
-16.924,-14.571,-14.691,-7.62,-11.032,-4.537,-7.102,-4.209
-15.235,-13.841,-14.005,-6.332,-11.415,-3.321,-6.785,-3.474
-13.119,-12.796,-12.834,-5.02,-11.384,-2.311,-5.934,-2.675
-10.934,-11.86,-11.689,-4.298,-10.783,-1.685,-5.174,-2.026
-8.997,-11.367,-10.104,-3.675,-9.308,-0.591,-4.629,-1.447
-8.34,-12.484,-7.67,-3.003,-7.585,0.635,-4.602,-1.56
-8.612,-14.548,-4.013,-1.858,-5.642,1.69,-4.112,-1.78
-7.615,-14.714,0.775,0.962,-2.466,3.89,-1.513,-0.343
-6.063,-13.267,4.803,4.792,0.913,7.34,2.007,2.23
-7.472,-13.873,5.524,6.728,1.459,9.538,3.272,3.351
-11.087,-16.55,3.614,6.026,-0.421,9.408,2.427,2.7
-12.376,-17.61,2.525,5.037,-0.944,8.766,2.479,2.428
-10.081,-15.879,4.098,5.541,1.357,9.324,4.427,3.847
-7.728,-13.67,6.748,6.669,4.126,10.579,6.558,5.833
-8.623,-13.157,7.619,6.217,4.728,10.454,7.432,6.551
-11.772,-13.836,5.885,3.555,3.021,8.031,6.939,5.597
-13.818,-13.752,3.529,0.695,0.941,5.156,5.697,3.913
-13.685,-12.645,2.38,-0.391,0.234,3.948,4.912,2.905
-13.882,-12.595,1.238,-0.891,-0.16,3.377,4.481,2.578
-15.899,-14.272,-1.325,-2.453,-2.143,1.868,3.104,1.843
-17.359,-14.975,-3.735,-3.211,-4.523,1.351,1.457,1.53
-16.625,-13.366,-4.697,-1.666,-5.448,3.224,1.055,2.842
-15.139,-11.883,-5.385,-0.434,-5.584,4.623,1.279,4.12
-14.529,-12.556,-6.777,-2.084,-6.354,2.936,0.491,3.126
-14.786,-14.272,-8.095,-4.985,-7.354,0.007,-0.917,0.994
-14.9,-14.93,-8.115,-5.863,-6.945,-0.768,-0.967,0.379
-14.612,-14.905,-6.968,-4.779,-5.15,0.419,0.251,1.055
-14.334,-15.832,-5.378,-4.186,-3.287,1.024,1.166,1.424
-13.641,-16.8,-3.375,-4.584,-1.607,0.783,1.861,1.657
-11.406,-15.738,-1.3,-4.807,0.147,0.971,2.991,2.353
-8.282,-13.452,-0.401,-4.863,1.106,1.135,3.635,2.842
-6.983,-12.503,-1.17,-5.634,0.402,0.103,2.852,2.419
-7.749,-12.763,-1.76,-6.378,-0.471,-0.856,1.992,2.084
-7.975,-12.25,-0.17,-5.243,0.53,0.662,2.936,3.185
-6.767,-11.02,2.747,-2.291,3.007,4.183,5.374,5.455
-5.479,-10.309,4.858,0.29,5.331,6.825,7.343,7.419
-5.374,-10.143,5.766,1.14,6.805,7.379,7.589,7.855
-6.649,-9.879,6.295,1.071,7.518,7.19,6.788,7.046
-8.747,-9.782,6.316,0.879,7.297,7.051,5.737,5.797
-10.225,-10.189,5.759,0.656,6.765,6.826,4.729,4.62
-9.918,-10.224,5.529,0.906,7.021,7.057,4.298,4.128
-9.345,-9.987,5.056,1.217,6.725,7.461,3.938,3.947
-10.236,-10.716,3.321,0.649,4.753,7.134,3.071,3.565
-11.284,-11.787,1.992,-0.031,3.58,6.727,2.687,3.854
-10.72,-11.616,3.125,0.428,5.082,7.29,3.73,5.467
-9.613,-10.752,5.369,1.41,6.666,8.094,5.37,7.211
-9.767,-10.78,5.73,1.29,5.291,7.545,5.561,7.267
-9.428,-10.62,4.515,0.489,2.976,6.387,4.23,6.266
-6.6,-8.39,4.139,0.345,2.911,6.313,3.485,6.177
-4.336,-6.102,3.98,-0.441,3.187,5.647,3.633,6.333
-5.927,-6.923,1.88,-3.395,0.888,2.353,3.281,5.109
-9.397,-10.101,-1.709,-6.861,-2.568,-1.375,2.225,3.329
-11.062,-12.406,-4.769,-8.698,-4.652,-2.729,0.958,2.37
-10.158,-12.073,-6.097,-9.064,-5.271,-2.38,-0.363,1.796
-7.968,-9.741,-5.523,-8.749,-4.96,-1.891,-1.03,1.291
-6.505,-7.879,-4.439,-8.273,-4.207,-1.608,-1.024,1.127
-7.417,-8.61,-4.763,-8.298,-4.004,-1.689,-1.537,0.729
-8.94,-10.152,-5.562,-7.868,-3.697,-1.205,-1.879,0.4
-8.284,-9.467,-4.999,-5.71,-2.379,0.917,-0.862,0.888
-6.066,-7.485,-3.917,-3.357,-1.433,3.18,0.169,1.432
-4.091,-6.516,-3.074,-2.707,-1.382,3.67,0.11,1.469
-2.896,-6.489,-1.517,-3.165,-0.678,2.984,0.016,1.454
-2.452,-6.592,0.757,-3.23,1.12,2.868,0.77,1.882
-2.623,-7.141,2.422,-2.794,2.589,3.499,1.381,2.488
-3.214,-8.608,2.789,-2.814,2.962,3.714,0.836,2.519
-4.142,-9.738,2.568,-3.082,3.332,3.605,0.102,2.277
-5.277,-8.889,2.91,-2.47,4.552,4.171,0.462,2.768
-6.494,-7.513,3.493,-1.812,5.348,4.445,1.227,3.401
-8.398,-8.754,1.979,-3.727,3.441,2.021,0.077,1.862
-10.954,-12.262,-2.246,-8.306,-0.882,-2.823,-3.489,-1.852
-12.027,-14.277,-5.909,-12.054,-4.296,-6.43,-6.536,-4.201
-10.008,-12.975,-6.619,-12.612,-5.033,-6.475,-6.775,-3.418
-6.588,-10.379,-5.927,-11.302,-4.543,-4.512,-5.06,-1.627
-5.719,-9.478,-6.676,-10.826,-5.203,-3.761,-3.827,-1.481
-8.738,-10.941,-9.802,-12.234,-8.086,-5.622,-4.941,-3.485
-12.124,-12.65,-13.231,-14.024,-11.489,-8.072,-7.739,-5.949
-12.733,-12.919,-14.877,-14.69,-13.176,-8.683,-10.067,-7.222
-10.977,-11.905,-15.226,-14.403,-13.199,-7.73,-10.485,-6.988
-8.01,-9.655,-15.089,-13.567,-12.566,-6.711,-9.099,-5.912
-4.138,-6.1,-13.944,-12.298,-11.278,-5.923,-7.546,-5.02
0.069,-2.096,-11.644,-11.041,-9.162,-4.721,-6.914,-4.63
2.97,0.949,-9.438,-10.51,-7.339,-3.559,-6.609,-4.451
3.754,2.312,-8.082,-10.644,-6.658,-3.475,-6.063,-4.197
3.89,2.73,-6.54,-10.264,-5.949,-3.634,-5.468,-3.558
4.514,3.001,-4.002,-9.03,-3.838,-2.79,-4.661,-2.522
4.343,2.629,-1.512,-8.426,-0.971,-2,-3.513,-1.962
2.19,1.115,-0.389,-9.537,0.983,-2.955,-3.127,-2.906
-0.341,-0.449,0.019,-11.073,1.819,-4.87,-3.802,-4.442
-1.334,-0.62,1.058,-10.975,2.186,-5.335,-4.003,-4.603
-1.141,0.706,2.178,-9.185,2.076,-3.669,-3.233,-3.414
-0.604,2.725,2.208,-7.122,1.613,-1.333,-2.626,-2.311
-0.126,3.895,1.233,-5.772,0.866,0.123,-2.714,-1.855
-0.498,2.477,-0.508,-6.099,-0.902,-0.37,-3.398,-2.108
-2.44,-1.378,-3.297,-9.061,-4.069,-3.213,-5.095,-3.487
-5.194,-5.254,-6.625,-13.019,-7.389,-6.566,-7.179,-5.104
-7.112,-7.315,-9.493,-14.872,-9.566,-7.907,-8.028,-5.371
-8.231,-8.431,-11.984,-14.896,-11.263,-7.934,-8.164,-5.082
-9.862,-9.896,-14.343,-15.56,-13.169,-8.875,-9.181,-5.771
-11.952,-11.463,-15.943,-17.107,-14.561,-10.705,-11.039,-7.262
-12.503,-12.186,-15.757,-17.831,-14.364,-11.645,-12.356,-8.395
-10.35,-11.042,-13.428,-16.865,-12.187,-10.751,-11.755,-8.121
-7.227,-7.925,-10.421,-15.069,-9.199,-8.935,-9.352,-6.604
-3.741,-3.216,-7.897,-12.582,-6.266,-6.381,-6.03,-4.384
1.509,2.626,-5.394,-8.647,-3.021,-2.212,-2.558,-1.681
7.359,7.54,-3.13,-4.627,0.014,2.103,0.165,0.712
11.733,10.009,-1.757,-2.588,2.083,4.175,1.663,1.96
14.702,11.349,-1.175,-2.305,3.326,4.128,1.444,1.747
16.932,13.712,-0.607,-1.901,4.306,4.022,0.143,0.963
19.044,17.964,1.514,0.075,5.866,5.718,0.334,1.393
21.768,23.063,5.611,3.126,8.29,9.075,2.679,3.192
25.043,27.228,9.419,5.57,10.51,12.081,4.74,4.73
27.726,29.177,10.452,6.451,10.932,13.107,4.835,4.937
29.118,28.898,9.434,6.463,9.961,12.81,3.98,4.499
29.733,28.185,8.888,6.677,9.668,12.811,3.338,4.435
29.716,27.893,8.483,6.304,9.689,12.54,2.393,4.365
28.044,26.075,5.767,4.02,7.427,10.311,0.715,3.357
24.708,21.991,1.411,0.894,3.142,7.031,-1.051,1.594
22.501,18.948,-0.46,-0.439,1.051,5.537,-1.796,0.645
22.992,19.22,1.693,0.51,3.302,6.302,-0.934,1.379
23.089,19.676,4.286,1.222,6.377,6.719,0.473,2.339
19.715,16.872,3.945,-0.109,6.365,5.093,0.698,1.703
14.61,12.689,1.887,-2.158,4.403,2.816,-0.025,0.05
12.134,11.275,1.313,-2.657,4.122,2.319,0.343,-0.213
12.708,12.301,1.863,-2.171,5.141,3.158,1.327,0.865
11.75,11.239,0.363,-3.395,3.869,2.081,0.249,0.628
6.992,6.612,-3.097,-6.374,0.278,-1.395,-2.35,-1.233
1.009,0.992,-6.271,-9.108,-2.95,-4.522,-4.173,-3.139
-3.817,-4.183,-9.267,-11.499,-5.271,-6.553,-5.535,-5.038
-7.6,-9.086,-12.42,-14.061,-7.241,-8.659,-7.552,-7.367
-11.196,-13.292,-14.544,-15.94,-8.63,-10.7,-9.576,-9.306
-14.762,-15.918,-15.446,-16.742,-9.589,-11.997,-10.705,-10.048
-17.54,-16.779,-15.68,-17.305,-10.446,-12.762,-11.165,-10.084
-18.865,-17.283,-14.852,-17.865,-10.515,-13.147,-11.075,-10.085
-20.093,-19.71,-13.914,-18.247,-10.118,-13.452,-10.846,-10.672
-22.681,-23.987,-14.929,-18.812,-10.896,-14.277,-11.607,-12.105
-24.986,-26.896,-16.868,-19.167,-12.626,-14.74,-13.014,-13.129
-25.401,-26.899,-17.717,-18.865,-14.073,-14.065,-13.875,-13.101
-25.158,-26.135,-18.401,-19.114,-15.373,-13.992,-14.251,-13.221
-25.276,-25.946,-19.624,-20.531,-16.54,-15.609,-14.259,-13.777
-25.047,-25.238,-19.633,-21.532,-16.405,-17.063,-13.139,-13.578
-24.869,-24.328,-18.268,-21.611,-15.246,-17.416,-11.59,-12.941
-26.559,-25.564,-18.53,-22.86,-15.657,-18.55,-12.122,-13.771
-29.766,-28.753,-21.496,-25.803,-18.176,-21.024,-14.934,-15.887
-32.432,-31.058,-24.312,-27.918,-20.142,-22.721,-17.18,-17.262
-33.23,-31.066,-24.642,-27.582,-19.976,-22.319,-16.881,-17.141
-30.745,-28.581,-22.893,-25.584,-18.4,-20.469,-14.649,-16.002
-25.186,-24.04,-20.558,-23.433,-17,-18.8,-12.722,-14.746
-20.568,-20.172,-19.21,-22.665,-17.539,-19.057,-12.977,-14.51
-20.852,-20.277,-20.259,-24.473,-20.66,-21.724,-15.404,-15.843
-24.762,-24.01,-23.129,-27.708,-24.333,-24.761,-18,-17.465
-27.296,-27.033,-24.391,-28.497,-25.152,-24.735,-18.275,-17.026
-26.603,-26.765,-22.267,-25.423,-22.604,-21.326,-16.558,-14.861
-25.456,-25.664,-19.743,-22.348,-19.941,-18.67,-15.681,-13.968
-25.607,-26.092,-19.444,-22.343,-19.392,-19.429,-16.339,-15.18
-24.77,-26.028,-18.984,-22.987,-18.886,-20.773,-15.857,-15.891
-20.576,-22.406,-14.893,-20.704,-15.43,-18.861,-11.842,-13.705
-14.593,-15.762,-7.967,-15.694,-9.278,-13.894,-4.542,-8.56
-9.916,-9.262,-1.707,-10.178,-2.808,-8.377,4.545,-1.523
-7.639,-5.037,1.865,-5.507,1.64,-3.815,13.01,5.443
-7.162,-3.576,3.009,-2.645,3.037,-1.022,17.829,9.95
-8.049,-5.015,1.871,-2.784,1.705,-1.236,17.353,10.803
-11.258,-9.337,-3.443,-6.811,-3.517,-5.651,10.557,7.062
-17.475,-15.844,-13.899,-14.442,-14.164,-13.764,-2.831,-1.831
-24.014,-22.208,-25.383,-22.848,-26.705,-22.147,-18.332,-12.975
-25.961,-24.744,-31.497,-27.39,-33.889,-26.393,-27.933,-20.38
-22.395,-22.298,-30.661,-26.294,-33.285,-25.594,-28.65,-21.076
-17.816,-18.102,-26.342,-22.395,-28.916,-22.613,-24.621,-17.864
-15.123,-14.924,-21.143,-18.505,-23.928,-19.373,-19.605,-13.949
-13.191,-12.391,-16.226,-15.369,-19.072,-16.174,-14.799,-10.441
-10.88,-9.736,-13.37,-13.452,-15.903,-13.984,-11.863,-8.583
-8.438,-7.158,-12.684,-12.768,-14.994,-13.308,-11.548,-8.802
-6.602,-5.321,-12.042,-12.603,-14.488,-13.339,-12.037,-9.493
-5.345,-4.204,-9.887,-11.771,-12.44,-12.805,-10.89,-8.702
-4.469,-3.093,-6.89,-9.62,-9.413,-11.048,-8.34,-6.639
-4.457,-2.306,-4.736,-7.439,-7.442,-9.06,-6.693,-5.126
-4.255,-2.195,-3.344,-6.365,-6.34,-7.91,-6.055,-4.422
-2.109,-1.879,-1.633,-5.704,-4.86,-7.419,-5.025,-3.723
0.653,-1.21,-0.184,-4.775,-3.872,-7.247,-3.801,-3.105
1.209,-1.132,0.071,-3.743,-4.304,-7.019,-3.078,-2.826
0.266,-1.112,0.173,-2.598,-4.464,-5.991,-2.701,-2.611
0.316,0.058,0.954,-1.487,-3.168,-4.547,-2.699,-2.545
0.567,1.359,1.058,-1.302,-2.317,-4.191,-3.124,-3.051
-0.292,1.955,0.451,-1.594,-2.524,-4.367,-2.669,-3.114
-1.078,2.813,0.857,-0.729,-2.06,-3.287,-1.198,-2.017
-1.378,3.304,1.44,0.767,-1.428,-1.817,-1.225,-1.542
-2.523,1.644,-0.087,0.808,-2.611,-2.047,-3.497,-2.959
-4.596,-1.275,-2.827,-0.829,-4.843,-3.782,-5.368,-5.003
-5.369,-2.3,-3.256,-1.799,-5.147,-4.606,-4.457,-5.603
-4.151,-0.813,-0.566,-0.432,-3.268,-3.201,-1.704,-4.266
-3.784,0.113,2.013,1.847,-2.129,-1.151,-0.18,-2.676
-6.365,-1.214,2.232,3.057,-2.615,-0.011,-0.959,-2.452
-9.998,-2.935,1.601,3.404,-2.713,0.739,-1.715,-2.887
-10.478,-2.803,2.669,4.316,-0.845,2.025,-0.068,-1.894
-6.71,-1.328,5.022,5.623,1.913,3.099,2.507,0.204
-2.736,-1.04,5.965,5.345,2.97,2.124,3.102,0.82
-1.653,-2.291,5.272,3.157,2.138,-0.598,2.231,-0.311
-1.827,-2.852,4.984,1.274,1.571,-2.522,1.866,-1.075
-0.667,-1.789,5.611,1.253,2.03,-2.398,2.056,-0.516
1.415,-0.23,6.289,2.29,2.478,-1.57,2.098,0.226
2.004,0.807,6.69,2.906,2.578,-1.632,2.088,-0.027
-0.206,0.523,6.448,2.497,2.321,-2.636,1.64,-1.382
-4.072,-1.701,5.006,1.474,0.832,-3.641,-0.31,-3.534
-6.548,-3.855,3.42,1.411,-1.189,-3.138,-2.281,-4.997
-6.358,-3.233,2.513,2.812,-2.383,-1.055,-2.137,-4.572
-5.546,-1.058,1.091,3.765,-3.61,0.135,-1.263,-3.524
-5.698,-0.426,-0.431,3.451,-5.096,-0.494,-1.252,-2.973
-7.01,-2.649,-0.242,2.729,-5.33,-1.349,-1.365,-2.801
-9.27,-6.75,1.078,1.614,-3.931,-1.961,-1.032,-3.191
-11.061,-9.923,2.096,0.358,-1.942,-2.615,-0.503,-3.926
-10.58,-9.832,3.069,0.415,-0.076,-2.395,0.472,-3.677
-7.753,-6.769,4.504,2.305,1.755,-0.637,2.168,-1.819
-5.056,-3.596,5.508,4.543,2.993,1.387,3.507,0
-4.962,-3.031,5.045,5.532,2.501,2.072,3.375,0.239
-6.803,-4.358,3.361,5.108,0.323,1.48,1.855,-0.525
-8.163,-5.286,1.442,3.749,-2.198,0.303,-0.347,-1.443
-8.014,-5.454,0.547,2.13,-3.558,-1.096,-1.904,-2.326
-6.693,-5.233,1.625,1.426,-3.082,-1.956,-1.667,-2.529
-4.503,-4.296,4.135,2.092,-1.142,-1.708,0.191,-1.295
-2.145,-3.081,6.419,2.897,1.111,-1.208,2.282,0.511
-0.149,-2.215,7.716,3.034,2.63,-1.369,3.43,1.513
1.47,-1.214,8.055,3.118,2.968,-1.969,3.876,1.745
1.384,-0.689,6.489,2.666,1.707,-3.22,3.62,1.032
-0.705,-1.791,3.025,0.94,-0.42,-5.204,1.975,-0.832
-2.225,-2.822,0.295,-0.401,-1.531,-6.282,-0.103,-2.314
-1.447,-1.154,0.137,0.336,-1.199,-5.356,-0.58,-2.031
1.005,2.672,1.265,2.103,-0.675,-3.634,0.532,-0.685
3.734,5.811,1.755,2.942,-0.963,-2.78,1.267,0.216
5.749,7.142,1.808,2.92,-1.552,-2.845,0.953,0.321
6.042,7.232,2.103,3.189,-1.608,-2.984,0.321,-0.139
3.982,5.842,1.988,3.805,-1.339,-2.888,-0.329,-0.913
1.676,3.734,1.682,4.669,-0.97,-2.181,-0.57,-0.967
2.428,3.687,2.61,6.479,-0.119,-0.189,0.011,0.182
6.323,6.576,4.706,9.179,1.482,2.547,0.803,1.413
9.629,9.274,5.961,10.679,2.766,3.722,0.633,1.235
9.912,9.098,5.844,9.884,2.92,2.736,-0.124,0.122
9.233,7.925,6.722,9.293,3.515,2.439,0.57,0.337
9.362,8.367,8.954,10.223,5.059,3.674,2.333,1.638
9.167,9.558,9.459,10.361,5.469,3.721,2.424,1.648
8.042,9.615,7.337,9.056,4.071,2.224,0.929,0.648
6.741,8.601,4.852,8.424,2.312,1.748,0.58,0.632
5.168,7.52,2.486,8.432,0.316,2.141,0.971,0.838
3.069,6.87,-0.738,7.19,-2.606,0.916,-0.767,-0.642
2.306,7.196,-2.71,5.786,-4.363,-0.823,-2.971,-2.102
3.914,8.583,-1.493,6.263,-3.358,-0.29,-2.145,-1.343
5.414,9.786,-0.172,6.924,-2.48,0.649,-0.242,-0.343
4.804,9.646,-1.651,5.459,-4.215,-1.301,-0.652,-1.274
3.191,8.314,-4.055,3.13,-6.922,-4.552,-2.273,-2.651
2.592,7.442,-4.774,2.269,-8.018,-5.54,-2.51,-2.384
3.497,8.615,-4.026,2.704,-7.038,-4.463,-1.683,-1.27
4.996,10.654,-3.223,2.93,-5.205,-3.807,-1.37,-1.158
5.807,10.716,-3.119,2.366,-4.236,-4.557,-1.576,-2.015
4.942,8.2,-3.988,1.114,-5.243,-6.29,-1.871,-2.888
3.174,5.546,-5.249,-0.298,-7.211,-7.968,-2.383,-3.299
1.957,4.349,-5.876,-1.482,-8.737,-8.965,-3.356,-3.557
1.568,3.682,-5.692,-2.666,-9.875,-9.85,-4.631,-4.175
2.458,3.686,-4.652,-3.181,-9.844,-10.318,-5.097,-4.481
4.796,5.738,-2.507,-1.785,-7.526,-8.981,-4.122,-3.71
6.577,8.698,-0.337,0.741,-4.637,-6.621,-3.035,-2.77
6.103,10.278,0.657,2.701,-3.204,-5.219,-2.845,-2.634
6.051,11.737,2.657,5.285,-0.94,-3.172,-1.561,-1.661
9.165,15.022,7.434,9.703,4.121,1.531,1.741,1.459
11.196,16.52,10.114,12.214,7.216,4.845,3.018,3.326
7.977,12.869,6.601,10.336,4.295,3.177,0.287,1.289
3.668,8.286,1.676,8.134,-0.535,0.462,-2.441,-1.275
2.906,7.21,0.404,8.437,-2.322,0.435,-2.606,-1.156
3.862,7.65,0.54,8.751,-1.974,1.056,-2.126,-0.219
3.864,6.698,-0.682,7.778,-2.026,0.702,-2.645,-0.821
3.93,5.304,-1.215,7.893,-1.979,1.254,-3.054,-1.47
4.628,4.707,-0.282,9.406,-1.24,2.691,-2.527,-0.752
4.138,3.786,-1.304,8.971,-1.429,1.793,-2.341,-0.636
2.646,2.523,-4.648,6.243,-2.413,-1.191,-2.529,-1.712
2.39,2.912,-6.023,5.445,-1.77,-1.798,-1.352,-1.345
3.289,4.736,-4.157,7.556,0.513,0.623,0.937,0.976
2.962,4.668,-2.637,7.948,1.463,1.288,1.775,2
1.073,1.363,-2.876,4.956,0.347,-1.471,0.651,0.498
0.154,-1.892,-1.746,3.204,0.325,-3.279,0.291,-0.244
1.431,-1.979,2.471,5.469,3.136,-1.377,2.122,1.861
3.794,0.43,7.644,9,6.963,1.905,4.879,4.836
5.403,2.601,10.668,10.38,9.158,3.306,6.642,5.902
4.781,2.687,10.549,9.263,8.673,2.298,6.303,4.835
2.368,1.434,9.462,7.991,6.848,1.258,5.018,3.966
-0.56,0.219,8.897,8.011,4.91,1.699,4.265,4.082
-2.565,-0.299,8.348,8.789,3.512,2.732,3.96,4.051
-1.81,1.073,8.831,10.559,4.373,4.324,4.276,4.53
1.462,4.55,11.542,14.467,7.658,7.848,6.055,7.077
4.838,8.174,14.675,20.153,10.47,13.126,8.901,10.931
6.377,9.732,15.569,24.58,10.637,17.1,10.859,13.367
6.014,9.003,14.377,25.09,9.458,17.329,11.365,13.625
5.08,7.999,13.062,23.225,8.831,15.628,11.759,13.701
4.4,7.939,11.899,21.999,8.31,14.798,12.052,14.27
4.147,8.2,10.291,21.672,7.377,14.579,11.354,14.053
5.626,9.238,9.696,21.461,7.579,14.028,10.563,13.188
9.839,12.066,11.551,21.771,9.833,13.897,11.108,13.209
14.087,14.764,13.643,22.438,11.761,14.396,11.992,13.781
15.541,15.363,13.741,23.006,11.802,15.173,11.964,13.869
16.106,16.054,13.873,24.381,12.676,16.922,12.445,14.517
17.997,18.561,16,26.572,15.982,19.224,14.232,16.054
19.829,20.475,18.755,28.085,19.273,20.446,15.906,17.028
19.444,19.732,20.312,28.248,20.313,20.343,16.431,16.772
16.745,17.445,20.464,27.224,19.616,19.45,15.572,15.278
13.995,15.571,20.824,25.512,19.577,18.093,13.816,13.057
13.67,15.074,23.386,24.469,22.017,17.347,12.8,11.817
15.549,15.789,27.374,25.091,25.664,18.186,13.56,12.566
16.638,16.179,29.457,26.124,27.087,19.352,14.637,13.704
15.335,15.02,28.553,25.933,25.385,19.141,14.203,13.476
13.358,13.257,26.79,24.887,23.091,17.938,12.578,12.35
12.063,11.989,25.037,23.629,21.42,16.599,10.622,10.922
11.458,11.273,22.855,22.588,19.916,15.867,9.061,9.447
11.628,10.934,21.258,22.987,19.266,16.766,9.058,8.989
11.653,10.194,20.808,24.642,19.503,18.374,10.294,9.611
9.858,8.337,19.658,24.984,18.597,18.086,10.786,9.823
6.435,5.983,16.357,22.415,15.698,15.215,9.859,8.96
4.019,4.597,12.608,18.394,12.977,11.691,8.838,7.864
3.967,4.472,10.787,14.822,12.077,8.891,8.047,6.657
4.411,4.005,10.734,11.834,12.023,6.29,6.609,4.674
3.707,2.084,10.856,8.974,11.652,3.281,5.016,2.417
2.383,-0.429,9.98,6.371,10.672,0.333,3.937,0.799
1.811,-1.756,8.194,4.868,9.583,-1.236,3.136,0.336
2.723,-0.835,6.687,4.778,9.252,-1.066,2.671,0.942
4.647,1.265,6.094,4.62,9.554,-0.89,2.654,1.396
5.722,1.694,5.173,2.741,9.058,-2.309,2.412,0.531
3.601,-1.113,2.025,-0.311,6.076,-4.748,0.821,-1.58
-0.721,-4.621,-2.411,-1.956,1.404,-6.109,-1.562,-3.48
-2.871,-5.073,-4.699,-0.852,-1.586,-5.224,-2.325,-3.705
-0.092,-1.834,-3.034,1.803,-0.487,-2.704,0.378,-1.693
7.032,4.138,2.151,5.831,4.799,1.444,6.85,3.341
15.423,11.742,9.753,12.463,12.537,7.913,15.915,11.491
21.274,17.958,18.072,20.101,20.226,15.082,25.448,20.334
22.923,19.377,24.415,24.824,25.712,19.613,32.152,25.992
20.506,15.314,25.393,24.759,26.435,19.805,31.223,25.487
13.002,6.606,18.795,19.648,19.426,15.183,19.854,17.853
0.803,-4.987,7.33,10.185,6.124,6.212,2.529,5.466
-8.896,-13.871,-0.472,1.614,-4.148,-2.223,-9.984,-4.788
-8.65,-14.05,1.311,0.204,-3.592,-3.985,-11.349,-7.127
-0.705,-6.391,8.712,5.046,4.091,0.422,-5.686,-3.212
7.533,3.107,14.461,10.537,10.669,5.739,0.542,1.659
11.827,9.347,15.948,13.322,12.898,8.516,4.738,4.311
12.477,11.19,14.315,13.206,11.815,8.371,6.055,4.244
12.154,11.287,11.625,11.475,9.361,6.628,4.503,2.581
12.74,12.277,9.485,9.757,7.03,5.088,2.078,1.125
14.572,14.502,8.443,9.355,5.712,4.994,1.435,1.119
17.239,16.828,8.126,10.197,5.549,5.954,2.621,1.911
19.696,17.838,7.998,10.878,6.29,6.459,3.373,2.167
20.396,17.153,7.761,10.704,7.325,6.125,2.551,1.804
18.563,15.404,7.398,10.358,7.809,5.828,1.756,1.713
15.573,13.496,7.604,10.428,8.162,5.891,3.078,2.687
12.622,11.643,8.264,9.925,8.897,5.322,5.096,3.819
8.566,8.663,7.044,7.191,8.422,2.858,4.562,3.127
2.671,3.913,2.388,2.44,5.075,-1.578,1.458,0.393
-2.148,-0.121,-2.746,-1.552,0.988,-5.816,-0.816,-1.931
-1.87,-0.185,-3.876,-2.113,0.408,-6.735,0.608,-1.072
2.306,2.237,-2.19,-0.587,2.695,-4.994,3.868,1.865
5.429,2.956,-2.374,-0.492,3.243,-4.502,4.577,3.008
5.447,1.421,-4.748,-2.158,1.082,-6.028,2.27,1.396
3.684,-0.151,-6.623,-3.143,-1.138,-6.73,0.013,-0.53
2.623,-0.21,-6.774,-1.491,-1.377,-4.475,-0.263,-0.65
3.797,1.215,-5.115,2.621,0.523,-0.055,0.967,0.905
5.546,2.467,-2.425,6.632,2.834,3.641,2.396,2.824
4.741,1.697,-0.399,8.002,3.445,4.648,3.248,4.09
1.119,-1.272,0.535,7.056,2.882,3.86,3.901,4.478
-1.909,-4.092,1.924,6.45,3.826,3.586,5.259,4.674
-1.682,-3.94,4.39,7.643,6.542,4.586,6.712,5.099
0.431,-1.282,6.441,9.394,8.349,5.686,6.902,5.57
1.655,0.891,6.705,9.857,7.688,5.652,5.737,5.862
2.293,1.622,5.682,8.518,5.839,4.2,3.98,5.612
4.719,2.514,5.116,6.155,4.836,1.971,2.674,4.655
8.348,4.026,5.46,3.667,4.675,-0.304,2.23,3.175
10.3,5.251,5.251,1.687,3.834,-2.132,2.06,1.821
10.023,6.531,3.481,0.926,1.578,-2.862,1.534,1.232
9.785,9.072,1.061,1.618,-1.272,-2.321,0.645,1.234
11.282,12.863,-0.722,2.887,-3.484,-1.324,-0.222,1.201
13.14,16.059,-2.635,3.096,-5.613,-1.169,-1.511,0.222
13.7,17.246,-5.816,1.482,-8.582,-2.383,-3.573,-1.878
14.017,17.685,-8.644,-0.624,-10.886,-3.989,-5.258,-3.748
15.642,18.973,-8.6,-1.257,-10.432,-4.555,-5.284,-4.107
18.342,20.732,-5.274,0.186,-6.862,-3.246,-3.284,-2.831
20.917,22.374,-0.172,3.051,-1.445,-0.116,-0.107,-0.661
22.978,24.41,4.87,6.911,4.04,4.165,2.983,1.813
24.415,26.709,8.592,11.554,8.392,8.749,5.585,4.387
23.885,27.188,10.295,15.559,10.746,12.305,7.126,6.254
20.772,24.415,10.177,17.361,10.703,13.835,6.757,6.488
17.081,20.322,9.593,17.559,9.489,14.241,5.314,5.655
14.994,17.773,9.927,18.039,9.141,15.196,5.017,5.669
13.792,16.428,10.763,19.137,9.519,16.638,6.175,6.924
11.445,13.848,10.418,19.405,8.94,16.999,6.796,7.538
7.929,10.02,8.812,18.058,7.792,15.63,6.22,6.755
4.519,7.215,7.604,16.134,7.718,13.693,5.735,5.925
2.097,6.035,7.537,15.12,8.864,12.691,6.321,6.112
0.463,4.6,7.328,14.655,9.705,12.26,7.251,6.4
-1.459,1.921,5.86,13.046,8.882,10.719,6.812,5.371
-3.504,-0.014,4.448,10.509,7.316,8.065,5.166,3.849
-4.376,0.329,4.245,8.762,6.592,5.852,4.375,3.503
-3.875,1.114,3.839,7.927,6.191,4.745,5.077,4.177
-3.035,0.264,2.227,6.614,4.826,3.831,5.451,4.475
-2.423,-1.028,0.73,4.463,2.987,2.35,4.57,4.11
-1.966,-0.801,-0.085,2.586,1.512,0.822,3.657,3.814
-2.385,-0.234,-2.044,1.109,-0.929,-0.746,2.261,2.703
-3.299,-0.568,-5.12,-0.565,-4.631,-2.645,-0.434,0.203
-2.53,-0.211,-6.57,-2.271,-6.85,-4.347,-2.434,-1.739
-0.259,1.11,-6.449,-4.423,-6.709,-6.247,-2.783,-2.451
1.228,1.631,-7.391,-7.352,-6.651,-8.926,-3.16,-3.365
2.019,1.605,-9.129,-9.938,-7.837,-11.496,-4.389,-4.633
4.743,3.491,-8.399,-10.911,-7.833,-12.712,-5.117,-5.031
9.787,8.182,-4.125,-9.531,-4.745,-11.583,-4.322,-4.591
13.801,12.898,0.928,-5.775,-0.702,-7.692,-2.971,-4.147
14.612,14.534,4.635,-0.963,1.945,-2.244,-1.921,-3.195
13.281,13.248,7.327,2.992,3.615,2.484,-1.104,-1.531
11.572,11.421,9.51,5.866,5.545,5.818,-0.372,-0.004
9.952,10.593,10.999,8.763,7.744,8.636,0.242,1.026
7.398,9.664,11.305,11.132,8.978,10.535,0.341,1.342
3.831,7.057,10.754,11.677,8.998,10.773,0.315,1.121
0.807,3.632,10.688,11.122,9.223,10.411,1.109,1.14
-1.039,1.21,11.525,11.021,10.469,10.696,2.425,1.537
-2.67,-0.289,11.909,11.313,11.616,11.08,3.12,1.693
-4.213,-1.619,10.926,10.981,11.516,10.458,3.083,1.578
-4.433,-1.863,9.47,9.734,10.763,8.861,3.091,1.741
-4.07,-1.077,7.811,7.237,9.526,6.223,2.863,1.429
-5.274,-1.92,4.807,3.011,6.841,2.029,1.723,-0.519
-7.119,-4.992,0.599,-1.844,3.197,-2.773,0.114,-3.299
-6.634,-6.838,-2.893,-4.884,0.605,-5.744,-0.948,-4.663
-4.782,-5.701,-5.151,-5.232,-0.78,-5.864,-1.425,-3.812
-6.083,-4.823,-7.929,-5.097,-3.403,-5.391,-2.769,-2.973
-10.153,-6.264,-11.003,-6.15,-7.172,-6.236,-5.003,-3.706
-11.778,-7.595,-11.941,-7.342,-8.816,-7.364,-6.317,-4.713
-10.145,-7.691,-11.026,-8.305,-7.961,-8.371,-6.598,-5.265
-8.552,-8.323,-10.593,-10.024,-7.025,-10.293,-6.927,-6.07
-7.675,-9.707,-10.749,-12.064,-6.487,-12.518,-7.293,-6.992
-6.191,-10.252,-10.017,-13.128,-5.457,-13.614,-7.331,-7.155
-4.791,-9.625,-8.688,-13.523,-4.819,-14,-7.791,-7.113
-4.369,-8.26,-7.858,-14.001,-5.478,-14.443,-9.05,-7.775
-3.572,-5.587,-6.694,-13.258,-5.846,-13.709,-9.403,-7.84
-2.175,-2.18,-4.578,-10.297,-4.866,-11.066,-8.2,-6.504
-1.329,0.122,-2.411,-6.741,-3.232,-7.938,-6.897,-4.983
-0.67,1.222,-0.452,-4.377,-1.395,-5.408,-5.76,-3.736
-0.207,1.51,1.105,-3.546,-0.161,-3.835,-4.483,-2.664
-0.381,1.163,2.113,-3.19,0.369,-3.039,-3.535,-1.874
-0.07,1.522,3.478,-1.827,1.793,-1.761,-2.592,-0.929
1.127,3.07,4.989,-0.074,4.044,-0.038,-1.246,0.103
1.985,4.605,5.415,0.213,5.011,0.379,-0.44,0.216
2.482,5.316,5.332,-0.917,4.517,-0.854,-0.56,-0.765
3.812,5.468,6.05,-2.156,4.366,-2.429,-0.896,-1.922
5.576,5.587,7.14,-3.011,4.74,-3.539,-1.382,-2.745
6.052,5.795,7.367,-3.393,4.461,-4.047,-1.908,-2.964
4.265,5.291,5.993,-3.446,3.254,-4.183,-2.372,-2.833
1.083,3.142,3.261,-3.881,1.757,-4.564,-3.367,-3.572
-0.802,0.642,1.109,-4.667,0.979,-5.154,-4.39,-5.035
-0.318,-0.148,1.001,-5.034,1.129,-5.381,-4.462,-5.657
0.069,-0.43,1.664,-4.83,1.364,-5.079,-3.866,-5.015
-1.625,-2.461,1.403,-4.385,1.151,-4.359,-3.593,-4.094
-3.709,-4.678,0.649,-3.871,0.663,-3.567,-4.203,-3.706
-3.866,-4.402,0.304,-3.752,-0.171,-3.503,-5.144,-3.841
-3.313,-3.281,-0.707,-5.366,-2.317,-5.13,-6.218,-4.74
-3.658,-3.549,-2.937,-8.561,-5.201,-7.84,-7.449,-6.026
-2.898,-2.876,-4.167,-10.41,-6.204,-9.253,-7.464,-5.999
0.506,0.731,-3.388,-9.811,-5.414,-8.838,-6.246,-4.717
4.123,4.649,-2.683,-9.344,-5.856,-8.748,-6.324,-4.446
5.222,5.896,-3.094,-10.699,-8.046,-10.068,-8.416,-5.985
4.543,4.987,-3.107,-12.805,-9.347,-11.782,-10.184,-7.736
4.276,4.214,-1.614,-14.405,-8.487,-13.044,-10.399,-8.656
5.516,5.104,1.415,-14.773,-5.856,-13.287,-9.657,-8.874
8.517,7.747,5.651,-13.247,-1.318,-11.655,-7.758,-8.078
11.72,10.158,9.18,-10.839,3.616,-8.982,-5.135,-6.662
12.787,10.254,10.128,-9.452,6.043,-7.262,-3.587,-5.796
11.336,8.605,9.464,-8.755,5.712,-6.295,-3.464,-5.266
8.136,6.184,8.919,-7.377,4.733,-4.602,-3.325,-4.094
4.375,2.905,8.297,-5.8,4.274,-2.604,-2.498,-2.567
1.599,-0.379,6.258,-5.513,3.187,-2.109,-2.543,-2.264
1.052,-1.798,3.279,-6.203,1.03,-3.135,-4.091,-3.276
3.048,-0.425,2.009,-6.067,0.227,-3.585,-4.615,-3.577
5.43,1.841,2.657,-5.608,1.467,-3.263,-3.104,-2.872
5.467,2.249,2.304,-7.226,2.007,-4.387,-2.085,-3.055
3.913,1.295,0.36,-10.521,1.149,-7.114,-2.753,-4.513
3.367,1.182,-0.748,-12.648,1.368,-9.14,-3.47,-5.607
3.556,1.426,-0.795,-13.201,2.67,-9.909,-3.737,-5.832
2.322,0.189,-2.408,-14.232,1.893,-10.87,-4.678,-6.372
0.434,-1.346,-5.795,-15.28,-1.028,-11.319,-5.782,-6.991
0.629,-0.716,-8.113,-13.729,-2.694,-9.051,-5.684,-6.232
3.197,1.595,-8.065,-9.747,-2.187,-4.564,-4.573,-4.175
6.135,3.873,-6.592,-5.476,-1.555,0.134,-3.368,-2.138
7.538,5.46,-4.93,-1.704,-1.804,4.252,-2.72,-0.971
6.517,5.567,-4.424,0.953,-2.473,7.047,-3.328,-0.738
4.071,4.256,-5.575,1.434,-3.459,7.562,-5.14,-1.154
3.016,3.665,-6.823,0.407,-4.58,6.321,-6.437,-1.681
4.221,4.59,-6.95,-0.763,-5.492,4.547,-6.407,-2.287
5.182,5.051,-6.953,-1.948,-6.334,2.873,-6.32,-3.26
4.526,4.354,-7.271,-2.41,-6.684,2.315,-6.189,-3.585
3.623,3.885,-6.684,-1.029,-5.929,3.49,-4.92,-2.403
4.05,4.251,-4.52,1.247,-4.05,5.255,-2.739,-0.45
6.439,5.569,-0.986,3.223,-0.726,6.908,0.149,1.948
10.453,8.285,3.723,5.959,4.486,9.71,4.787,5.735
14.814,11.924,9.249,10.716,10.935,14.604,11.656,11.318
17.457,15.049,14.379,16.188,16.663,20.156,19.056,17.358
16.773,16.569,17.426,19.834,19.851,24.055,24.291,22.018
12.266,15.284,16.875,19.989,19.058,24.734,24.557,23.278
3.684,9.379,11.155,15.297,12.447,20.527,17.381,18.796
-7.243,-0.206,1.197,6.436,1.124,11.717,4.247,9.282
-15.038,-7.967,-7.115,-1.445,-8.527,3.451,-7.979,-0.111
-15.883,-10.121,-9.584,-4.418,-11.632,-0.029,-13.365,-4.98
-13.786,-10.215,-10.49,-5.981,-11.616,-1.953,-13.652,-6.572
-13.888,-12.371,-14.332,-10.081,-13.359,-6.23,-13.691,-8.009
-14.006,-13.667,-17.473,-13.733,-14.945,-9.977,-13.184,-8.485
-11.41,-10.989,-16.755,-14.059,-13.898,-10.191,-10.435,-6.688
-8.845,-7.589,-15.752,-13.509,-12.629,-9.281,-7.997,-4.881
-8.721,-6.959,-17.071,-14.406,-13.199,-10.051,-8.564,-5.467
-9.446,-7.752,-17.937,-15.579,-13.742,-11.562,-9.955,-6.948
-8.725,-7.352,-15.509,-14.641,-11.558,-11.054,-7.873,-5.657
-7.343,-6.431,-11.722,-11.737,-7.804,-8.392,-3.151,-2.015
-7.611,-7.277,-10.389,-9.669,-6.06,-6.199,-0.813,-0.272
-9.505,-9.5,-11.789,-9.261,-6.84,-5.229,-2.199,-1.319
-10.722,-10.515,-12.453,-7.78,-7.115,-3.46,-3.657,-1.797
-9.305,-8.814,-9.344,-3.441,-4.541,0.043,-2.091,0.195
-6.423,-6.18,-4.557,0.811,-1.134,2.801,0.753,2.191
-4.767,-5.302,-2.711,1.691,-0.238,2.807,1.693,1.911
-3.809,-4.807,-3.268,1.208,-0.838,2.387,1.454,1.359
-1.644,-2.293,-2.64,2.001,-0.259,3.363,2.083,2.392
0.227,-0.105,-1.399,1.942,0.76,3.029,2.853,3.174
-1.15,-1.634,-2.188,-1.341,0.141,-0.771,1.793,1.817
-4.626,-5.174,-3.577,-5.303,-1.063,-5.198,-0.424,-0.191
-5.793,-6.31,-2.034,-5.895,-0.058,-6.225,-0.661,-0.245
-3.755,-4.593,1.435,-3.859,2.565,-4.614,1.631,1.395
-2.086,-3.726,2.776,-3.616,3.559,-4.574,3.381,2.395
-3.034,-6.129,1.47,-6.889,2.186,-7.726,2.843,1.566
-5.141,-10.564,0.175,-10.999,0.821,-11.763,1.93,0.021
-6.385,-14.343,-0.095,-13.208,0.873,-14.201,2.528,-0.456
-6.408,-15.924,-0.767,-13.913,1.067,-15.026,3.604,0.144
-5.985,-15.493,-2.896,-14.8,-0.037,-15.535,3.482,0.385
-6.656,-14.543,-6.25,-16.425,-2.769,-16.624,1.723,-0.838
-8.797,-14.182,-9.895,-18.168,-6.432,-18.19,-0.725,-2.982
-10.455,-13.613,-12.065,-19.033,-8.92,-19.25,-1.681,-4.213
-10.78,-12.491,-11.867,-19.049,-8.76,-19.52,-0.369,-4.002
-11.294,-12.334,-10.913,-19.235,-7.271,-19.757,1.08,-3.684
-12.594,-13.454,-10.859,-19.572,-6.507,-19.879,0.887,-3.992
-13.265,-13.911,-10.953,-18.692,-6.241,-18.706,0.351,-3.844
-12.757,-12.846,-10.045,-15.935,-5.219,-15.855,1.177,-2.433
-12.151,-11.795,-8.492,-12.135,-3.453,-12.233,2.978,-0.598
-11.805,-11.886,-7.115,-8.392,-1.7,-8.732,4.56,0.713
-11.588,-12.464,-6.53,-5.412,-0.938,-5.866,4.894,1.116
-11.118,-11.875,-5.828,-3.017,-0.68,-3.421,4.575,1.102
-9.134,-9.134,-2.982,-0.452,1.216,-0.651,5.577,1.707
-5.491,-5.606,1.584,2.356,4.867,2.355,8.049,2.908
-1.399,-2.85,5.539,5.303,8.4,5.197,10.454,4.212
1.72,-0.959,7.53,7.761,10.452,7.312,11.398,5.065
2.317,-0.486,7.259,8.04,10.298,7.409,10.5,4.73
-0.068,-2.305,5.104,5.996,7.845,5.371,8.584,3.466
-3.68,-5.692,2.461,4.021,4.493,3.367,6.91,2.557
-5.64,-8.245,1.416,4.277,2.768,3.669,7.016,3.313
-4.915,-8.419,2.441,6.283,3.223,5.819,9.29,5.541
-3.614,-7.964,3.161,7.362,3.343,6.805,11.373,7.084
-4.631,-9.946,1.073,5.263,0.734,4.341,10.388,5.878
-7.698,-13.877,-2.781,1.188,-3.404,-0.028,7.166,2.907
-9.513,-15.82,-4.974,-1.487,-5.311,-2.676,5.304,1.405
-9.205,-14.82,-5.21,-2.697,-4.475,-3.603,5.065,1.56
-8.077,-13.269,-5.474,-4.486,-3.419,-5.085,4.704,1.526
-5.821,-11.7,-5.628,-6.472,-2.72,-6.803,4.831,1.732
-3.175,-10.518,-5.677,-8.619,-2.343,-8.813,5.002,1.847
-2.005,-11.066,-6.388,-11.898,-2.818,-12.426,3.457,0.063
-1.284,-11.751,-6.477,-14.425,-3.097,-15.689,1.354,-2.652
1.225,-9.942,-4.64,-13.628,-1.614,-15.332,1.095,-3.462
4.88,-6.362,-2.228,-10.584,0.835,-12.132,2.2,-2.276
7.459,-3.161,-1.399,-7.896,1.682,-9.224,2.409,-1.584
8.831,-0.27,-2.162,-5.242,0.511,-6.744,1.819,-1.73
9.708,2.807,-2.922,-1.258,-0.668,-3.082,1.935,-0.973
9.676,4.639,-2.764,2.686,-0.849,0.664,2.517,0.666
8.666,4.219,-1.989,4.696,-0.688,2.288,2.789,1.655
7.554,2.717,-1.287,5.307,-0.813,2.08,2.964,1.473
6.902,1.404,-0.852,5.645,-1.155,1.693,3.238,0.942
5.562,-0.488,-0.905,5.314,-1.926,1.162,3.02,0.596
2.444,-3.695,-1.631,4.167,-3.096,-0.067,2.264,0.377
-1.439,-6.799,-2.655,3.315,-3.857,-1.295,1.639,0.147
-5.137,-8.841,-4.389,2.784,-4.581,-2.239,1.017,-0.425
-8.584,-10.506,-7.298,1.628,-6.294,-3.437,0.459,-1.009
-11.25,-12.26,-10.003,0.09,-8.443,-4.823,0.602,-1.014
-12.392,-13.576,-10.831,-0.865,-9.447,-6.049,1.242,-0.742
-12.344,-13.847,-10.195,-1.532,-8.984,-7.31,1.654,-0.737
-12.246,-13.646,-10.135,-3.311,-8.507,-9.155,1.443,-1.055
-12.064,-13.659,-11.55,-6.076,-8.81,-11.348,0.808,-1.453
-11.19,-13.411,-13.115,-7.908,-9.162,-12.711,0.402,-1.795
-10.189,-12.577,-13.574,-8.071,-9.242,-12.803,0.498,-1.81
-10.108,-11.86,-13.752,-8.28,-10.137,-13.117,-0.152,-1.948
-10.357,-11.445,-14.444,-9.904,-11.967,-14.986,-2.35,-3.155
-8.822,-10.286,-14.35,-11.625,-12.594,-17.21,-4.007,-4.349
-6.061,-8.736,-13.627,-12.793,-11.862,-18.91,-4.339,-4.768
-4.749,-8.318,-14.692,-14.84,-12.198,-21.081,-5.53,-5.879
-4.553,-8.125,-17.072,-16.93,-13.79,-23.034,-7.402,-7.404
-3.734,-6.566,-17.784,-16.753,-14.816,-23.127,-7.911,-7.712
-2.794,-4.617,-15.997,-15.082,-14.546,-22.107,-7.736,-7.596
-2.624,-3.805,-12.783,-13.852,-13.048,-21.237,-8.184,-8.359
-2.257,-3.949,-8.747,-12.359,-9.917,-19.815,-7.382,-8.538
-1.048,-4.398,-4.696,-9.596,-5.364,-17.307,-3.902,-6.791
-1.119,-5.886,-2.745,-7.625,-1.772,-15.615,-0.69,-5.13
-5.349,-10.313,-4.877,-9.109,-2.527,-16.961,-1.158,-6.046
-13.001,-17.581,-10.128,-12.613,-7.991,-20.147,-4.492,-8.727
-18.874,-23.363,-14.148,-13.29,-13.131,-20.987,-6.566,-9.553
-20.551,-24.734,-14.827,-9.912,-14.159,-18.301,-5.598,-7.317
-22.342,-24.829,-15.478,-6.812,-14.418,-15.738,-4.323,-5.147
-26.845,-26.475,-18.542,-6.608,-17.538,-15.557,-4.838,-5.007
-31.322,-28.571,-22.376,-8.178,-21.956,-16.988,-6.668,-6.214
-33.867,-30.479,-25.282,-10.822,-25.196,-19.526,-9.148,-8.301
-35.095,-32.234,-26.633,-13.739,-26.792,-22.179,-11.328,-10.187
-35.001,-32.248,-25.514,-15.038,-26.476,-23.2,-11.793,-10.181
-33.05,-29.71,-22.544,-14.802,-24.187,-23.155,-10.804,-9.147
-30.34,-26.455,-20.518,-15.155,-21.727,-24.23,-10.272,-9.593
-28.097,-24.007,-20.388,-16.376,-20.435,-26.13,-9.992,-10.685
-25.971,-22.014,-20.598,-17.063,-19.684,-26.875,-8.612,-10.005
-22.793,-19.609,-19.826,-16.645,-18.419,-26.133,-7.106,-8.439
-17.393,-15.913,-17.023,-14.764,-15.476,-24.269,-6.089,-7.449
-10.915,-11.178,-12.651,-11.437,-11.534,-21.289,-4.814,-6.535
-6.26,-7.035,-9.211,-7.914,-9.323,-17.98,-4.037,-5.8
-3.884,-4.412,-7.658,-5.313,-9.392,-15.537,-4.912,-6.441
-2.117,-3.17,-6.679,-3.837,-9.706,-14.254,-6.488,-8.121
-0.7,-3.081,-5.535,-2.963,-9.262,-13.44,-6.845,-8.51
-1.068,-4.028,-4.986,-1.916,-9.023,-12.591,-5.744,-6.812
-3.654,-5.944,-6.16,-1.109,-10.157,-12.294,-4.824,-5.176
-6.822,-8.333,-8.983,-1.493,-12.764,-13.04,-5.669,-5.437
-7.607,-9.438,-10.911,-1.695,-14.873,-13.315,-7.389,-6.366
-4.254,-7.712,-9.305,0.269,-13.658,-11.609,-7.044,-5.453
0.437,-4.581,-5.76,2.594,-9.923,-9.79,-4.298,-3.116
2.733,-2.413,-3.559,2.34,-7.103,-10.267,-1.817,-1.759
2.773,-1.371,-2.505,0.192,-5.868,-12.201,-1.001,-1.908
1.645,-1.178,-0.895,-1.249,-4.516,-13.247,-0.969,-2.202
-0.311,-1.855,1.39,-0.271,-1.971,-11.74,0.043,-1.052
-2.134,-2.478,3.622,3.161,1.227,-7.96,2.339,1.354
-3.41,-2.849,4.801,7.069,3.228,-4.402,4.218,3.089
-5.426,-4.719,3.675,9.065,2.436,-2.995,4.426,3.389
-8.964,-8.739,0.506,9.099,-0.651,-2.954,3.457,3.257
-12.019,-12.233,-1.789,9.613,-3.237,-1.975,3.034,3.992
-13.075,-13.347,-1.731,11.489,-3.874,0.196,3.611,5.309
-13.37,-13.681,-1.589,12.466,-4.076,1.107,3.582,5.32
-13.307,-13.789,-2.321,11.503,-4.279,-0.197,2.475,3.529
-12.202,-12.386,-2.172,9.947,-3.191,-2.257,1.623,1.589
-10.92,-10.275,-0.992,8.303,-1.26,-4.371,1.601,0.596
-9.838,-8.587,0.127,6.638,0.268,-6.308,1.78,0.027
-6.879,-5.698,2.099,6.509,2.434,-6.549,2.318,-0.08
-2.121,-1.351,5.41,8.522,5.773,-4.598,3.253,0.747
0.438,0.816,7.467,10.473,7.723,-2.613,2.921,1.473
-0.282,-0.74,6.81,11.007,7.024,-1.865,1.177,1.419
-1.054,-2.942,5.552,11.4,5.567,-1.161,0.172,1.252
-0.375,-3.159,5.756,12.537,4.875,0.173,0.465,1.327
0.255,-1.634,6.926,13.893,4.674,1.382,0.774,1.439
-0.136,0.232,7.47,15.093,4.275,2.11,0.958,1.475
-0.413,1.755,7.326,16.203,3.858,2.91,1.974,1.8
0.667,3.633,7.708,17.221,3.863,4.226,3.285,2.531
3.253,6.856,9.15,18.537,4.479,6.205,3.86,3.56
7.004,11.035,11.294,20.579,5.972,8.64,4.417,5.088
11.226,14.68,13.265,22.53,7.985,10.543,5.555,6.563
15.075,17.103,14.043,23.335,9.483,11.336,6.306,6.961
17.142,18.07,13.126,22.969,9.584,11.371,5.688,6.291
16.567,17.169,11.432,22.063,8.734,11.026,4.424,5.793
14.57,15.094,10.624,21.457,8.394,10.648,4.28,6.383
12.172,12.863,10.285,21.27,8.238,10.22,5.132,6.957
9.077,10.566,8.687,20.582,6.754,9.181,4.75,5.931
5.801,8.406,6.451,18.861,4.84,7.519,2.623,3.793
4.409,7.662,6.098,17.669,5.32,6.778,2.004,3.08
6.297,9.468,8.623,19.292,8.917,8.615,5.479,5.509
10.343,13.023,12.637,23.06,13.445,12.083,10.884,9.659
14.606,16.707,16.753,26.282,17.474,14.943,15.605,13.653
18.114,19.694,20.908,28.505,21.759,17.08,20.771,18.095
20.53,21.653,25.037,31.356,26.798,20.029,28.023,24.107
21.008,22.247,27.6,34.477,30.534,23.491,34.791,29.777
18.088,20.698,25.766,34.395,28.785,23.972,35.126,30.406
11.173,15.912,17.368,28.373,18.781,18.151,25.327,23.054
1.529,8.127,4.012,18.091,3.103,7.394,7.898,9.854
-6.246,1.159,-7.203,9.434,-9.636,-1.956,-8.079,-2.186
-7.469,-0.773,-10.144,6.887,-12.696,-4.726,-13.845,-6.69
-4.118,1.068,-7.145,8.684,-9.051,-2.276,-10.518,-4.486
-0.819,3.367,-2.856,11.499,-4.36,1.64,-4.869,-0.11
1.684,5.572,2.151,14.613,0.461,5.27,-0.076,3.871
3.48,6.907,6.352,16.576,4.47,6.955,2.789,5.55
3.277,5.962,6.44,15.613,4.76,5.657,2.028,3.688
1.725,4.099,3.46,13.444,1.998,3.435,-1.436,0.224
2.057,4.493,2.107,13.24,0.89,3.241,-3.257,-1.26
5.296,7.755,3.721,14.965,3.083,5.074,-1.369,0.059
8.364,10.786,4.932,15.881,4.711,6.416,0.999,1.601
8.166,10.419,2.924,14.369,2.286,5.489,0.047,0.845
5.536,7.325,-0.641,11.681,-2.207,3.197,-3.133,-1.637
4.636,5.531,-1.274,10.655,-3.285,2.249,-3.681,-2.6
6.63,6.293,1.756,11.566,0.21,3.027,-0.506,-0.944
7.193,5.507,3.684,10.776,3.067,2.229,1.626,0.486
4,0.821,1.979,6.346,2.038,-1.816,-0.024,-0.389
1.125,-3.621,0.19,1.92,0.667,-5.825,-2.101,-1.994
2.526,-3.364,1.875,1.829,3.18,-5.9,-0.906,-1.692
5.595,-0.532,5.124,4.482,7.516,-3.22,1.989,0.061
6.084,0.345,6.093,5.246,9.051,-2.048,2.77,0.475
5.098,-0.225,5.28,4.087,8.17,-2.985,1.25,-0.895
4.991,0.356,5.484,4.265,8.096,-3.121,0.124,-1.945
4.238,1.165,6.565,6.278,9.207,-1.373,0.734,-1.399
1.287,0.204,6.784,8.114,9.775,0.724,1.84,-0.017
-1.697,-2.051,6.131,8.863,9.189,1.995,1.926,1.01
-2.298,-3.963,5.606,9.058,8.189,2.434,1.182,1.276
-1.305,-4.659,5.681,9.102,7.614,2.315,0.746,0.931
-0.629,-4.402,6.228,8.894,7.635,2.004,1.032,0.66
-1.292,-4.45,6.257,8.034,7.184,1.475,0.991,0.751
-3.22,-5.302,5.093,6.613,5.755,0.542,-0.112,0.612
-5.363,-5.839,3.781,5.417,4.706,-0.308,-1.326,-0.048
-7.074,-5.804,3.021,4.569,4.667,-0.755,-1.908,-0.647
-8.807,-6.569,1.552,3.39,4.018,-1.491,-2.621,-0.766
-10.859,-8.353,-1.428,1.622,1.28,-3.092,-4.329,-1.438
-11.605,-8.813,-3.717,0.536,-1.587,-4.15,-6.021,-2.972
-9.476,-6.439,-3.044,1.626,-1.651,-2.842,-6.595,-3.911
-6.125,-3.537,-0.81,4.029,0.063,-0.25,-6.883,-4.023
-3.622,-2.371,1.212,6.059,1.543,1.76,-6.713,-3.712
-2.347,-2.313,2.92,7.104,2.64,2.927,-5.334,-3.057
-3.356,-3.101,2.551,6.039,2.002,2.143,-4.84,-3.499
-7.258,-5.157,-1.352,2.07,-1.56,-1.703,-7.143,-5.93
-10.98,-6.832,-5.375,-2.269,-5.085,-5.964,-9.875,-8.105
-10.579,-6.211,-5.39,-3.365,-4.976,-6.967,-9.427,-7.303
-7.104,-4.261,-2.98,-1.738,-2.652,-5.423,-6.492,-4.541
-4.429,-2.676,-1.633,-0.175,-1.1,-3.924,-4.474,-2.615
-3.577,-1.635,-1.077,0.812,-0.178,-2.664,-4.271,-1.942
-3.928,-1.623,-0.787,0.829,0.24,-2.079,-5.068,-2.031
-4.806,-2.483,-2.007,-0.917,-0.749,-3.159,-6.499,-2.977
-4.65,-2.022,-3.761,-2.279,-2.192,-3.907,-7.508,-3.842
-3.389,-0.387,-4.118,-1.456,-2.896,-2.668,-7.169,-3.695
-3.923,-1.191,-4.535,-0.962,-3.978,-2.069,-6.942,-3.856
-7.371,-4.957,-6.644,-2.545,-6.085,-3.662,-7.969,-5.136
-10.044,-7.37,-8.243,-3.613,-7.173,-4.533,-8.417,-5.545
-9.357,-6.281,-7.835,-2.657,-6.712,-3.324,-7.854,-4.783
-6.951,-3.779,-6.94,-1.168,-6.323,-1.697,-7.81,-4.554
-4.517,-1.453,-5.968,0.192,-5.622,-0.017,-7.497,-4.246
-3.021,-0.154,-4.935,0.654,-4.308,0.971,-6.5,-3.465
-3.438,-0.993,-5.488,-1.511,-4.231,-0.947,-7.182,-4.125
-5.001,-2.866,-7.482,-5.341,-5.664,-4.994,-10.108,-6.515
-5.742,-3.311,-8.055,-7.474,-6.55,-7.366,-12.011,-7.979
-5.536,-2.528,-6.446,-6.931,-6.312,-6.745,-10.844,-7.09
-6.102,-2.807,-5.374,-5.972,-6.611,-5.594,-9.092,-5.957
-7.616,-4.216,-6.335,-6.09,-8.131,-5.612,-9.418,-6.404
-8.754,-4.94,-7.949,-6.633,-9.933,-6.115,-11.034,-7.521
-8.694,-4.412,-8.468,-6.454,-10.675,-5.899,-11.374,-7.418
-7.228,-3.09,-7.208,-4.702,-9.543,-3.928,-9.371,-5.127
-5.369,-1.732,-5.347,-2.144,-7.932,-0.85,-6.995,-2.08
-4.734,-1.386,-5.045,-1.173,-8.04,0.585,-6.512,-0.946
-5.459,-2.302,-6.319,-2.552,-9.386,-0.778,-7.373,-2.171
-5.932,-3.146,-6.573,-4.041,-9.183,-2.501,-7.237,-3.212
-5.343,-2.769,-4.987,-4.186,-7.124,-2.544,-6.055,-2.765
-5.278,-2.224,-4.578,-4.726,-6.913,-2.402,-6.703,-3.23
-6.835,-2.804,-7.086,-6.976,-10.034,-3.75,-9.669,-5.891
-8.519,-3.692,-9.68,-9.159,-12.736,-5.307,-11.962,-8.103
-7.761,-2.951,-8.872,-8.929,-11.361,-4.829,-11.587,-7.439
-4.077,-0.178,-5.046,-6.566,-6.712,-2.361,-9.229,-4.893
-0.659,2.343,-1.744,-4.345,-2.411,0.048,-6.694,-2.771
-0.668,2.338,-1.331,-3.357,-0.768,1.404,-5.211,-1.69
-3.172,0.265,-3.017,-3.048,-1.31,2.267,-5.25,-1.491
-4.28,-1.251,-4.273,-2.56,-1.805,3.255,-6.047,-1.862
-2.311,-0.25,-3.77,-1.53,-0.937,4.402,-6.051,-1.822
0.283,2.451,-2.767,-0.692,0.134,5.15,-5.264,-1.371
1.619,4.888,-2.022,-0.349,0.786,5.73,-4.387,-1.152
1.965,5.66,-0.816,0.054,1.511,6.844,-3.674,-1.208
1.376,4.289,-0.006,0.019,1.379,7.62,-3.662,-1.576
0.185,2.2,-1.058,-0.876,-0.172,7.038,-4.084,-1.838
-0.616,1.341,-2.822,-1.461,-1.412,5.993,-3.756,-1.219
-0.429,1.773,-2.739,-1.062,-0.573,5.802,-2.296,0.14
0.44,2.345,-0.541,-0.56,1.867,6.351,-0.583,1.279
1.424,2.828,1.759,-0.236,4.253,7.104,0.596,1.906
2.526,3.902,3.288,0.648,6.158,8.349,1.705,2.678
4.086,5.512,5.163,1.893,8.512,10.004,3.236,3.723
6.341,7.051,8.213,2.81,11.654,11.287,4.47,4.38
8.002,7.74,11.039,3.341,13.667,11.943,4.244,4.026
7.131,6.726,11.175,3.266,12.562,12.039,2.264,2.678
4.874,4.974,8.795,2.493,9.919,11.647,-0.295,1.248
4.138,4.463,7.191,2.178,9.191,11.592,-0.977,1.309
4.712,4.553,8.078,3.093,10.871,12.386,1.479,3.639
3.351,2.587,8.413,3.117,11.431,12.083,3.886,5.788
-0.612,-1.323,5.213,0.147,8.425,8.918,2.659,4.588
-3.193,-3.252,1.122,-3.477,4.301,5.332,-0.386,1.123
-1.52,-1.002,-0.016,-4.318,2.059,4.662,-2.056,-1.259
2.162,2.553,0.377,-3.151,0.899,6.111,-2.744,-1.659
4.214,3.94,-1.064,-2.921,-1.04,6.643,-3.898,-1.704
4.882,4.119,-3.457,-4.178,-2.819,5.506,-4.809,-2.313
6.457,5.535,-4.369,-5.952,-3.061,3.799,-4.718,-3.062
8.079,6.826,-4.83,-8.317,-3.197,1.726,-5.116,-4.21
7.629,5.877,-6.245,-10.928,-4.107,-0.585,-6.569,-5.584
5.609,4.186,-7.393,-12.312,-4.306,-2.027,-7.239,-5.709
3.918,3.918,-7.198,-11.735,-3.242,-1.727,-6.083,-4.031
2.958,4.347,-6.572,-9.963,-2.468,-0.088,-4.273,-2.053
1.674,3.557,-7.041,-8.718,-3.545,1.251,-3.7,-1.664
0.541,2.247,-8.133,-8.611,-5.5,1.45,-4.612,-2.415
0.92,2.633,-7.804,-8.516,-5.866,1.42,-5.331,-2.468
2.411,4.64,-5.519,-7.569,-3.737,2.145,-4.336,-1.416
3.665,6.246,-2.862,-6.235,-0.538,3.43,-2.458,-0.434
3.43,5.538,-1.895,-5.938,1.075,3.923,-2.187,-0.828
1.486,2.65,-3.089,-7.163,-0.036,3.079,-3.754,-2.165
-0.765,0.221,-5.081,-8.186,-2.394,2.476,-5.054,-2.836
-1.92,-0.069,-6.262,-7.208,-3.758,3.771,-4.675,-2.128
-2.095,0.387,-5.867,-4.841,-3.264,6.34,-2.952,-0.612
-1.566,0.474,-3.986,-2.785,-1.689,8.334,-1.316,0.71
0.965,2.007,-0.755,-1.021,0.649,9.762,-0.084,1.936
5.298,5.847,2.825,0.882,3.443,11.63,1.292,3.478
8.151,8.973,4.829,2.012,5.146,13.161,2.207,4.502
7.281,8.473,4.903,1.662,4.843,12.96,1.682,3.942
4.139,5.535,4.495,0.435,3.439,11.692,0.181,2.238
2.812,4.322,5.166,0.206,3.261,11.975,-0.023,1.606
5.306,6.507,6.901,1.654,5.284,14.198,1.873,2.756
8.288,8.454,7.739,2.055,7.046,14.801,3.26,3.302
7.816,6.94,6.409,-0.51,6.315,11.972,2.161,1.921
4.861,4.082,4.26,-3.353,4.505,8.907,0.113,0.452
3.032,3.464,3.666,-3.188,4.313,8.957,-0.274,0.686
2.867,4.894,4.911,-0.946,5.523,11.198,0.915,1.597
2.823,6.047,6.255,0.603,6.041,12.801,1.859,1.838
3.239,6.687,7.026,1.204,5.986,13.21,2.61,2.337
4.249,7.26,7.294,1.355,6.391,12.991,3.56,3.267
4.017,6.315,5.833,-0.417,5.884,11.082,2.945,2.448
1.964,3.205,2.047,-4.85,2.84,6.795,-0.413,-1.047
0.793,0.66,-1.542,-9.208,-0.711,2.781,-4.111,-4.381
2.644,1.561,-2.272,-10.445,-1.913,2.17,-5.318,-4.554
5.256,4.945,-1.287,-9.008,-1.719,4.152,-4.709,-2.737
5.951,7.725,-0.812,-7.008,-2.025,6.045,-4.037,-1.468
5.061,7.841,-1.096,-5.765,-2.926,6.75,-3.848,-1.28
3.781,5.402,-1.767,-5.586,-3.991,6.536,-3.97,-1.563
2.781,2.509,-2.74,-5.951,-4.696,6.006,-3.981,-1.908
1.973,0.492,-4.294,-7.03,-5.395,4.942,-4.6,-2.951
1.707,-0.378,-5.991,-8.825,-6.463,3.37,-6.07,-4.403
3.165,0.882,-6.239,-9.446,-6.671,2.964,-6.344,-4.191
5.757,3.575,-5.076,-8.424,-5.605,4.159,-4.742,-2.221
6.488,4.444,-4.827,-8.423,-5.353,4.597,-3.857,-1.202
3.367,1.983,-6.49,-10.691,-7.161,2.827,-5.209,-2.492
-1.541,-1.559,-7.915,-13.087,-8.581,0.516,-6.427,-4.119
-4.63,-3.843,-6.979,-14.099,-7.125,-0.593,-5.377,-4.2
-4.833,-4.884,-4.136,-14.273,-3.819,-0.604,-3.236,-3.131
-3.294,-5.064,-1.118,-13.834,-1.036,0.05,-1.863,-1.99
-1.151,-4.027,0.863,-12.768,0.247,1.017,-1.59,-1.538
1.782,-1.304,2.311,-11.264,1.168,2.282,-1.202,-1.382
5.545,2.621,3.976,-9.033,2.858,4.516,0.198,-0.599
8.407,5.691,4.779,-6.39,4.404,7.377,1.672,0.337
9.994,7.355,4.92,-3.971,5.714,9.917,3.182,1.31
13.485,10.56,7.812,-0.44,9.583,13.303,7.655,4.852
20.196,16.603,14.681,5.507,17.078,18.963,16.346,12.288
25.012,21.274,21.057,11.057,23.663,24.516,24.726,19.581
23.843,21.079,22.954,12.923,25.105,26.856,28.518,23.063
20.236,18.566,21.901,12.367,22.983,26.639,28.74,24.169
16.887,15.639,18.956,10.115,18.56,24.228,25.322,22.689
10.162,9.138,10.96,2.97,8.994,17.05,14.732,14.845
0.11,-0.449,-1.459,-8.158,-4.399,6.325,-0.955,2.23
-5.081,-5.167,-10.233,-15.304,-12.754,-0.587,-11.502,-6.409
-1.916,-1.494,-10.76,-14.647,-11.758,-0.085,-11.328,-6.402
2.165,3.455,-8.468,-11.711,-8.226,2.75,-6.724,-2.786
1.977,3.891,-8.269,-10.51,-7.625,3.941,-3.992,-0.664
1.009,2.612,-7.79,-8.832,-7.267,5.389,-1.937,0.631
1.51,2.406,-5.564,-6.677,-5.644,7.354,0.055,1.567
0.984,1.429,-4.694,-7.125,-5.463,7.217,-0.717,0.515
-0.541,-0.872,-5.756,-9.01,-6.633,5.847,-3.156,-1.518
0.731,-1.425,-5.119,-8.358,-5.68,6.628,-2.456,-1.21
4.851,1.036,-2.06,-5.376,-2.645,9.281,1.18,1.334
7.119,3.372,-0.073,-3.306,-1.262,10.854,3.019,2.906
5.541,2.775,-0.56,-3.302,-2.402,10.615,2.372,2.619
2.714,0.105,-1.747,-4.736,-3.817,9.428,2.039,1.892
1.893,-1.787,-1.956,-6.474,-4.006,7.965,3.058,1.846
3.699,-1.074,-0.763,-7.196,-3.122,7.111,4.402,2.391
5.09,0.603,0.488,-7.704,-2.497,6.457,4.556,2.158
2.981,-0.167,0.035,-10.003,-3.184,4.24,3.059,0.352
-0.974,-3.101,-1.093,-12.694,-3.846,1.405,1.456,-1.526
-2.312,-4.118,-0.023,-11.961,-1.994,1.788,2.082,-1.054
-0.238,-1.853,3.271,-7.687,1.775,6.085,4.992,1.765
2.434,1.041,6.02,-3.522,4.297,10.543,7.631,4.374
4.155,2.93,6.73,-1.746,4.219,12.31,8.036,5.085
5.254,4.588,6.192,-2.021,2.672,11.743,6.701,4.452
6.436,6.895,6.093,-3.086,1.395,10.56,5.701,4.041
7.449,9.091,7.064,-4.118,0.976,9.765,5.768,4.31
7.053,9.361,7.879,-5.096,0.845,9.167,5.662,4.313
5.62,8.027,7.699,-5.387,0.975,9.113,5.22,3.941
5.617,8.123,7.536,-3.559,2.119,11.026,5.682,4.367
7.678,10.545,7.947,-0.252,4.044,14.357,6.872,5.677
8.341,11.463,7.149,0.816,4.177,15.097,6.492,5.643
5.708,8.354,4.587,-2.248,1.328,11.224,3.782,3.089
3.833,5.095,3.288,-5.868,-1.022,7.077,1.511,0.573
5.984,5.804,4.606,-6.121,-0.098,7.349,1.771,0.588
9.18,8.49,5.965,-4.019,2.235,10.543,3.382,2.196
9.231,9.226,5.671,-2.638,3.289,12.359,3.946,2.916
6.533,7.848,5.15,-2.542,3.099,11.963,2.766,2.039
4.454,6.739,6.318,-2.106,3.43,11.912,1.923,1.218
4.093,6.569,8.615,-0.851,4.702,13.308,3.073,1.63
3.887,5.878,9.628,-0.345,5.486,14.257,4.883,2.537
3.433,3.983,8.476,-1.628,4.87,13.28,5.586,2.989
4.156,2.013,6.581,-3.541,3.875,11.387,5.368,3.178
5.559,0.824,4.897,-4.801,3.373,9.789,4.295,3.144
4.777,-0.21,2.965,-5.898,2.199,8.187,1.898,2.079
1.915,-0.922,1.135,-7.131,-0.191,6.734,0.001,0.551
0.537,0.211,0.401,-7.573,-2.295,6.393,0.169,-0.099
2.634,3.437,0.912,-6.743,-2.588,7.327,1.045,0.045
7.037,7.567,2.522,-4.886,-0.961,9.19,1.946,0.641
11.342,11.366,4.842,-2.689,1.421,11.243,3.68,1.806
14.177,13.629,7.275,-1.113,3.967,12.511,5.766,3.209
15.739,13.865,9.746,-0.029,7.177,13.301,6.877,4.267
17.255,13.715,12.629,2.007,11.203,15.019,7.631,5.428
19.351,14.963,15.315,4.71,14.631,17.216,9.141,6.946
20.853,16.478,16.007,5.285,15.413,17.238,9.756,7.106
21.448,16.724,14.87,3.121,14.433,14.794,8.408,5.507
21.893,16.294,14.113,0.85,14.2,12.753,7.193,4.374
21.753,16.174,14.489,0.219,14.352,12.769,7.705,4.773
20.986,16.886,15.27,0.932,13.315,14.12,9.271,5.759
20.471,18.3,15.47,1.762,11.281,15.284,9.919,6.26
20.218,19.426,14.249,1.675,9.003,15.275,8.244,6.104
19.933,19.57,12.226,1.208,6.882,14.647,5.737,5.959
20.287,19.194,11.288,1.511,6.004,14.481,5.187,6.437
21.068,18.75,11.765,1.894,6.732,14.313,6.101,6.879
20.107,17.072,11.847,0.618,7.405,12.818,5.404,5.851
16.689,13.228,10.796,-2.184,7.351,10.226,2.639,3.437
12.617,8.951,9.54,-4.878,7.361,7.972,0.034,1.174
10.239,7,8.912,-5.95,7.741,7.3,-0.553,0.756
10.669,7.595,9.22,-5.228,8.473,8.037,0.745,2.279
11.66,7.688,9.574,-4.942,8.715,7.901,1.578,2.855
10.683,5.576,9.086,-6.289,7.719,6.117,0.986,1.043
9.089,3.669,8.396,-7.512,6.424,4.737,0.622,-0.559
9.277,4.358,8.151,-7.621,6.29,4.658,1.325,0.04
11.157,7.175,8.621,-6.784,7.738,5.493,2.873,2.276
13.029,10.408,10.11,-4.704,9.511,7.317,5.072,5.071
13.916,12.689,11.825,-2.019,10.057,9.53,7.269,7.548
13.97,13.602,12.376,-0.134,9.516,11.133,8.846,8.992
13.618,13.437,12.166,1.045,9.556,12.533,10.114,9.703
12.799,12.03,12.706,2.418,11.062,14.424,11.197,10.439
11.39,9.442,14.147,4.023,13.045,16.241,11.813,11.294
10.372,7.651,16.022,6.126,14.936,17.825,13.111,12.813
9.534,7.692,17.685,8.578,16.671,19.421,15.387,14.853
7.236,7.64,18.195,9.637,17.382,20.239,16.496,15.641
4.278,6.458,17.892,8.69,16.823,19.799,15.758,14.944
2.997,5.535,17.772,7.439,15.868,18.736,14.81,14.399
4.461,6.53,18.184,7.33,15.67,18.034,14.946,14.763
7.527,9.352,18.436,7.577,15.876,17.63,15.45,14.897
9.646,12.166,17.324,6.813,14.796,16.43,14.768,13.808
9.945,13.796,15.216,5.432,12.58,14.596,13.091,12.379
9.644,14.204,13.7,4.256,10.915,13.217,11.757,11.465
10.077,13.856,13.621,3.695,10.643,12.778,11.56,11.324
11.197,13.767,14.381,4.202,11.071,13.202,11.918,12.073
12.098,14.312,14.64,5.326,11.209,13.937,11.885,13.164
12.629,14.446,13.769,5.772,11.097,14.293,11.687,13.888
12.701,12.705,11.929,4.453,10.778,13.479,11.488,13.426
12.285,9.644,10.226,2.126,10.597,11.685,11.662,12.156
11.604,7.504,9.746,0.884,11.078,10.366,12.677,11.7
10.11,6.552,9.091,0.241,10.608,9.288,12.775,11.33
7.871,5.609,6.729,-1.948,7.762,6.875,10.508,9.032
6.386,4.954,4.372,-4.925,4.795,3.737,7.787,5.975
6.463,5.325,4.192,-6.341,4.456,1.883,6.978,5
7.02,6.279,5.504,-5.978,5.721,1.818,7.554,5.787
6.633,6.868,6.239,-5.342,6.043,2.283,7.268,5.413
5.071,6.583,5.723,-5.273,5.297,2.156,5.457,3.187
3.344,6.137,5.543,-4.289,5.413,2.796,4.282,1.963
2.717,6.851,7.358,-0.654,7.262,6.113,5.584,3.603
2.186,7.56,9.503,3.051,8.477,9.572,6.852,5.218
-0.314,5.606,9.263,3.087,6.882,9.446,5.233,4.102
-3.918,1.839,7.337,1.198,4.144,7.457,2.865,2.438
-6.757,-0.781,5.275,0.759,1.979,6.826,1.966,2.066
-8.761,-1.921,2.906,1.263,-0.03,7.091,1.286,1.723
-10.188,-3.208,0.878,1.435,-1.675,7.121,0.223,1.05
-10.88,-5.474,0.652,1.654,-2.125,7.042,0.063,1.13
-11.116,-8.091,1.667,1.865,-1.692,6.721,1.125,2.069
-11.822,-10.122,1.213,0.729,-1.916,5.532,1.462,2.427
-13.286,-11.262,-2.2,-2.497,-3.893,3.029,-0.548,1.04
-14.344,-11.288,-6.511,-6.472,-6.753,-0.393,-3.377,-1.319
-13.615,-9.891,-9.012,-9.111,-8.708,-3.281,-4.339,-2.684
-11.4,-7.725,-10.277,-9.759,-9.546,-4.369,-3.347,-2.204
-9.537,-6.332,-12.365,-9.439,-10.592,-4.263,-2.481,-1.254
-8.638,-6.155,-14.551,-9.395,-11.805,-4.49,-2.597,-1.199
-8.298,-6.768,-15.164,-10.256,-12.322,-5.726,-3.368,-2.014
-9.092,-8.413,-15.331,-12.217,-12.843,-8.162,-4.972,-3.502
-10.977,-10.354,-16.2,-14.76,-13.79,-11.509,-6.906,-5.44
-12.44,-10.718,-15.891,-16.858,-13.886,-14.665,-7.928,-7.271
-12.349,-9.204,-12.676,-17.956,-12.143,-16.623,-7.939,-8.336
-10.989,-7.055,-8.244,-17.811,-9.354,-16.717,-7.605,-8.275
-8.767,-4.763,-4.686,-15.434,-6.414,-14.043,-6.45,-6.981
-5.573,-1.961,-1.353,-10.367,-2.921,-8.781,-3.819,-4.701
-2.986,-0.177,1.569,-5.44,0.107,-4.056,-1.372,-2.914
-3.253,-2.131,1.694,-4.222,0.422,-2.978,-1.145,-2.967
-5.552,-6.949,-0.525,-5.605,-0.89,-4.174,-2.42,-4.283
-7.382,-10.775,-1.602,-5.554,-0.458,-3.987,-3.002,-5.14
-8.356,-12.059,-0.042,-2.794,2.267,-1.396,-1.96,-4.2
-9.855,-12.471,2.685,0.88,4.896,1.908,-0.133,-1.915
-12.657,-13.908,4.384,3.467,5.577,3.995,1.224,-0.284
-16.483,-16.495,3.789,4.009,4.55,4.013,1.449,-0.482
-19.87,-18.752,1.464,2.692,3.197,2.41,0.86,-1.544
-21.238,-19.629,-1.376,0.239,1.775,0.009,0.185,-2.319
-20.968,-19.49,-4.276,-2.295,-0.502,-2.345,-0.555,-3.012
-19.663,-18.186,-6.668,-3.438,-2.823,-3.465,-1.368,-3.536
-16.925,-15.181,-8.231,-3.195,-4.009,-3.359,-2.071,-3.434
-13.687,-11.809,-9.894,-3.404,-4.857,-3.527,-2.715,-3.186
-11.972,-10.056,-12.298,-4.881,-6.481,-4.637,-3.367,-3.484
-12.188,-10.06,-15.039,-6.782,-8.892,-6.164,-4.569,-4.632
-12.515,-10.392,-17.57,-8.297,-11.285,-7.525,-6.485,-6.219
-12.177,-10.763,-20.287,-10.175,-13.539,-9.338,-8.58,-7.879
-12.867,-12.641,-24.247,-14.185,-16.648,-13.368,-10.971,-10.206
-14.481,-15.467,-28.535,-19.666,-20.055,-19.124,-13.488,-12.894
-14.28,-16.232,-30.606,-23.585,-21.855,-23.441,-15.211,-14.651
-11.424,-13.84,-29.591,-24.728,-21.904,-24.88,-15.913,-15.395
-8.09,-10.021,-26.771,-24.588,-21.973,-25.123,-16.315,-16.141
-5.601,-6.313,-23.537,-24.496,-22.89,-25.751,-16.656,-17.112
-2.75,-2.598,-20.118,-24.028,-23.097,-26.1,-16.15,-17.476
1.174,1.331,-16.371,-22.491,-21.324,-25.17,-14.972,-16.982
5.419,5.018,-12.474,-19.84,-18.245,-23.048,-13.987,-15.878
9.055,7.993,-8.612,-15.824,-14.892,-19.619,-12.675,-14.211
11.264,10.001,-4.809,-9.933,-11.61,-14.295,-10.476,-12.207
12.04,11.442,-0.954,-2.503,-8.329,-7.277,-8.284,-10.039
11.943,12.503,2.626,4.731,-5.06,0.007,-6.716,-7.602
11.044,12.252,5.006,9.922,-2.042,5.803,-5.011,-4.856
8.626,9.745,4.98,12.052,-0.571,8.54,-3.607,-3.118
4.429,5.207,2.201,11.053,-1.922,7.506,-4.307,-4.125
-0.223,0.463,-1.366,8.76,-4.537,4.529,-6.53,-6.648
-4.257,-2.482,-3.299,7.448,-5.697,2.56,-7.797,-7.819
-7.647,-3.274,-3.364,7.301,-4.861,2.37,-6.79,-6.894
-9.854,-2.617,-2.458,7.773,-3.039,3.224,-3.631,-4.809
-9.4,-0.845,0.087,9.803,0.35,5.574,1.872,-1.103
-5.868,1.824,5.403,13.864,6.757,9.823,10.087,5.529
-2.123,3.674,10.993,17.345,13.714,13.355,18.863,13.062
-1.445,2.706,12.947,17.58,17.022,13.286,24.925,17.674
-3.801,-0.628,11.223,15.218,16.568,10.407,26.888,18.634
-7.96,-5.275,7.058,11.048,13.548,6.067,23.537,16.478
-14.505,-12.253,-1.303,3.248,5.697,-1.421,12.767,9.389
-22.878,-21.147,-13.9,-7.918,-7.509,-12.324,-3.476,-2.583
-27.72,-26.783,-23.713,-16.537,-18.419,-21.052,-16.149,-12.783
-25.127,-25.198,-24.255,-18.074,-19.952,-22.763,-18.502,-15.299
-18.412,-19.218,-18.442,-15.239,-15.405,-19.91,-14.359,-12.539
-11.863,-13.284,-12.814,-12.205,-11.191,-16.908,-10.226,-9.718
-5.949,-7.947,-9.143,-9.562,-8.814,-14.683,-7.566,-8.432
-0.539,-2.464,-6.221,-7.195,-7.681,-12.999,-6.326,-8.107
2.739,1.448,-4.477,-6.438,-8.147,-12.667,-7.629,-9.047
3.195,2.128,-4.52,-7.215,-9.568,-13.324,-10.301,-11
2.607,1.39,-4.623,-6.954,-9.785,-12.711,-10.714,-11.53
1.734,1.01,-4.048,-4.861,-8.778,-10.447,-8.695,-9.909
0.005,0.065,-4.427,-2.906,-8.599,-8.468,-7.794,-8.635
-1.991,-2.101,-5.862,-2.086,-9.471,-7.577,-9.17,-9.019
-3.235,-4.349,-6.155,-1.431,-9.343,-6.9,-10.073,-9.189
-3.703,-5.425,-4.207,0.105,-7.216,-5.454,-8.547,-7.729
-4.745,-6.037,-1.757,2.046,-5.086,-3.581,-6.625,-6.436
-6.936,-7.313,-0.58,3.311,-4.31,-2.39,-6.287,-6.497
-8.958,-8.193,-0.429,3.842,-3.635,-1.997,-6.417,-6.438
-10.223,-7.714,-0.91,3.857,-2.875,-1.902,-6.178,-5.814
-11.334,-7.106,-2.046,3.345,-3.3,-1.897,-6.149,-5.613
-12.377,-7.788,-3.386,2.723,-4.696,-1.981,-6.138,-5.626
-12.977,-9.562,-4.424,2.502,-5.633,-2.149,-5.362,-4.804
-13.897,-11.711,-5.446,2.209,-5.871,-2.63,-4.393,-3.602
-16.513,-14.449,-6.866,0.878,-5.827,-4.005,-4.215,-3.246
-19.965,-17.74,-7.927,-1.275,-5.013,-6.236,-4.229,-3.423
-21.736,-20.183,-7.847,-2.99,-3.374,-8.152,-3.756,-3.33
-21.015,-20.453,-6.797,-3.257,-1.412,-8.423,-2.761,-2.625
-19.951,-19.402,-5.3,-2.523,0.465,-7.515,-1.346,-1.634
-20.464,-18.749,-3.831,-2.206,1.668,-7.311,-0.177,-1.423
-20.983,-17.493,-1.882,-2.046,2.865,-7.589,0.736,-1.651
-19.452,-13.845,1.375,-0.581,5.412,-6.474,2.225,-0.872
-16.626,-9.409,5.054,1.734,8.406,-4.359,4.055,0.624
-14.237,-6.783,6.821,3.052,8.934,-3.264,4.35,0.914
-12.03,-5.449,5.736,3.147,6.48,-3.296,2.194,-0.521
-8.862,-3.895,3.567,3.1,4.16,-3.271,-0.221,-2.047
-6.257,-3.076,1.87,2.911,3.511,-3.431,-1.113,-2.853
-5.955,-3.912,0.609,2.589,3.087,-4.062,-1.698,-3.233
-6.715,-5.418,-0.534,2.864,1.664,-4.328,-3.318,-3.244
-7.19,-7.154,-1.926,3.195,-1.036,-4.331,-5.361,-3.329
-7.016,-8.857,-3.127,2.718,-3.818,-4.838,-6.471,-3.872
-5.907,-9.497,-3.293,1.72,-4.563,-5.876,-6.671,-4.701
-4.383,-8.996,-3.109,0.736,-3.215,-6.957,-6.791,-5.436
-3.402,-8.245,-3.731,0.314,-1.97,-7.34,-6.777,-5.629
-2.794,-7.623,-4.754,0.924,-1.818,-6.679,-6.163,-4.969
-2.146,-7.309,-5.475,1.636,-1.747,-5.969,-5.033,-3.704
-2.737,-8.224,-6.516,0.622,-1.424,-6.775,-4.162,-3.075
-4.904,-10.229,-7.615,-1.435,-0.832,-8.607,-3.679,-3.538
-6.603,-11.5,-7.122,-2.029,0.519,-9.435,-2.819,-3.924
-6.915,-11.319,-5.272,-1.128,2.114,-9.038,-1.569,-3.545
-6.683,-10.494,-3.764,-0.411,3.098,-8.65,-0.408,-2.716
-6.751,-10.175,-3.19,-0.709,3.317,-9.058,0.284,-2.039
-7.384,-11.219,-3.225,-2.14,3.026,-10.544,-0.033,-2.123
-8.181,-12.815,-3.403,-4.103,2.724,-12.695,-1.288,-3.159
-8.534,-13.103,-2.961,-5.425,2.945,-14.395,-2.291,-4.373
-8.537,-11.806,-1.48,-5.465,3.705,-14.814,-2.051,-4.531
-9.072,-10.584,-0.33,-4.966,4.003,-14.483,-1.304,-3.727
-10.155,-10.415,-1.438,-5.429,3.014,-14.922,-1.359,-3.293
-10.62,-10.24,-4.099,-6.964,1.362,-16.549,-2.224,-3.921
-9.63,-9.039,-5.444,-7.78,0.322,-17.748,-3.106,-4.982
-7.495,-7.448,-4.683,-6.829,0.012,-17.102,-3.956,-5.814
-5.319,-6.483,-3.858,-5.356,-0.571,-15.512,-4.919,-6.561
-3.167,-5.776,-3.656,-4.502,-1.163,-14.489,-4.908,-6.955
-0.629,-4.478,-3.213,-3.761,-0.861,-14.061,-3.843,-6.797
1.003,-2.984,-3.101,-2.663,-0.44,-13.599,-3.705,-6.812
0.56,-1.922,-3.924,-1.415,-1.073,-12.796,-5.219,-7.285
-0.719,-0.836,-4.619,0.133,-2.385,-11.426,-7.301,-7.913
-0.891,0.706,-4.33,2.241,-2.923,-9.471,-8.779,-8.197
-0.397,1.592,-3.885,3.838,-2.459,-7.915,-9.208,-7.968
-0.417,0.88,-3.715,3.81,-1.552,-7.721,-8.505,-7.397
0.324,0.207,-2.613,3.361,0.467,-8.148,-6.35,-5.978
2.007,0.459,-1.492,3.366,2.504,-8.692,-4.256,-4.532
1.687,-0.861,-3.298,2.045,1.439,-10.489,-4.878,-5.461
-1.222,-4.558,-7.219,-1.346,-2.189,-13.642,-7.691,-8.48
-2.877,-6.924,-9.027,-4.199,-4.358,-16.112,-9.557,-10.342
-0.749,-5.44,-7.24,-4.317,-3.517,-16.565,-8.927,-9.426
2.356,-3.003,-4.715,-3.161,-2.206,-16.272,-7.021,-7.564
3.106,-2.987,-4.038,-2.987,-2.597,-16.69,-5.457,-6.781
2.256,-4.456,-4.897,-3.645,-3.88,-17.35,-4.912,-6.987
1.469,-5.542,-6.353,-3.981,-4.778,-17.517,-5.639,-7.132
0.21,-6.515,-7.935,-3.852,-5.307,-17.615,-7.063,-6.942
-2.39,-7.646,-8.87,-3.925,-5.846,-18.254,-8.144,-7.414
-5.223,-7.868,-8.696,-4.032,-6.367,-18.691,-8.576,-8.632
-6.729,-6.7,-8.35,-3.291,-7.229,-17.793,-8.867,-9.162
-6.851,-4.966,-9.099,-1.812,-8.839,-15.97,-9.248,-8.612
-6.12,-3.316,-10.842,-0.647,-10.501,-14.567,-9.491,-8.205
-5.356,-2.457,-12.989,-1.042,-12.044,-14.724,-10.172,-8.98
-5.336,-2.983,-15.269,-3.035,-14.11,-16.321,-11.438,-10.027
-6.144,-4.14,-17.241,-4.759,-16.298,-17.736,-12.065,-9.989
-7.448,-4.875,-18.45,-4.86,-17.522,-17.87,-11.539,-9.379
-8.443,-4.882,-18.834,-4.201,-17.643,-17.213,-10.847,-9.095
-8.587,-4.29,-18.99,-4.16,-17.727,-16.821,-11.083,-9.116
-8.122,-3.613,-19.38,-4.586,-18.039,-17.047,-11.806,-9.06
-7.767,-3.835,-19.718,-4.9,-17.686,-17.611,-11.883,-8.967
-8.028,-5.539,-19.497,-5.34,-16.277,-18.284,-11.3,-9.235
-8.604,-7.861,-18.191,-5.468,-14.015,-18.427,-10.736,-9.582
-9.364,-9.736,-15.641,-4.157,-11.449,-17.124,-10.414,-9.192
-10.391,-10.97,-12.021,-1.046,-8.91,-14.012,-9.119,-7.289
-11.29,-11.452,-7.733,2.98,-6.506,-9.898,-5.973,-4.294
-11.302,-10.708,-3.855,6.084,-4.647,-6.591,-2.858,-2.313
-9.749,-8.512,-1.231,7.385,-3.203,-5.037,-1.622,-2.197
-7.774,-6.388,0.35,7.929,-1.822,-4.553,-1.488,-2.351
-7.132,-6.276,1.794,8.843,-0.451,-4.065,-1.055,-1.453
-7.406,-7.635,3.373,9.64,0.659,-3.528,-0.469,-0.293
-7.499,-8.853,3.627,9.178,0.591,-3.959,-0.682,-0.162
-7.559,-9.527,1.364,7.452,-1.149,-5.766,-1.882,-0.979
-8.151,-9.841,-2.305,5.04,-3.909,-8.346,-3.862,-2.464
-8.581,-9.337,-4.982,2.689,-6.221,-10.516,-5.841,-4.209
-7.827,-7.67,-5.585,1.507,-6.971,-11.276,-6.472,-4.998
-6.815,-6.307,-5.486,1.297,-6.997,-11.369,-5.982,-4.835
-7.089,-7.09,-6.168,0.558,-7.92,-12.166,-6.137,-5.248
-8.183,-9.239,-7.29,-0.965,-9.57,-13.312,-7.454,-6.657
-7.728,-9.507,-7.686,-1.571,-10.009,-13.152,-8.166,-7.274
-4.754,-6.419,-7.015,-0.404,-8.638,-11.361,-7.314,-6.023
-1.627,-3.122,-6.37,0.616,-7.469,-10.074,-6.396,-4.633
-0.774,-2.995,-7.09,-0.349,-8.1,-11.051,-6.496,-4.863
-1.445,-4.648,-8.874,-2.198,-9.715,-13.069,-7.218,-6.271
-0.755,-4.45,-9.502,-2.512,-10.192,-13.596,-7.481,-7.061
1.932,-2.165,-7.664,-0.893,-8.791,-12.13,-6.553,-6.309
3.414,-1.108,-5.039,1.142,-7.005,-10.132,-5.24,-4.889
1.554,-3.022,-3.577,2.978,-5.917,-8.283,-4.38,-3.639
-1.893,-6.052,-3.251,4.667,-5.177,-6.66,-3.844,-2.819
-4.501,-7.745,-3.12,5.753,-4.117,-5.818,-3.313,-2.363
-6.408,-7.847,-2.651,6.289,-2.655,-5.661,-2.425,-1.496
-8.759,-7.583,-1.723,6.775,-1.162,-5.316,-0.941,0.362
-10.301,-6.918,0.368,7.791,1.029,-3.885,1.431,3.059
-9.118,-5.003,4.011,10.068,4.631,-0.915,4.618,6.021
-6.219,-2.687,7.514,13.065,8.193,2.462,7.416,8.398
-4.534,-1.96,8.39,14.467,9.313,3.791,8.131,9.112
-4.877,-2.905,6.445,13.505,7.751,2.699,6.701,8.102
-4.881,-2.855,4.218,12.773,5.914,2.04,5.369,7.292
-3.22,-0.529,3.536,13.688,5.47,3.169,5.474,8.013
-1.463,1.633,3.677,14.246,5.636,3.981,5.85,9.154
-1.064,1.492,3.267,13.212,4.844,2.987,4.962,8.853
-1.663,0.054,2.049,11.906,2.785,1.292,3.108,7.131
-2.331,-0.898,0.968,11.444,1.056,0.458,2.543,6.365
-3.218,-1.297,0.606,11.232,0.821,0.474,4.037,7.686
-4.72,-1.578,0.246,10.638,1.134,0.427,5.298,9.211
-6.171,-1.19,-0.799,10.187,0.612,0.227,4.551,9.025
-6.267,0.294,-1.595,10.868,-0.268,0.901,3.212,7.982
-4.369,2.269,-0.793,13.125,0.123,3.327,3.246,8.221
-1.698,3.805,0.641,15.71,1.429,6.328,3.639,9.291
0.687,5.042,1.646,17.26,2.782,8.188,3.458,9.874
3.185,6.663,4.026,18.614,5.533,9.563,4.687,11.08
5.209,8.072,8.697,20.606,10.15,11.379,7.937,13.478
5.471,8.396,13.059,22.081,14.269,12.545,10.769,15.164
4.43,7.867,14.879,21.755,15.938,11.966,11.576,14.83
4.198,7.343,15.259,20.117,15.9,10.391,11.481,13.887
5.297,7.135,15.47,18.371,15.215,8.969,11.355,13.68
5.6,6.552,14.437,16.56,13.681,7.6,9.839,13.176
4.718,6.373,12.401,15.213,12.102,6.844,6.96,12.236
4.79,8.745,11.849,15.868,11.648,8.108,4.795,12.202
5.746,12.135,12.682,17.365,11.306,9.853,3.119,12.141
4.738,12.009,11.734,16.545,9.395,8.899,0.183,10.041
1.691,8.674,8.54,13.895,6.608,6.407,-2.688,7.27
0.559,7.372,6.469,12.924,5.068,6.208,-2.896,6.928
2.192,8.774,6.323,13.834,4.503,7.716,-1.731,8.229
3.08,8.701,5.472,14.123,3.37,7.852,-1.977,8.272
1.929,6.893,3.275,13.494,1.975,6.981,-3.814,7.093
0.441,6.228,0.997,12.553,0.818,6.399,-6.395,6.027
-0.576,6.284,-1.162,10.13,-0.933,4.611,-8.768,4.814
-1.838,4.794,-3.723,5.656,-3.873,0.483,-9.802,2.874
-3.129,2.534,-6.148,1.691,-6.637,-3.346,-9.242,1.367
-3.482,1.633,-7.442,0.286,-7.747,-4.397,-8.423,1.16
-3.273,1.475,-8.161,-0.736,-8.151,-4.828,-9.178,0.466
-3.002,0.807,-9.128,-3.372,-8.9,-7.06,-10.985,-1.796
-2.381,0.464,-9.501,-5.652,-9.163,-9.148,-11.737,-3.757
-0.828,1.726,-7.759,-4.861,-7.648,-7.94,-10.804,-3.461
2.134,4.665,-3.866,-0.999,-4.111,-3.46,-8.915,-1.391
5.166,7.501,-0.124,3.326,-0.237,1.381,-7.04,0.425
5.815,7.868,1.326,5.97,1.399,4.538,-6.122,1.164
4.083,5.929,0.854,7.377,0.148,6.478,-6.275,1.493
2.925,4.636,0.597,8.932,-1.296,8.311,-5.76,2.205
4.24,6.131,2.676,11.038,0.205,10.569,-2.425,3.97
7.305,9.728,7.773,13.541,5.116,13.498,3.869,7.274
11.143,13.447,14.306,16.179,11.825,16.627,11.311,11.812
14.536,15.516,19.202,18.12,17.595,18.615,17.815,16.474
16.154,15.703,21.313,19.241,20.712,19.639,23.231,21.08
15.69,15.008,21.597,19.895,21.366,20.679,27.779,25.31
12.806,12.824,18.466,17.961,18.252,19.435,27.721,25.744
6.705,7.306,8.714,10.574,8.623,12.598,18.074,18.845
-2.588,-1.489,-6.255,-1.301,-6.55,1.32,0.316,6.056
-12.033,-10.426,-19.224,-12.544,-20.298,-9.042,-16.167,-6.208
-16.933,-15.859,-24.036,-18.133,-25.87,-13.795,-22.996,-11.947
-15.833,-16.756,-21.574,-17.319,-23.6,-12.545,-20.634,-10.611
-10.928,-13.716,-16.187,-12.966,-17.98,-8.026,-14.444,-5.974
-5.4,-8.11,-10.791,-8.583,-12.27,-3.502,-8.369,-1.935
-1.929,-2.97,-7.504,-6.575,-8.503,-1.285,-4.58,-0.199
-1.766,-1.107,-7.794,-7.585,-8.611,-1.839,-4.838,-1.188
-3.513,-1.961,-9.973,-9.858,-11.834,-3.488,-8.325,-3.976
-4.152,-2.595,-10.154,-10.06,-13.641,-3.574,-10.121,-5.331
-3.466,-2.679,-7.994,-7.956,-12.252,-2.004,-8.249,-4.253
-3.429,-4.256,-6.867,-6.93,-11.162,-1.225,-7.492,-3.84
-3.986,-6.728,-7.724,-7.963,-12.544,-1.69,-10.642,-5.503
-3.857,-7.535,-8.204,-8.872,-14.191,-1.822,-13.594,-7.059
-2.591,-6.046,-6.767,-8.684,-13.234,-1.222,-12.582,-6.739
-0.752,-3.873,-4.423,-8.383,-10.036,-0.736,-9.412,-5.553
0.578,-2.584,-2.951,-8.656,-7.35,-0.797,-6.969,-5.061
0.769,-2.444,-2.848,-9.168,-6.57,-1.157,-5.429,-5.031
0.171,-3.427,-3.337,-9.532,-6.701,-1.571,-4.247,-4.62
-0.658,-5.669,-3.747,-9.984,-6.582,-1.901,-3.594,-3.972
-1.69,-8.428,-4.171,-10.886,-6.328,-2.059,-3.571,-3.675
-1.956,-9.673,-4.352,-11.664,-5.701,-1.881,-3.298,-3.366
-0.52,-8.368,-4.218,-12.038,-4.412,-1.725,-2.256,-2.867
0.858,-6.333,-5.195,-13.126,-4.016,-2.541,-1.782,-3.208
0.531,-4.997,-7.285,-14.298,-5.172,-3.393,-2.477,-3.911
-0.287,-3.365,-8.098,-13.104,-6.167,-2.03,-2.811,-3.177
-0.353,-1.609,-7.607,-10.529,-6.648,0.478,-2.731,-1.838
-0.433,-1.791,-8.542,-10.43,-8.258,0.532,-4.233,-2.353
-0.362,-3.16,-10.38,-12.531,-10.016,-1.425,-5.865,-3.456
1.506,-2.296,-9.698,-12.627,-8.891,-1.137,-3.854,-1.744
4.02,0.668,-7.286,-10.232,-6.179,1.826,-0.017,1.367
4.542,2.623,-6.825,-8.661,-5.834,3.767,0.963,2.035
3.081,2.906,-8.533,-9.256,-8.277,2.993,-1.038,0.231
1.227,2.695,-10.309,-10.995,-11.284,0.763,-3.726,-1.98
0.447,2.816,-10.72,-12.321,-12.901,-0.806,-5.851,-3.439
1.098,3.47,-9.063,-12.041,-12.012,-0.355,-6.42,-3.838
2.307,4.093,-5.74,-10.378,-8.736,1.54,-4.808,-3.219
3.813,4.824,-2.117,-8.233,-4.687,3.818,-2.118,-1.965
5.884,6.345,0.866,-6.074,-1.741,6.226,-0.083,-0.781
7.574,7.691,3.198,-4.161,-0.223,8.392,0.88,0.021
7.554,7.461,4.95,-2.574,0.477,9.894,0.571,0.482
6.292,6.252,5.893,-1.522,0.717,10.717,-1.379,0.554
5.196,5.354,5.583,-1.906,0.56,10.312,-4.22,-0.205
4.938,4.851,4.012,-3.847,-0.035,8.345,-7.026,-1.915
5.741,4.54,2.55,-5.621,-0.669,6.286,-9.937,-3.196
7.234,4.621,2.438,-6.188,-0.867,5.576,-13.172,-3.152
8.687,5.332,3.21,-6.321,-0.515,5.933,-15.886,-2.654
9.686,6.892,4.214,-6.248,0.399,6.753,-17.331,-2.197
9.733,8.316,5.444,-5.672,1.677,7.487,-17.844,-1.569
8.476,7.249,5.91,-5.883,2.577,6.801,-18.188,-1.443
6.811,3.66,4.499,-7.911,2.652,4.508,-18.791,-2.287
6.913,1.44,3.161,-9.373,3.414,3.433,-18.448,-2.069
8.944,2.443,3.998,-8.032,5.78,5.211,-16.266,0.338
9.797,3.162,4.626,-6.062,7.007,7.13,-14.561,1.943
7.917,1.217,2.597,-5.937,4.903,7.032,-15.432,0.793
5.182,-1.228,0.064,-6.653,1.576,6.307,-17.313,-0.859
3.303,-2.238,-0.412,-6.364,-0.004,6.742,-17.492,-0.75
1.362,-2.854,-0.316,-5.135,-0.585,8.084,-16.559,0.013
-1.879,-4.436,-1.912,-4.32,-2.44,8.899,-17.343,-0.689
-4.816,-6.195,-3.894,-4.34,-4.337,8.778,-19.303,-2.237
-5.669,-6.804,-4.205,-4.291,-4.083,8.668,-19.46,-2.725
-5.109,-6.366,-3.013,-3.194,-2.276,9.689,-17.252,-1.549
-4.753,-6.229,-0.907,-1.428,-0.273,11.646,-14.443,0.596
-5.665,-7.501,1.958,-0.622,1.624,12.765,-12.217,2.424
-6.984,-8.706,5.036,-0.98,3.452,12.424,-10.165,3.454
-7.05,-7.714,7.269,-1.274,4.668,11.808,-8.312,3.88
-5.925,-5.449,8.366,-1.469,5.285,11.376,-7.441,3.847
-4.882,-3.741,9.107,-2.466,6.119,10.575,-7.422,3.364
-4.274,-2.206,9.811,-3.982,7.07,9.651,-7.447,2.375
-3.509,-0.205,10.158,-4.752,7.424,9.521,-7.208,1.412
-3.435,0.443,9.142,-5.395,6.191,9.253,-7.866,0.393
-4.996,-1.558,6.016,-7.554,3.093,7.084,-10.032,-1.42
-6.386,-3.492,2.37,-10.067,0.055,4.207,-11.711,-3.102
-5.896,-2.725,0.353,-10.814,-1.155,3.162,-11.278,-3.186
-4.606,-0.745,-0.232,-10.363,-1.181,3.8,-9.803,-2.288
-4.29,-0.268,-1.215,-10.625,-1.774,3.774,-9.278,-2.415
-5.009,-1.625,-3.567,-12.041,-3.455,2.092,-10.023,-4.041
-5.897,-3.424,-6.563,-13.444,-5.272,0.404,-10.635,-5.589
-6.266,-4.308,-8.726,-13.681,-6.156,0.488,-9.927,-5.758
-5.514,-3.416,-9.118,-12.88,-5.675,1.806,-7.968,-4.791
-4.219,-1.44,-8.436,-12.227,-4.666,2.417,-5.884,-3.961
-2.763,0.297,-7.421,-11.854,-3.683,2.221,-3.934,-3.453
0.306,2.121,-5.463,-10.698,-1.896,2.946,-1.239,-2.165
4.573,4.086,-3.114,-9.184,0.135,4.532,1.531,-0.488
7.181,5.151,-2.014,-8.304,0.848,5.643,2.988,0.344
7.735,5.933,-1.774,-7.266,0.771,6.556,3.588,0.721
8.5,7.478,-0.851,-5.443,1.207,7.885,4.134,1.583
10.24,8.794,1.173,-3.515,2.158,9.319,3.992,2.744
12.216,9.203,4.237,-1.361,3.681,11.188,3.217,3.907
14.148,9.62,7.855,1.485,5.936,13.958,3.141,5.16
15.104,9.929,10.353,3.904,7.618,16.441,3.752,5.831
14.508,9.545,11.539,5.311,8.388,17.81,4.714,5.857
13.902,9.439,13.568,6.891,9.99,18.968,6.302,6.22
13.71,9.517,16.318,8.17,12.152,19.535,7.137,6.349
12.105,8.108,17.271,7.39,12.68,18.116,6.322,5.385
9.182,6.155,16.62,5.496,12.025,15.875,5.956,4.583
7.561,6.137,16.312,4.302,12.407,14.676,7.592,5.013
8.163,7.391,15.379,3.032,13.084,13.571,9.422,5.391
9.916,8.186,12.278,1.223,12.16,11.672,9.54,4.811
12.108,9.148,8.713,0.142,10.631,10.17,8.828,4.408
13.714,10.7,6.117,-0.994,9.238,8.661,8.039,3.996
14.87,12.734,4.02,-2.931,7.304,6.58,7.062,2.783
17.425,16.022,2.659,-3.182,5.635,6.316,6.741,2.202
20.962,19.653,1.79,-1.071,4.828,8.404,6.539,2.528
24.354,22.456,1.21,1.375,4.847,10.684,5.518,2.534
29.099,26.006,2.982,4.445,7.103,13.554,6.035,3.335
35.354,30.776,7.931,9.119,12.116,18.215,9.684,6.174
39.244,33.683,12.93,13.541,16.892,22.636,13.43,9.013
38.409,33.029,15.119,16.005,18.479,24.808,15.526,9.996
36.299,31.934,16.009,17.745,18.374,26.075,18.965,10.661
36.659,33.376,18.091,19.768,19.198,27.686,24.475,12.169
38.269,35.633,20.253,20.679,19.893,28.234,28.12,12.922
38.33,35.989,20.191,19.279,18.246,26.472,28.111,11.718
36.967,34.683,18.674,16.285,15.254,23.23,26.834,9.559
36.215,33.25,18.237,13.08,13.767,19.991,26.146,7.914
36.169,31.832,19.178,10.329,14.223,17.263,25.38,6.925
35.171,29.396,20.206,8.172,15.282,14.893,24.228,6.337
32.446,25.307,21.031,6.367,16.322,12.675,23.456,5.889
28.805,20.557,21.941,4.723,17.305,10.782,23.42,5.029
26.392,17.829,23.417,4.566,19.045,10.656,24.86,4.807
25.018,16.97,24.635,5.926,21.235,12.073,27.23,5.788
20.642,13.383,22.612,4.877,20.793,10.91,27.384,5.28
12.914,6.757,17.298,-0.068,17.227,5.76,24.803,2.375
8.198,3.545,13.62,-4.056,15.281,1.516,23.589,0.876
9.669,5.668,14.139,-3.794,17.389,1.277,25.725,2.648
11.711,6.558,14.627,-2.948,19.042,1.542,27.658,3.826
9.062,2.185,10.949,-5.606,16.221,-1.184,26.187,1.318
4.126,-3.092,5.36,-9.996,11.311,-5.368,22.588,-2.664
1.542,-4.836,1.927,-12.004,8.271,-7.985,19.983,-4.608
1.358,-4.859,0.46,-11.306,7.126,-8.467,19.484,-4.228
0.619,-6.396,-1.669,-10.916,5.254,-8.237,18.988,-4.118
-0.737,-8.083,-4.333,-11.462,2.406,-7.909,17.556,-5.051
-0.598,-6.853,-4.976,-10.502,1.084,-6.746,17.674,-4.869
0.096,-4.31,-3.454,-8.09,1.94,-5.244,19.775,-3.298
-0.896,-4.231,-1.868,-6.984,3.165,-4.922,20.802,-2.487
-2.732,-5.819,-0.526,-7.178,3.796,-5.26,19.767,-2.846
-2.893,-4.982,1.828,-5.568,4.772,-3.994,19.36,-2.483
-1.368,-1.111,4.535,-1.695,6.165,-1.115,20.715,-1.01
-0.591,1.921,5.309,0.809,6.114,0.416,21.483,-0.322
-1.356,1.783,3.785,-0.095,4.116,-0.896,20.454,-0.975
-2.541,0.055,1.584,-2.301,1.962,-3.154,18.921,-1.775
-3.247,-1.05,0.444,-2.712,1.933,-3.574,18.58,-1.401
-3.385,-1.283,1.088,-0.639,4.499,-1.574,20.131,0.51
-4.204,-2.367,1.697,0.913,6.336,-0.17,21.659,1.916
-6.406,-4.807,0.203,-0.831,4.262,-2.101,20.338,0.812
-8.071,-6.322,-1.725,-3.774,0.264,-5.376,16.961,-1.301
-6.761,-5.333,-0.951,-4.101,-1.345,-6.358,15.703,-1.414
-2.963,-3.057,1.99,-2.152,-0.048,-5.093,17.699,0.401
0.204,-1.568,3.684,-1.131,1.047,-4.191,18.929,1.13
1.534,-0.985,3.302,-1.326,1.053,-4.075,17.353,-0.051
2.988,0.354,3.384,-0.278,2.07,-3.149,16.077,-0.628
5.184,2.493,4.881,1.85,4.191,-1.916,17.089,0.597
5.544,3.131,5.464,1.887,4.684,-2.82,17.684,1.415
2.926,1.444,4.039,-0.958,2.747,-5.921,16.223,0.585
-0.247,-0.704,2.613,-3.621,0.952,-8.558,15.385,0.179
-2.92,-2.812,1.868,-4.441,0.372,-9.76,15.884,0.725
-6.059,-5.898,0.587,-4.718,-0.425,-10.539,15.69,0.517
-8.729,-8.78,-1.106,-4.815,-1.787,-10.776,15.554,0.061
-9.335,-9.566,-2.269,-3.556,-2.665,-9.577,17.202,1.272
-8.286,-8.41,-2.351,-0.663,-2.229,-6.949,19.723,3.966
-7.641,-6.757,-1.973,1.948,-1.402,-4.662,20.81,5.473
-8.883,-6.257,-3.273,1.917,-2.366,-5.154,19.212,4.001
-11.379,-7.701,-6.724,-0.168,-5.312,-7.817,15.936,1.244
-13.236,-9.709,-9.208,-1.179,-7.575,-9.012,13.507,0.125
-13.086,-9.865,-8.236,0.334,-6.962,-7.273,13.613,1.304
-11.652,-8.076,-5.729,2.411,-4.75,-5.157,15.722,2.802
-10.293,-6.27,-4.107,3.232,-3.261,-4.557,18.928,3.387
-9.115,-5.268,-2.527,3.5,-2.365,-4.277,22.814,3.984
-8.851,-5.473,-0.631,3.604,-1.153,-3.88,25.972,4.513
-10.482,-7.482,-0.392,2.659,-0.456,-4.898,26.784,3.529
-12.181,-9.673,-1.786,1.402,-1.201,-6.882,25.764,1.562
-11.102,-9.104,-1.657,2.16,-1.58,-6.835,25.929,1.467
-7.636,-5.281,1.792,5.573,0.985,-3.606,29.507,4.478
-4.052,-0.245,6.967,9.909,6.061,0.699,35.716,9.083
-0.746,4.202,11.687,13.557,11.264,4.22,43.144,14.432
2.595,7.061,15.202,16.286,15.093,7.091,50.613,20.347
5.407,7.995,18.051,18.566,17.563,9.722,55.976,25.337
5.838,6.613,19.453,19.347,17.726,10.488,55.875,26.518
-0.025,0.423,15.132,15.18,12.095,5.976,46.772,20.598
-12.981,-10.946,3.775,5.666,0.512,-3.561,29.962,8.557
-25.566,-20.712,-7.037,-2.998,-9.617,-11.714,14.556,-2.211
-29.232,-22.282,-9.504,-5.138,-11.314,-13.317,9.384,-5.564
-24.817,-17.795,-5.534,-2.27,-6.603,-10.398,13.156,-3.451
-19.183,-12.865,-1.208,1.401,-1.605,-7.071,18.718,-0.898
-15.253,-9.007,1.918,4.61,1.67,-3.997,22.92,1.077
-12.569,-6.257,3.988,6.466,3.343,-1.682,25.441,2.754
-11.231,-5.649,3.637,5.337,2.851,-2.107,25.391,2.789
-10.382,-6.017,1.613,2.65,1.16,-4.287,23.544,1.461
-7.869,-4.38,1.06,2.115,0.496,-4.604,22.499,1.246
-3.111,0.099,3.117,4.953,1.818,-1.973,23.731,3.07
1.357,5.018,5.496,8.596,3.871,1.075,25.535,4.863
3.196,7.64,6.324,10.373,5.048,2.416,25.406,5.108
3.172,7.435,6.635,10.465,5.275,2.625,23.799,4.682
2.989,5.547,7.695,10.337,5.369,2.894,23.092,4.375
3.376,3.82,9.012,10.527,5.902,3.263,24.228,4.146
3.441,2.939,9.124,10.102,6.056,2.686,25.282,3.5
1.873,1.716,7.718,8.264,4.896,0.683,24.275,2.121
-0.15,0.494,6.74,6.412,3.897,-1.064,22.461,0.973
-0.605,1.087,7.374,6.076,4.823,-1.208,22.228,0.942
-0.281,2.541,7.858,6.159,6.523,-1.079,23.55,1.319
-0.806,2.657,6.776,5.589,6.817,-1.649,24.301,1.095
-1.231,2.044,5.008,5.69,5.766,-1.613,23.186,0.473
-0.9,1.559,2.657,6.452,4.086,-0.889,20.42,-0.418
-0.951,0.411,-0.279,5.906,1.923,-1.02,17.36,-1.595
-1.006,-0.622,-1.222,4.835,0.809,-1.51,16.567,-1.603
-1.365,-1.007,-0.093,4.878,0.985,-1.558,17.79,-0.452
-4.247,-2.802,-0.999,4.518,-0.081,-2.525,17.181,-0.697
-8.383,-5.669,-4.475,2.673,-2.611,-4.518,14.093,-2.589
-9.597,-5.945,-6.369,1.454,-3.758,-5.191,12.412,-3.346
-7.397,-3.067,-5.337,2.174,-2.784,-3.933,13.717,-1.896
-5.464,-0.655,-4.795,2.652,-2.608,-3.252,14.462,-0.833
-5.353,-0.276,-6.612,1.507,-4.771,-4.233,12.055,-2.177
-5.115,0.028,-8.282,0.797,-6.797,-4.801,8.805,-4.208
-3.938,0.919,-7.683,1.642,-6.608,-4.113,7.545,-4.759
-2.951,1.143,-5.652,2.533,-5.126,-3.48,8.178,-4.183
-3.467,0.311,-3.898,2.577,-3.996,-3.242,9.027,-3.811
-5.723,-0.927,-3.3,2.338,-3.638,-2.975,8.852,-4.006
-8.227,-1.886,-3.779,2.022,-3.977,-3.289,7.522,-4.698
-8.742,-1.605,-4.043,1.925,-4.511,-3.98,6.122,-5.33
-5.998,0.904,-2.133,3.576,-3.516,-2.716,6.045,-4.444
-2.239,3.898,1.145,6.531,-1.114,0.412,6.557,-2.654
-1.102,4.035,2.726,8.02,0.419,2.134,6.399,-1.974
-2.211,1.627,2.36,7.95,0.942,1.897,6.782,-1.667
-3.018,-0.546,1.816,7.926,1.362,1.533,8.117,-0.564
-3.203,-1.879,1.158,7.354,1.01,0.936,8.005,0.069
-3.854,-3.561,-0.48,5.087,-0.669,-0.997,5.454,-0.809
-4.904,-5.456,-2.432,2.069,-2.286,-3.658,3.104,-2.044
-5.801,-5.858,-3.357,-0.019,-2.312,-5.635,2.701,-2.502
-7.066,-4.837,-3.929,-1.8,-1.799,-7.57,1.973,-3.199
-8.462,-4.21,-5.246,-4.604,-2.194,-10.744,-0.176,-4.844
-8.073,-3.319,-5.852,-6.361,-2.369,-13.026,-0.674,-5.534
-5.031,0.151,-4.035,-4.169,-0.918,-11.131,2.051,-3.584
-2.062,4.344,-1.867,-0.307,0.269,-7.006,4.386,-1.177
-2.768,4.652,-3.026,0.675,-1.67,-5.655,2.788,-1.666
-6.178,1.437,-6.854,-0.435,-5.272,-6.902,-0.579,-3.925
-8.747,-1.203,-9.389,0.111,-6.95,-6.843,-1.832,-4.555
-9.22,-1.913,-8.793,2.412,-5.963,-4.899,-0.852,-3.206
-8.167,-1.646,-6.546,4.107,-3.976,-3.323,0.328,-1.85
-6.901,-1.439,-5.441,4.208,-3.169,-3.38,0.16,-2.029
-6.519,-1.779,-6.383,3.549,-4.212,-4.433,-1.831,-3.741
-6.262,-1.649,-7.421,3.214,-5.466,-5.241,-4.529,-5.61
-4.676,-0.202,-6.914,3.067,-5.441,-5.683,-5.875,-6.266
-2.162,1.19,-5.257,2.482,-4.416,-6.186,-5.33,-5.796
-0.115,1.088,-3.261,2.164,-2.988,-6.196,-4.283,-5.253
1.189,0.146,-1.392,2.777,-1.301,-5.593,-3.607,-5.155
1.777,-0.677,-0.406,2.761,-0.242,-5.96,-3.492,-5.582
1.622,-1.379,-0.313,1.055,-0.306,-7.742,-4.187,-6.166
0.942,-2.039,-0.032,-0.617,-0.342,-9.186,-5.101,-6.21
-0.149,-2.507,0.691,-0.592,0.459,-9.198,-5.256,-5.606
-0.782,-2.301,1.439,0.796,1.745,-8.098,-4.689,-4.585
-0.573,-1.773,1.916,1.827,2.439,-7.017,-4.37,-3.826
-1.116,-2.832,1.381,1.056,1.541,-7.308,-4.514,-3.979
-3.495,-6.029,-0.7,-0.645,-0.672,-8.647,-4.805,-4.599
-6.33,-8.912,-3.764,-1.221,-3.179,-9.198,-5.708,-5.103
-7.853,-9.514,-6.675,-0.512,-5.123,-8.484,-7.037,-5.486
-8.272,-9.347,-8.759,-0.211,-6.155,-8.219,-7.975,-6.086
-7.824,-10.042,-9.528,-0.771,-6.133,-9.281,-8.711,-6.95
-5.855,-9.882,-8.563,-0.612,-5.141,-9.942,-9.457,-7.327
-3.382,-7.343,-6.645,1.046,-4.061,-8.61,-9.577,-6.504
-2.201,-4.441,-5.123,3.014,-3.523,-6.234,-9.152,-5.083
-2.565,-3.902,-4.367,4.03,-3.276,-4.964,-9.568,-4.78
-2.834,-4.632,-3.432,4.981,-2.502,-4.592,-10.532,-5.4
-0.943,-2.736,-1.306,7.904,-0.451,-2.52,-9.918,-4.494
2.297,1.6,0.939,11.755,1.888,1.096,-7.799,-1.839
3.675,3.174,0.95,12.615,2.26,2.481,-6.247,0.027
1.69,-0.138,-2.167,9.206,-0.594,-0.192,-6.769,-0.557
-2.101,-4.261,-7.004,4.627,-5.519,-4.455,-9.287,-2.837
-5.143,-5.503,-11.024,1.971,-9.673,-7.282,-11.998,-4.952
-6.142,-4.894,-12.387,1.132,-10.936,-8.336,-13.136,-5.71
-5.87,-4.586,-10.956,0.858,-9.102,-8.709,-12.492,-5.051
-6.318,-4.695,-8.331,0.763,-6.054,-8.897,-11.348,-4.061
-8.057,-4.703,-6.577,0.437,-4.332,-9.139,-10.982,-4.038
-9.62,-4.815,-6.491,-0.622,-4.701,-9.923,-11.373,-5.168
-9.715,-5.212,-7.033,-1.56,-5.91,-10.787,-11.895,-6.341
-8.322,-5.516,-6.706,-0.967,-6.521,-10.247,-12.276,-6.293
-6.56,-5.583,-5.757,0.601,-6.611,-8.325,-12.847,-5.546
-5.013,-5.372,-4.893,1.501,-6.377,-6.785,-13.233,-5.076
-3.057,-4.64,-3.73,1.163,-5.18,-6.787,-12.673,-4.557
-0.931,-3.693,-2.85,-0.332,-3.624,-8.309,-12.35,-4.198
0.662,-2.463,-3.083,-2.062,-2.824,-10.17,-13.257,-4.433
1.93,-0.327,-3.571,-2.394,-2.687,-10.7,-13.961,-4.463
2.561,1.568,-3.9,-1.468,-3.046,-10.036,-13.462,-3.952
1.27,0.93,-5.032,-1.394,-4.241,-10.102,-13.222,-4.113
-1.295,-1.76,-6.853,-2.714,-5.771,-11.312,-14.701,-5.55
-1.865,-2.942,-7.521,-2.985,-5.991,-11.351,-16.489,-6.673
0.582,-0.909,-6.323,-0.421,-4.666,-8.506,-16.724,-6.204
3.576,2.096,-4.621,3.702,-3.067,-4.012,-16.052,-4.835
5.516,3.511,-3.125,6.85,-1.185,-0.533,-15.37,-3.449
6.511,3.072,-1.403,7.404,1.19,0.176,-14.341,-2.497
6.534,1.857,0.156,5.989,2.648,-1.214,-13.104,-2.292
5.173,0.305,0.547,4.605,2.37,-2.654,-12.518,-2.427
2.52,-1.883,-0.302,4.22,1.563,-3.202,-12.504,-1.755
-0.647,-4.251,-1.67,4.218,0.942,-3.357,-12.585,-0.389
-3.461,-5.97,-2.75,3.706,-0.017,-3.757,-13.148,0.027
-4.939,-6.839,-2.479,2.96,-0.598,-4.166,-13.819,-0.456
-4.389,-6.735,-0.433,2.99,0.418,-3.92,-13.466,-0.375
-1.801,-5.081,2.525,3.995,2.732,-2.95,-12.347,0.295
1.815,-1.967,4.958,5.129,4.765,-1.793,-11.856,0.513
4.282,0.619,5.208,5.209,4.566,-1.4,-12.915,-0.526
4.636,1.109,3.153,4.291,2.399,-2.079,-15.047,-2.439
4.356,0.786,1.23,3.852,1.123,-2.728,-16.806,-3.651
4.768,1.277,0.969,4.136,1.784,-2.678,-17.367,-3.517
5.157,2.1,0.946,4.081,2.33,-2.46,-17.346,-3.181
4.525,2.528,0.3,4.205,1.84,-1.921,-17.208,-3.134
3.509,3.053,0.545,5.709,1.858,-0.402,-16.301,-2.375
2.843,3.624,2.04,7.464,2.795,1.278,-15.088,-1.235
2.251,3.24,3.066,7.943,3.479,1.983,-14.839,-0.964
1.044,1.748,2.921,7.862,3.479,1.981,-15.254,-1.302
-1.353,0.012,2.407,7.945,2.993,1.797,-15.501,-1.738
-3.789,-0.689,2.373,7.784,2.524,1.848,-15.228,-1.979
-4.337,0.235,2.659,7.296,2.43,2.374,-14.428,-1.461
-3.033,1.643,2.438,6.692,2.424,2.671,-13.674,-0.448
-1.39,2.179,1.789,6.034,2.348,2.301,-13.626,0.031
-0.74,1.512,1.104,5.134,2.048,1.461,-14.343,-0.57
-1.211,0.155,0.04,3.768,1.248,-0.019,-15.111,-1.643
-1.667,-0.552,-1.235,2.192,0.247,-1.905,-15.294,-2.196
-1.054,0.307,-1.897,0.971,-0.267,-3.109,-14.923,-1.93
0.112,1.798,-2.03,0.365,-0.181,-3.197,-14.495,-1.33
0.798,2.781,-1.95,0.432,0.166,-2.756,-14.331,-0.762
2.046,4.343,-0.872,1.399,1.034,-1.955,-13.96,0.086
5.082,7.613,1.216,2.924,2.37,-0.698,-13.432,0.919
8.388,10.95,2.855,4.257,3.124,0.616,-13.41,1.05
9.377,12.022,3.14,5.252,2.477,1.697,-14.028,0.658
7.761,10.744,2.172,5.883,0.717,2.506,-15.475,0.162
6.847,9.562,0.976,6.398,-0.274,3.341,-17.188,0.248
9.053,10.139,0.554,7.142,0.718,4.402,-18.106,1.255
11.871,10.73,0.468,7.112,1.967,4.726,-18.936,2.059
12.473,9.914,0.287,5.547,1.822,3.576,-20.705,1.796
12.137,9.324,0.78,4.142,1.493,2.222,-22.205,1.376
12.364,9.616,2.107,4.349,2.261,1.888,-22.241,1.782
10.998,8.262,2.521,4.075,2.349,1.021,-22.61,1.741
7.043,4.362,1.26,1.275,0.514,-1.862,-24.644,0.05
4.169,1.099,0.501,-1.861,-0.732,-4.673,-26.184,-1.52
4.578,0.566,1.388,-2.616,0.101,-5.147,-25.637,-1.494
5.894,1.302,2.262,-1.711,0.982,-4.118,-24.034,-1.196
6.133,2.142,2.264,-0.825,0.779,-3.169,-22.524,-1.869
6.517,4.003,2.684,0.232,1.197,-2.279,-21.297,-2.356
8.128,7.182,3.763,1.693,2.739,-1.164,-20.817,-1.44
9.346,9.801,3.181,1.847,2.643,-1.058,-22.175,-0.593
8.724,10.518,0.049,-0.215,-0.202,-2.775,-24.876,-1.346
6.935,9.832,-3.417,-2.628,-3.182,-4.917,-27.077,-2.7
5.081,8.189,-5.868,-3.637,-4.763,-5.985,-28.249,-3.313
3.464,5.927,-7.942,-3.822,-6.295,-6.233,-28.868,-3.509
2.048,4.088,-9.516,-4.346,-8.397,-6.576,-29.236,-4.088
1.476,3.792,-9.367,-4.853,-9.236,-6.941,-29.426,-4.636
2.607,5.324,-7.153,-4.31,-7.466,-6.534,-28.81,-4.14
5.926,8.478,-3.162,-1.965,-3.559,-4.458,-25.472,-1.679
11.22,13.248,2.587,2.598,1.89,-0.101,-18.237,3.202
16.447,18.434,8.817,8.215,7.984,5.506,-9.546,9.308
19.231,21.898,13.507,12.905,13.321,10.401,-2.75,15.021
19.733,23.708,16.762,16.473,17.494,14.164,2.353,20.095
19.755,25.335,19.459,19.243,20.506,16.994,6.699,24.195
18.526,25.071,18.842,18.634,19.607,16.408,6.379,24.522
13.052,19.2,11.179,11.652,11.502,9.316,-2.847,18.035
5.272,9.744,0.153,1.66,0.358,-1.038,-16.434,7.082
1.583,4.029,-6.15,-4.25,-5.495,-7.168,-26.126,-1.658
3.468,4.518,-6.936,-4.593,-5.797,-7.238,-30.618,-4.231
6.874,6.886,-7.05,-2.685,-6.078,-5.051,-32.514,-2.227
9.923,8.124,-6.48,0.365,-6.097,-2.192,-31.074,1.015
13.522,9.213,-2.752,4.686,-2.599,1.878,-25.397,4.329
15.774,9.954,0.585,7.245,0.882,4.479,-20.058,6.502
14.668,8.959,-0.387,5.841,0.047,3.1,-19.686,5.612
13.232,8.148,-2.334,3.666,-1.479,0.719,-22.254,3.044
13.842,9.599,-2.095,3.322,-0.356,0.103,-24.086,1.484
14.305,11.75,-2.048,2.845,0.201,-0.528,-24.832,1.008
12.965,12.632,-3.914,0.968,-2.372,-2.293,-25.322,0.814
10.799,12.027,-5.653,-0.67,-5.418,-3.658,-25.57,0.587
9.16,10.801,-4.871,-0.651,-5.356,-3.604,-24.793,0.138
8.925,10.163,-1.832,0.973,-2.451,-2.127,-22.395,0.522
9.865,10.147,0.866,3.245,0.256,0.327,-19.083,2.865
9.72,9.151,1.133,4.531,0.908,2.104,-16.651,5.029
7.261,6.641,-0.156,4.207,0.653,2.034,-15.529,4.449
4.962,4.883,-0.262,3.842,1.905,1.654,-13.717,2.844
4.928,5.549,1.587,4.719,4.933,2.52,-10.107,3.141
5.955,7.255,3.82,6.296,7.598,3.95,-6.942,4.904
6.415,8.108,5.437,7.56,8.334,5.034,-7.236,5.476
6.698,7.878,6.629,8.044,8.058,5.687,-9.808,4.119
7.914,7.516,8.044,8.423,8.775,6.276,-10.057,3.135
9.92,7.987,9.949,9.818,10.586,7.524,-7.069,4.176
11.502,9.136,11.017,11.733,11.288,9.23,-4.672,5.739
11.472,9.622,9.801,12.397,9.387,9.919,-5.186,5.422
10.548,9.226,8.007,11.743,7.107,9.394,-6.485,3.557
11.364,9.824,8.715,11.587,7.886,9.275,-5.724,2.6
14.444,12.071,11.359,12.267,10.725,9.834,-3.508,3.152
17.098,13.898,12.958,12.307,11.81,9.59,-2.065,3.704
17.325,13.416,12.753,11.153,10.461,8.01,-1.906,3.301
16.013,11.187,11.651,9.57,8.819,6.031,-2.208,2.331
14.794,9.416,9.837,7.965,7.664,4.372,-2.551,1.342
14.184,9.277,7.63,5.908,6.161,2.65,-3.425,0.332
14.279,9.936,6.031,3.451,4.387,0.638,-4.439,-0.197
14.298,10.019,4.573,1.302,2.644,-1.107,-4.299,0.081
13.007,8.928,2.021,-0.256,0.307,-2.346,-3.363,0.061
10.94,7.306,-0.37,-0.941,-2.288,-2.995,-2.764,-0.752
9.441,6.155,-0.721,-0.384,-3.524,-2.665,-2.347,-1.217
8.851,5.83,0.064,1.013,-2.836,-1.439,-1.705,-0.55
8.362,6.02,-0.049,1.996,-1.974,-0.567,-1.533,0.217
6.785,6.085,-1.26,1.442,-2.633,-1.446,-2.481,-0.223
4.453,5.821,-1.961,-0.006,-3.751,-3.259,-3.595,-1.084
3.51,5.594,-0.792,-0.438,-3.152,-3.645,-3.362,-0.649
5.449,5.95,2.292,0.969,-0.397,-1.972,-1.722,0.997
8.838,7.036,5.874,3.277,2.556,0.198,-0.528,2.076
10.912,7.983,8.216,5.263,3.721,1.668,-0.945,1.978
10.663,7.679,9.316,6.658,3.636,2.75,-1.358,1.994
8.722,5.889,9.789,7.478,3.43,3.662,-0.586,2.507
6.355,3.582,9.076,7.525,2.793,3.844,-0.213,2.607
4.843,2.078,6.915,6.934,1.573,3.079,-1.539,2.099
4.911,1.947,5.077,6.548,1.243,2.319,-2.836,2.039
6.371,2.988,5.658,7.295,3.091,2.927,-1.725,3.196
7.624,4.033,7.685,8.532,5.688,4.397,0.604,4.145
7.111,3.62,8.282,8.536,6.494,4.533,0.907,3.218
5.061,1.579,6.937,7.043,5.075,2.77,-0.855,1.405
2.882,-0.874,5.416,5.554,3.223,1.015,-1.743,0.777
0.793,-2.789,3.751,4.374,1.568,-0.109,-1.799,0.774
-2.288,-4.542,0.324,1.887,-1.445,-2.545,-4.149,-1.007
-4.941,-5.926,-3.374,-1.318,-4.854,-5.984,-7.666,-3.633
-4.561,-6.012,-4.44,-2.645,-5.924,-7.676,-8.245,-4.117
-2.873,-5.886,-4.371,-2.443,-6.068,-7.848,-6.945,-3.285
-3.879,-7.287,-6.497,-3.078,-8.507,-8.858,-7.958,-4.065
-7.507,-9.345,-9.829,-4.326,-11.895,-10.313,-10.756,-5.951
-9.927,-9.93,-10.561,-3.632,-11.92,-9.595,-10.988,-5.862
-9.778,-9.268,-8.222,-0.506,-8.329,-6.387,-7.885,-3.484
-9.231,-9.387,-5.667,2.622,-5.195,-3.209,-5.021,-1.281
-9.824,-11.18,-4.717,3.653,-5.018,-2.147,-4.739,-0.59
-11.207,-13.805,-5.326,2.497,-6.659,-3.351,-5.897,-1.093
-11.856,-15.146,-6.156,0.933,-7.483,-4.992,-5.896,-1.573
-11.04,-14.244,-5.878,0.581,-6.574,-5.217,-4.217,-1.159
-9.63,-12.647,-4.783,1.208,-5.066,-4.366,-2.629,-0.205
-8.012,-11.133,-3.878,2.351,-3.898,-3.465,-1.911,0.928
-6.867,-9.716,-4.363,3.549,-4.152,-2.98,-1.889,1.532
-8.332,-10.448,-7.002,3.225,-6.513,-3.719,-2.994,0.267
-12.733,-14.486,-10.363,0.731,-9.419,-6.023,-5.219,-2.582
-16.551,-18.765,-11.984,-1.721,-10.843,-8.11,-7.068,-4.418
-16.904,-20.124,-11.414,-1.921,-10.714,-8.106,-7.227,-3.707
-15.467,-19.54,-10.125,-0.865,-9.883,-6.983,-6.211,-2.066
-14.673,-18.661,-8.683,-0.093,-8.225,-6.189,-4.623,-0.866
-14.397,-17.151,-6.973,0.778,-6.204,-5.449,-2.83,0.112
-14.18,-15.609,-6.237,1.474,-6.007,-5.031,-2.408,0.196
-14.302,-15.368,-7.159,0.935,-7.999,-5.533,-3.832,-1.048
-14.124,-15.345,-7.549,0.457,-9.081,-5.558,-4.704,-1.769
-12.302,-13.46,-4.934,2.323,-6.935,-3.533,-3.106,-0.424
-9.596,-10.412,-0.674,5.47,-3.513,-0.724,-0.786,1.335
-8.417,-8.778,1.082,6.496,-2.131,0.122,-0.406,1.207
-9.288,-9.276,-1.389,4.303,-3.495,-1.947,-1.953,-0.538
-9.898,-10.064,-5.055,0.932,-5.657,-5.246,-3.806,-2.223
-7.488,-8.857,-5.518,-0.914,-5.744,-6.953,-4.27,-2.489
-2.856,-5.812,-2.426,-0.606,-3.112,-6.19,-2.841,-1.474
0.315,-3.394,0.745,0.359,-0.172,-4.682,-0.815,-0.501
0.881,-2.517,2.111,1.205,1.202,-3.571,0.614,0.298
0.813,-2.015,2.378,2.018,1.223,-2.723,0.943,1.394
1.411,-1.318,1.971,2.107,0.612,-2.503,0.156,2.096
