EEG 1,EEG 2,EEG 3,EEG 4,EEG 5,EEG 6,EEG 7,EEG 8
16.243,10.934,-3.266,5.927,9.19,-1.41,8.06,-10.761
17.925,13.179,-3.491,7.187,9.167,-0.402,6.377,-9.692
17.685,15.102,-3.462,8.863,9.293,0.969,4.683,-9.73
16.194,16.019,-3.003,10.467,10.261,2.777,5.023,-9.728
14.99,15.931,-2.459,9.504,11.613,2.019,6.896,-9.877
13.875,14.929,-2.469,4.761,11.755,-3.227,7.595,-12.096
12.357,13.711,-2.56,-0.179,11.017,-9.012,6.488,-15.575
11.643,13.169,-2.144,-1.563,10.707,-10.846,5.398,-17.158
12.561,12.705,-2.715,-1.342,9.513,-10.399,4.131,-17.32
13.914,11.515,-4.906,-2.131,6.382,-10.615,1.738,-18.3
13.726,10.121,-6.882,-2.185,3.252,-10.425,-0.223,-19.135
12.126,9.593,-7.448,0.004,2.201,-8.585,-0.188,-18.327
10.983,9.705,-7.347,1.985,2.88,-6.902,0.292,-17.638
10.929,9.361,-7.051,1.889,4.062,-6.412,-0.39,-18.378
11.96,9.408,-5.062,2.933,6.352,-4.22,-0.105,-17.378
13.81,10.769,-1.079,7.828,9.733,1.204,2.51,-12.905
15.061,11.59,1.564,12.636,11.295,5.755,4.342,-9.352
14.157,9.814,-0.215,11.903,8.989,4.936,2.756,-10.709
10.909,6.085,-4.958,6.487,4.771,-0.358,-0.112,-14.842
7.351,2.963,-8.305,1.962,2.415,-5.413,-0.662,-17.496
5.895,2.118,-8.062,1.337,3.339,-6.941,0.852,-18.064
7.513,3.874,-4.764,3.452,7.009,-5.234,2.966,-17.892
11.637,7.725,0.351,5.99,12.659,-2.953,7.003,-16.753
15.981,11.54,5.393,7.949,18.068,-1.793,13.413,-13.559
18.446,13.423,9.178,10.567,21.15,-0.096,19.688,-7.876
18.276,13.21,10.923,13.637,21.41,2.752,22.713,-2.04
14.591,10.739,8.142,13.31,17.549,2.766,20.091,-1.252
6.655,5.557,-0.492,7.729,8.211,-2.581,10.803,-8.039
-2.951,-0.711,-10.574,1.566,-3.049,-8.617,-2.3,-17.546
-8.604,-4.498,-15.337,-0.201,-9.073,-9.981,-11.85,-22.562
-8.666,-4.94,-14.516,-0.059,-8.587,-9.488,-13.389,-22.948
-6.193,-3.719,-12.911,-1.267,-6.646,-10.973,-9.474,-22.678
-2.236,-1.033,-11.924,-0.821,-5.652,-10.943,-4.381,-21.985
3.123,2.634,-10.739,2.63,-4.767,-7.314,-1.361,-20.643
7.061,5.093,-10.215,5.321,-4.069,-4.135,-1.892,-20.519
6.742,4.811,-11.268,4.879,-4.628,-4.047,-4.675,-22.191
2.891,2.168,-13.55,2.41,-6.814,-5.611,-7.275,-24.336
-1.251,-0.815,-15.712,0.25,-9.111,-6.777,-7.938,-25.322
-3.554,-2.142,-16.426,-0.173,-9.679,-6.976,-6.917,-24.768
-3.667,-1.274,-15.664,1.161,-8.618,-6.224,-5.832,-23.34
-2.287,0.311,-14.477,3.359,-7.389,-4.728,-5.688,-22.067
-1.279,0.361,-13.43,5.068,-6.563,-3.531,-6.329,-22.101
-2.035,-1.085,-12.043,5.747,-5.32,-2.939,-6.59,-22.792
-3.81,-1.952,-10.086,6.424,-3.311,-1.906,-5.203,-21.91
-5.588,-2.129,-9.057,7.43,-2.253,-0.888,-3.102,-19.942
-8.215,-4.115,-11.006,6.317,-4.608,-2.398,-3.314,-20.714
-10.997,-7.255,-13.992,2.723,-8.808,-5.74,-5.603,-24.311
-10.353,-6.813,-13.076,1.446,-9.735,-6.019,-5.857,-25.442
-5.938,-2.049,-7.949,4.483,-6.207,-2.281,-3.211,-22.516
-1.821,2.144,-3.316,7.46,-1.966,0.594,-0.963,-19.82
-0.723,2.41,-2.024,7.446,0.242,0.166,-1.015,-19.492
-1.793,0.214,-2.535,6.484,1.166,-0.879,-2.065,-19.267
-3.201,-1.836,-2.775,6.087,2.145,-0.994,-2.754,-18.46
-3.766,-2.952,-2.923,5.253,2.618,-1.636,-3.645,-19.151
-2.98,-2.75,-3.079,4.68,2.182,-2.112,-4.632,-20.685
-2.202,-1.316,-2.321,6.262,1.914,0.121,-4.283,-19.949
-2.791,-0.067,-0.717,9.134,2.687,4.13,-2.475,-16.705
-3.822,-0.251,0.534,10.552,3.868,6.195,-1.014,-14.301
-4.331,-1.347,1.2,9.845,4.464,5.33,-0.836,-14.692
-4.084,-1.395,2.456,9.325,4.864,4.526,-0.665,-15.284
-3.607,-0.604,3.26,9.746,4.668,5.32,-0.975,-14.351
-4.011,-1.254,1.161,8.631,2.642,5.402,-3.195,-14.358
-4.884,-3.253,-2.46,5.08,-0.116,3.214,-5.379,-16.735
-4.958,-4.667,-4.429,1.804,-1.919,0.8,-5.725,-19.531
-4.023,-4.419,-4.506,1.543,-2.778,0.993,-5.234,-20.693
-2.875,-2.884,-4.644,3.5,-3.55,3.301,-5.226,-20.649
-2.024,-1.283,-5.48,5.303,-4.281,5.156,-5.857,-20.281
-1.524,-0.71,-5.637,6.21,-3.967,5.646,-6.42,-19.039
-1.97,-1.68,-4.989,5.577,-3.014,4.583,-6.633,-17.577
-3.019,-3.054,-4.882,3.012,-2.671,2.091,-6.674,-17.443
-2.776,-2.482,-4.757,0.879,-1.9,0.427,-6.288,-17.771
-0.346,0.927,-3.001,1.673,0.87,1.671,-4.969,-16.564
2.572,4.913,-1.084,3.492,3.762,4.02,-3.745,-14.82
3.571,6.168,-1.794,2.563,3.863,4.296,-4.78,-15.514
2.516,4.58,-4.11,-0.801,2.239,2.613,-7.477,-18.354
0.331,2.167,-5.406,-3.469,1.266,0.877,-9.516,-20.485
-3.05,-0.644,-5.912,-4.132,0.383,0.037,-10.86,-20.74
-7.593,-4.345,-7.738,-4.016,-1.962,0.055,-12.676,-20.01
-12.336,-8.489,-11.507,-4.957,-5.166,-0.138,-14.659,-19.542
-15.618,-11.586,-14.771,-6.422,-6.714,-0.744,-15.288,-19.076
-16.913,-12.69,-15.602,-6.123,-6.19,-0.255,-14.397,-17.54
-17.719,-12.64,-15.841,-4.255,-6.396,1.508,-13.56,-15.457
-19.236,-13.164,-17.649,-4.05,-9.001,2.048,-14.068,-14.731
-21.02,-15.026,-20.345,-7.569,-12.522,-0.804,-16.21,-16.179
-21.907,-17.073,-22.414,-12.906,-14.637,-5.615,-18.827,-18.309
-21.576,-18.097,-23.661,-16.991,-14.953,-9.338,-20.393,-19.734
-20.399,-17.907,-24.002,-18.58,-14.351,-10.826,-20.806,-20.204
-18.591,-16.195,-22.973,-17.826,-12.841,-10.244,-20.538,-19.103
-16.741,-13.072,-21.354,-15.985,-10.608,-8.181,-19.644,-16.809
-15.616,-10.146,-20.804,-15.348,-9.247,-6.589,-18.781,-15.705
-15.769,-9.518,-21.972,-17.679,-9.992,-7.741,-19.852,-17.459
-16.774,-10.86,-23.131,-21.34,-11.059,-10.564,-22.593,-20.018
-17.185,-11.532,-21.798,-22.302,-9.689,-11.276,-23.498,-19.734
-16.53,-10.446,-18.328,-19.505,-6.745,-8.607,-21.616,-16.481
-15.409,-8.687,-15.548,-15.794,-5.177,-4.732,-20.169,-13.364
-14.137,-7.546,-15.106,-14.107,-5.703,-2.34,-21.345,-12.654
-12.052,-7.079,-15.16,-14.165,-6.063,-2.007,-23.066,-13.382
-8.822,-6.266,-13.428,-13.5,-4.336,-1.895,-22.4,-13.05
-6.094,-5.189,-11.391,-11.938,-2.175,-0.963,-20.305,-11.441
-5.212,-5.127,-11.16,-11.589,-1.761,-0.323,-19.336,-10.086
-5.351,-6.321,-11.675,-13.088,-2.13,-0.9,-19.773,-9.804
-4.792,-6.866,-11.16,-14.698,-1.494,-1.876,-20.23,-10.091
-3.236,-5.48,-10.052,-14.732,-0.435,-2.189,-19.76,-9.757
-2.223,-3.796,-9.255,-13.3,-0.077,-2.074,-18.762,-8.459
-1.782,-2.741,-7.666,-11.33,0.876,-1.911,-17.543,-6.634
-0.606,-1.334,-5.1,-10.013,3.146,-1.761,-15.97,-4.746
1.174,0.412,-3.567,-9.791,5.021,-1.489,-14.506,-2.927
2.924,1.578,-3.316,-9.517,5.84,-0.761,-13.801,-1.219
3.713,1.405,-3.159,-8.79,6.103,-0.191,-13.895,-0.316
1.861,-0.396,-4.076,-9.104,4.796,-1.012,-14.664,-0.724
-2.786,-3.516,-8.051,-11.844,0.445,-3.73,-16.904,-2.257
-6.971,-6.4,-13.371,-15.449,-5.074,-6.672,-20.091,-3.702
-7.788,-7.096,-16.217,-17.087,-8.239,-7.273,-21.928,-3.692
-7.626,-6.75,-17.092,-17.719,-9.509,-6.622,-23.006,-3.399
-10.001,-7.959,-18.62,-19.496,-11.037,-7.268,-24.98,-4.227
-13.318,-9.794,-19.737,-20.937,-12.01,-7.998,-26.148,-4.719
-14.22,-9.546,-18.317,-20.376,-11.226,-6.985,-25.379,-3.601
-13.604,-7.493,-15.891,-19.366,-10.325,-5.767,-24.991,-2.229
-13.835,-5.38,-15.134,-19.294,-11,-5.892,-25.845,-1.616
-13.53,-3.002,-15.362,-19.007,-11.774,-6.186,-25.315,-0.381
-11.373,-0.502,-14.728,-18.087,-11.291,-6.026,-22.817,1.703
-9.402,0.693,-13.32,-17.535,-10.693,-6.195,-20.733,3.088
-9.219,0.365,-11.994,-17.228,-10.651,-6.325,-19.886,3.969
-10.193,-1.09,-11.034,-16.569,-10.302,-5.675,-19.589,5.578
-10.607,-3.104,-9.571,-15.421,-8.718,-4.257,-18.791,8.133
-9.99,-4.861,-7.44,-14.492,-6.646,-2.962,-16.8,10.406
-10.041,-6.441,-6.524,-14.826,-6.18,-3.111,-15.023,11.017
-11.473,-8.032,-7.29,-15.538,-7.739,-4.162,-14.639,10.98
-12.246,-8.726,-7.341,-14.716,-9.397,-3.898,-14.049,12.261
-10.081,-7.255,-5.02,-11.973,-9.363,-1.332,-12.091,14.754
-6.297,-4.5,-2.154,-8.828,-8.52,2.03,-10.662,16.7
-4.296,-3.038,-1.313,-7.134,-8.963,3.999,-11.229,17.027
-3.807,-3.109,-1.736,-6.963,-10.098,4.3,-12.204,16.569
-1.918,-2.758,-0.91,-6.666,-9.709,4.504,-11.554,16.977
1.554,-1.11,1.779,-4.789,-7.531,6.081,-8.982,19.151
4.047,0.897,4.32,-2.089,-5.522,8.401,-6.228,22.023
4.214,2.199,4.603,-0.453,-5.368,9.72,-5.052,23.948
3.21,2.895,3.506,0.4,-6.716,10.465,-4.51,25.363
2.549,3.461,3.499,1.805,-8.15,12.085,-3.417,27.026
2.735,4.128,5.223,3.378,-8.504,14.142,-2.705,28.237
3.126,4.75,7.371,4.099,-7.742,15.409,-2.917,28.769
2.769,4.805,8.764,4.145,-6.875,15.672,-2.887,29.418
1.71,4.292,9.207,4.192,-6.451,15.361,-2.006,30.317
1.091,4.003,9.201,4.388,-5.871,14.987,-1.017,31.126
2.226,4.776,9.873,4.772,-4.338,14.983,-0.042,32.139
4.912,6.659,11.9,5.215,-2.382,15.059,0.981,32.695
7.476,8.749,14.526,5.098,-1.139,14.482,1.268,31.654
8.428,9.39,15.882,3.509,-1.066,12.771,0.47,29.921
7.598,7.969,14.507,0.395,-2.411,10.242,-1.137,28.712
6.629,6.843,11.862,-2.023,-4.323,8.658,-2.902,28.076
6.734,7.736,10.873,-1.921,-5.291,9.014,-4.015,27.966
6.983,8.72,11.383,-0.92,-5.645,9.66,-4.448,28.04
6.314,8.228,10.743,-1.327,-6.776,9.225,-4.966,27.551
5.159,7.776,8.595,-2.527,-8.587,8.659,-5.809,26.672
4.351,8.378,6.895,-3.153,-10.209,8.392,-6.524,25.799
3.261,7.862,5.826,-4.556,-11.843,6.62,-7.363,23.57
2.053,5.619,5.573,-6.279,-12.381,4.484,-7.545,21.171
3.233,5.062,8.192,-3.792,-9.598,6.941,-5.238,23.341
6.452,6.625,12.057,2.042,-5.733,12.75,-2.288,28.559
7.813,6.577,12.875,4.535,-4.956,14.776,-1.897,30.367
6.308,4.601,11.343,2.992,-6.318,12.599,-2.953,28.916
4.786,3.954,11.072,2.233,-6.485,11.639,-2.828,28.564
4.693,5.01,11.662,2.481,-5.962,12.177,-2.308,28.778
4.992,5.435,10.799,0.579,-6.897,10.602,-3.536,26.567
5.642,5.059,9.671,-2.24,-7.754,7.696,-5.104,23.602
7.289,5.432,10.769,-2.381,-5.653,6.978,-3.519,23.984
9.898,6.939,13.98,-0.044,-0.747,8.607,1.937,27.872
13.196,8.716,17.89,2.174,4.999,10.625,8.879,32.136
16.973,10.721,22.949,4.779,11.29,13.951,16.63,36.603
22.136,14.811,30.789,11.214,19.582,21.355,27.936,45.126
29.074,21.324,39.798,21.233,28.72,31.444,41.94,57.643
34.971,26.918,45.328,29.115,34.296,38.666,51.165,67.285
33.581,25.98,42.629,28.181,31.384,37.423,47.815,66.541
21.159,15.418,30.092,16.869,18.315,26.267,31.55,53.936
5.364,1.405,14.499,2.956,2.324,12.701,12.259,37.318
-3.101,-6.941,4.783,-4.833,-7.017,6.062,-0.309,26.19
-4.733,-8.947,1.358,-6.787,-9.264,5.922,-5.344,22.251
-3.928,-7.432,1.352,-6.068,-7.908,7.547,-4.449,23.009
0.59,-1.881,5.225,-2.268,-2.877,10.98,1.688,26.992
8.069,5.685,11.307,3.182,4.238,16.165,8.789,31.582
11.286,8.524,13.525,4.931,7.184,18.309,10.915,32.32
7.526,4.922,10.233,1.996,4.037,15.535,7.933,28.797
3.456,1.192,7.613,-0.102,1.143,12.84,5.707,26.574
3.923,1.6,9.706,1.41,2.919,13.554,7.7,28.94
5.943,3.685,12.791,3.383,6.153,14.842,11.163,32.28
5.804,4.069,12.436,2.819,6.442,13.412,11.934,32.008
5.203,3.597,10.253,1.025,4.49,10.802,10.294,29.326
7.763,5.352,10.513,1.16,4.049,10.665,10.133,28.941
12.78,9.629,13.21,3.293,5.853,12.727,12.621,31.713
16.798,13.928,14.876,4.905,7.218,13.876,14.686,34.433
18.292,16.02,13.7,4.406,6.095,12.643,13.501,34.326
18.507,15.828,11.402,2.505,3.684,10.165,10.41,31.548
19.297,15.304,10.631,1.406,2.714,8.62,9.006,28.651
20.519,15.871,11.2,2.226,3.218,8.66,9.906,27.284
20.811,17.21,10.977,4.05,3.006,9.307,10.874,26.874
19.123,17.571,8.523,4.656,0.654,8.962,9.914,25.62
15.58,15.679,4.369,2.572,-3.099,6.469,7.024,22.246
12.32,13.11,1.028,-0.655,-5.746,3.301,4.277,17.927
10.885,11.665,-0.224,-2.856,-6.482,1.785,2.909,15.039
10.799,10.906,-0.268,-3.74,-6.856,1.924,2.388,14.847
11.761,10.42,0.673,-3.216,-7.266,3.123,2.848,17.068
13.721,10.779,2.504,-1.174,-6.906,5.339,4.852,19.874
15.15,11.381,3.002,0.197,-6.864,6.556,6.315,19.78
14.31,10.399,0.188,-1.626,-8.985,4.437,4.144,14.977
12.613,8.147,-3.217,-4.482,-11.294,1.456,0.571,9.899
12.582,6.771,-2.723,-4.266,-10.323,1.835,0.815,10.083
12.642,5.837,0.559,-1.779,-7.446,4.402,4.326,13.517
9.036,2.378,1.369,-1.522,-6.815,4.413,5.975,13.75
2.175,-4.158,-1.481,-5.021,-8.763,0.623,4.327,9.381
-2.936,-9.508,-3.646,-8.625,-9.851,-3.224,3.015,5.617
-3.119,-9.406,-2.348,-8.88,-8.583,-3.886,4.371,6.186
-0.232,-5.112,0.206,-6.882,-6.692,-2.393,6.836,8.732
2.312,-1.392,1.356,-5.475,-5.604,-1.429,8.375,9.528
2.89,-0.657,1.505,-5.214,-5.298,-1.722,8.495,8.008
1.592,-1.787,2.095,-4.761,-5.143,-2.105,8.226,6.219
-1.167,-3.873,2.5,-4.214,-4.977,-2.379,8.495,5.372
-3.924,-6.543,1.63,-4.613,-5.216,-3.415,8.748,4.483
-5.31,-8.846,-0.293,-5.764,-6.786,-5.292,7.516,2.182
-6.83,-11.094,-3.436,-7.428,-10.871,-7.618,4.154,-1.442
-9.289,-13.516,-6.991,-9.072,-15.709,-9.329,1.119,-4.163
-10.846,-15.286,-8.63,-10.152,-17.629,-9.925,0.626,-4.892
-10.764,-16.156,-7.874,-11.307,-16.397,-10.729,0.987,-5.361
-9.998,-15.89,-6.482,-12.577,-14.779,-11.957,0.458,-6.493
-10.291,-15.346,-7.007,-13.897,-15.275,-12.807,-0.834,-8.419
-13.394,-16.94,-11.521,-16.543,-19.046,-14.377,-3.208,-12.162
-18.676,-20.94,-19.187,-21.025,-25.252,-17.836,-7.269,-17.597
-22.519,-23.865,-25.199,-24.793,-30.211,-20.871,-11.062,-21.659
-22.082,-22.714,-25.115,-24.495,-30.082,-20.104,-10.752,-20.867
-18.813,-19.222,-20.928,-21.441,-26.297,-16.905,-6.828,-16.67
-15.971,-17.033,-19.069,-20.52,-24.414,-15.721,-4.956,-14.889
-15.197,-17.429,-22.475,-23.282,-27.084,-17.576,-8.207,-18.212
-16.405,-19.873,-28.023,-26.982,-31.631,-20.02,-13.219,-23.118
-18.792,-23.6,-31.855,-29.858,-34.594,-21.809,-16.045,-25.729
-21.926,-28.065,-33.838,-32.543,-35.599,-23.702,-17.209,-26.533
-25.615,-32.795,-35.362,-34.673,-35.893,-25.491,-18.542,-27.437
-29.376,-37.033,-36.678,-35.289,-36.306,-26.138,-19.947,-28.733
-32.406,-39.83,-37.594,-35.339,-36.857,-26.062,-20.775,-29.774
-33.836,-40.645,-37.804,-35.702,-36.663,-26.084,-20.715,-29.692
-33.357,-39.322,-36.642,-35.2,-34.988,-25.681,-19.171,-28.085
-32.049,-36.622,-34.674,-33.665,-32.843,-24.903,-16.776,-26.479
-32.352,-35.685,-34.712,-34.202,-32.898,-26.046,-16.673,-27.793
-34.415,-38.334,-37.883,-38.04,-35.601,-29.627,-19.563,-31.508
-34.971,-41.184,-41.216,-41.499,-37.723,-32.341,-21.593,-33.278
-33.422,-41.562,-42.692,-42.395,-37.928,-32.987,-21.715,-32.473
-32.831,-41.574,-43.722,-43.173,-38.279,-34.374,-23.15,-33.117
-33.901,-42.458,-45.104,-45.427,-39.373,-37.216,-26.625,-36.59
-33.656,-41.653,-45.194,-46.327,-39.129,-37.943,-28.951,-39.184
-30.152,-37.356,-42.849,-42.986,-36.035,-34.301,-27.631,-37.411
-26.063,-32.508,-40.124,-38.214,-32.033,-29.834,-24.536,-33.389
-25.51,-31.539,-39.893,-37.106,-30.784,-29.298,-23.473,-31.739
-28.459,-34.103,-41.766,-39.477,-32.621,-31.809,-24.593,-32.867
-31.054,-35.731,-43.146,-41.272,-34.2,-33.346,-24.987,-33.935
-30.787,-34.448,-43.396,-41.279,-33.959,-33.183,-24.279,-34.12
-28.476,-32.12,-43.363,-40.542,-33.115,-32.155,-23.911,-33.95
-25.15,-29.297,-41.525,-37.601,-30.69,-28.685,-22.234,-31.876
-21.621,-25.485,-36.927,-31.746,-25.481,-22.878,-18.218,-27.496
-19.546,-22.666,-33.044,-26.754,-20.858,-18.551,-15.528,-24.114
-19.182,-22.611,-32.227,-25.367,-19.792,-17.407,-16.208,-23.64
-19.615,-24.619,-32.402,-26.244,-20.44,-17.903,-17.648,-24.709
-20.565,-26.894,-31.942,-27.178,-20.356,-18.475,-17.721,-25.719
-21.582,-27.325,-31.614,-26.448,-19.672,-17.64,-16.447,-25.234
-21.945,-25.286,-31.893,-23.602,-19.185,-14.986,-13.915,-22.48
-22.057,-23.213,-32.759,-21.128,-19.573,-13.039,-11.742,-20.087
-22.376,-23.155,-34.234,-21.492,-21.228,-13.95,-12.656,-21.259
-21.047,-22.888,-34.452,-22.814,-21.69,-15.488,-14.726,-23.441
-17.058,-20.535,-32.175,-22.806,-18.812,-15.458,-14.178,-23.041
-13.319,-18.771,-30.097,-22.652,-15.704,-15.439,-12.488,-22.14
-12.027,-18.772,-30.013,-22.439,-15.34,-15.527,-11.996,-22.511
-11.739,-17.459,-29.866,-20.213,-15.602,-13.296,-11.246,-21.644
-10.506,-13.734,-28.035,-16.506,-13.885,-9.196,-8.825,-18.193
-8.313,-10.427,-25.443,-13.64,-10.805,-6.059,-5.797,-14.509
-6.443,-9.544,-23.617,-12.166,-8.121,-4.91,-3.834,-13.126
-6.14,-10.731,-23.504,-11.93,-6.882,-5.319,-3.671,-14.073
-7.526,-13.469,-25.126,-13.698,-7.31,-7.113,-4.725,-15.745
-8.57,-15.888,-26.995,-16.222,-8.319,-8.787,-5.308,-16.38
-7.596,-15.018,-27.857,-16.579,-9.055,-8.215,-5.013,-15.741
-6.545,-11.648,-28.461,-15.01,-10.204,-6.297,-5.467,-15.531
-7.892,-9.666,-29.629,-13.819,-11.812,-5.287,-6.791,-16.49
-10.263,-9.896,-31.086,-13.24,-12.74,-4.988,-7.08,-17.21
-10.229,-9.182,-32.512,-12.6,-12.654,-4.346,-6.05,-16.923
-7.472,-5.867,-33.433,-12.623,-12.28,-3.987,-5.643,-16.969
-4.241,-1.76,-32.464,-12.948,-11.382,-3.864,-6.089,-17.513
-1.034,1.621,-28.791,-11.249,-8.746,-2.346,-5.246,-16.619
1.823,3.872,-24.668,-8.255,-5.513,-0.392,-3.385,-15.121
2.978,4.726,-22.935,-7.039,-4.158,-0.221,-2.69,-15.319
2.984,4.754,-22.825,-7.32,-4.143,-0.834,-2.82,-15.979
3.08,4.434,-22.158,-7.382,-3.469,-0.978,-2.659,-15.658
3.227,4.25,-20.913,-7.297,-2.219,-1.005,-2.891,-15.595
4.102,5.933,-19.567,-6.459,-0.846,0.088,-3.421,-15.894
6.543,9.019,-17.591,-4.062,1.321,2.628,-2.812,-15.225
8.362,8.847,-15.947,-2.582,3.126,3.359,-1.756,-14.717
7.413,4.298,-16.413,-4.36,2.646,0.465,-1.8,-15.975
5.985,1.397,-18.086,-7.047,1.363,-2.809,-2.113,-17.52
6.296,3.429,-19.006,-7.709,1.397,-3.508,-2.046,-17.816
6.666,6.521,-18.53,-6.666,2.175,-2.403,-2.299,-17.15
5.504,7.3,-16.61,-5.073,2.885,-1.045,-2.629,-15.845
3.953,6.811,-13.954,-3.256,3.925,0.115,-2.129,-14.176
3.523,6.779,-11.994,-1.662,5.367,1.143,-0.68,-12.639
4.213,6.931,-11.279,-0.758,6.578,2.105,0.892,-11.528
5.177,6.432,-11.186,-0.335,7.135,2.631,1.709,-11.193
5.345,5.353,-11.497,-0.452,6.648,1.838,1.295,-12.328
4.805,4.529,-11.845,-1.056,5.691,0.33,0.288,-13.951
5.088,4.089,-10.972,-1.183,6.173,0.043,0.227,-13.71
5.947,2.73,-9.361,-1.137,7.786,0.281,0.745,-12.557
5.553,0.603,-8.762,-2.03,8.217,-0.815,0.466,-13.142
4.069,-0.219,-9.055,-3.037,7.192,-1.932,-0.078,-14.557
3.119,0.642,-9.476,-2.775,5.929,-1.279,-0.022,-14.532
2.97,1.68,-10.437,-1.589,4.688,0.053,0.294,-13.35
2.562,2.017,-12.161,-0.444,3.156,0.656,0.247,-12.573
1.789,2.127,-13.658,0.848,1.874,1.202,-0.343,-12.558
1.768,2.847,-13.9,2.773,1.874,2.6,-0.808,-12.567
3.047,4.581,-12.591,5.215,3.544,4.636,0.283,-11.564
4.917,7.205,-9.457,8.11,6.683,7.147,3.715,-8.708
6.839,10.354,-4.053,11.578,11.161,10.414,9.025,-4.046
10.239,14.793,3.574,16.395,17.46,15.046,16.228,2.314
15.481,20.564,11.345,22.522,24.744,20.721,24.745,9.862
18.766,23.959,15.723,26.997,29.641,24.72,31.179,16.076
16.457,21.589,15.532,26.947,29.752,24.312,32.099,18.036
8.404,14.128,11.33,22.127,24.506,18.677,25.992,14.075
-3.056,3.887,2.851,13.822,14.072,8.838,13.218,4.47
-12.783,-5.418,-7.015,5.383,2.862,-0.962,-1.013,-6.454
-14.674,-8.2,-10.61,1.84,-1.146,-5.041,-8.192,-11.884
-7.959,-2.718,-4.59,5.253,4.28,-1.882,-5.665,-9.421
1.196,5.45,4.478,12.017,12.344,4.519,0.851,-3.545
6.989,10.388,8.776,16.746,16.332,9.118,5.582,0.561
8.498,11.757,7.344,16.93,15.794,9.582,6.947,1.191
6.836,11.595,3.16,13.798,12.842,6.654,4.891,-1.224
3.489,10.969,-1.143,10.652,8.946,3.125,0.993,-4.583
0.949,10.853,-3.141,10.227,6.256,2.078,-0.758,-5.737
1.071,12.047,-1.364,12.788,6.938,4.309,1.464,-3.87
2.036,13.186,1.608,15.75,9.151,7.008,3.636,-2.09
0.924,12.53,1.719,16.626,9.093,7.522,2.182,-2.714
-1.154,10.839,-0.538,15.849,7.093,6.751,-0.554,-4.297
-1.488,9.2,-1.957,14.474,5.839,5.847,-1.972,-5.567
0.729,8.614,-0.82,13.434,6.87,5.135,-1.828,-5.772
4.796,10.715,2.698,14.388,10.58,6.087,0.274,-3.498
7.716,13.469,5.765,16.313,14.351,8.068,2.555,-0.521
6.55,12.384,5.384,15.681,14.3,7.723,1.925,-0.62
3.971,9.096,3.505,13.059,11.749,5.3,-0.022,-2.706
5.612,10.302,4.59,13.421,11.953,5.126,1.459,-1.763
10.968,16.549,8.579,17.486,15.326,7.933,6.016,2.646
14.464,21.385,11.611,20.112,17.308,9.594,8.528,5.882
14.728,22.233,12.041,19.071,16.539,8.303,7.503,6.029
14.387,22.108,11.361,17.461,15.526,6.391,5.833,5.091
13.84,21.869,11.267,17.71,15.56,5.814,5.267,4.525
11.752,19.974,12.065,19.378,15.961,6.84,5.413,4.393
8.932,17.737,12.926,21.676,16.003,9.275,5.764,4.827
7.533,17.658,12.841,23.987,15.375,11.726,5.912,5.677
8.143,19.288,11.956,25.322,14.39,12.387,5.867,6.499
10.358,21.073,12.225,25.835,14.313,12.169,6.876,8.118
12.771,21.924,14.261,26.138,15.068,12.704,8.923,10.547
12.815,20.819,15.541,25.619,14.596,12.806,9.905,11.568
10.308,18.495,14.539,24.047,12.485,11.282,9.152,10.649
7.904,16.797,12.789,22.512,10.456,9.462,7.762,9.586
7.786,16.771,12.775,22.864,10.201,9.682,7.267,10.126
9.867,18.273,15.256,25.818,12.016,12.669,8.654,12.387
12.293,19.824,18.233,28.998,14.187,15.91,10.471,13.997
14.154,20.606,20.048,30.135,15.398,16.933,10.83,13.455
15.609,20.811,20.894,29.933,15.998,16.546,10.096,12.401
15.706,19.543,20.862,29.425,16.394,16.238,9.852,12.539
14.402,16.511,20.373,28.358,17.172,15.853,11.267,13.808
13.733,13.807,20.492,26.888,18.742,15.086,13.529,15.168
13.508,12.633,20.948,25.905,19.731,14.601,14.14,15.337
11.149,11.51,20.523,25.438,18.621,14.716,12.21,13.922
6.89,9.497,18.769,24.396,15.947,14.305,9.24,11.779
3.599,7.694,15.685,21.944,12.66,12.001,6.163,9.4
3.288,7.614,12.486,19.377,9.688,8.977,3.694,7.598
6.215,9.856,11.736,19.461,9.096,8.735,4.001,8.54
10.275,13.129,13.341,21.88,11.029,11.587,6.8,11.837
12.699,15.62,14.474,23.205,12.597,13.585,8.57,14.089
13.252,17.443,14.53,22.639,12.397,12.975,8.334,14.319
12.976,19.001,14.761,22.067,11.314,11.415,7.92,14.148
11.502,19.073,14.83,21.522,9.645,9.647,7.643,13.979
8.556,17.444,14.329,20.118,7.911,7.694,6.813,13.421
5.972,16.176,14.739,18.841,7.862,6.509,6.229,12.972
4.946,15.79,16.602,18.419,9.278,6.183,6.455,12.626
3.961,14.211,18.118,17.707,9.602,5.754,6.226,11.602
1.686,10.444,17.941,16.033,8.01,5.098,5.02,10.138
-1.509,5.547,16.225,14.076,5.533,4.622,3.681,8.874
-4.728,1.414,13.761,12.593,2.964,4.515,2.612,8.024
-6.989,0.011,11.847,11.906,1.389,4.891,2.169,7.998
-7.689,1.34,11.316,11.974,1.404,5.534,2.674,8.808
-7.037,3.169,11.281,12.092,1.571,5.706,3.194,9.355
-5.728,3.756,10.499,11.469,0.723,4.989,2.567,8.598
-4.446,3.131,9.707,10.898,0.235,4.571,1.545,7.277
-3.833,1.863,10.352,11.397,1.436,5.499,1.776,7.009
-3.941,0.285,11.901,12.023,3.301,6.579,3.137,7.736
-4.161,-1.342,12.236,11.506,3.952,6.664,4.026,8.013
-4.89,-3.012,9.9,9.568,2.24,5.915,3.694,7.133
-6.615,-4.384,5.963,6.668,-1.363,4.358,2.59,5.554
-7.723,-4.67,3.175,3.884,-4.76,2.225,0.771,3.81
-6.57,-4.089,3.097,2.079,-6.041,0.404,-1.413,2.329
-4.342,-3.261,5.352,1.73,-4.849,-0.215,-2.128,1.805
-3.258,-1.777,9.172,3.276,-1.715,1.048,0.134,3.184
-2.796,0.473,13.897,6.223,2.68,3.907,4.865,7.172
-1.104,1.934,17.658,8.535,6.239,6.206,9.071,11.867
1.419,1.831,18.731,8.853,6.665,6.041,9.867,13.658
3.374,2.226,18.372,8.278,5.255,4.413,8.421,12.495
4.738,4.659,18.583,8.189,4.854,3.453,7.523,11.217
6.379,7.584,19.129,8.464,5.483,3.59,7.688,10.892
8.641,9.163,19.428,8.818,6.002,4.186,8.487,10.976
11.539,10.089,20.69,10.144,7.657,5.516,10.414,11.744
15.07,11.814,23.948,12.626,11.812,7.671,13.478,13.516
18.243,13.587,27.646,14.094,16.133,8.655,15.842,14.79
20.324,14.455,29.8,13.627,17.786,7.521,16.188,14.392
21.431,14.984,29.823,12.617,17.045,5.941,14.814,12.812
21.49,15.425,28.314,12.014,15.928,5.297,13.222,11.254
21.885,16.142,28.144,13.159,17.056,6.696,14.686,12.181
23.591,16.946,30.848,15.816,20.355,9.511,18.751,15.278
23.73,15.946,32.756,16.255,21.393,10.035,19.478,15.678
20.668,13.649,31.204,13.829,18.524,7.872,16.099,12.683
18.051,13.567,29.119,12.856,16.181,7.504,14.674,11.452
18.722,16.164,28.784,14.751,16.852,9.997,16.547,13.415
20.662,18.531,28.147,16.225,17.315,11.482,16.997,14.619
21.85,20.153,26.402,16.138,15.729,10.933,15.168,13.708
23.428,22.71,26.32,16.895,14.737,11.591,15.096,13.571
26.417,25.726,28.892,19.174,16.002,14.476,17.466,15.295
28.86,26.816,30.964,20.865,17.647,16.741,18.712,16.695
28.06,24.82,29.77,20.472,17.587,16.072,17.521,16.486
25.258,21.791,27.126,18.886,16.735,13.475,16.462,15.856
23.938,20.288,26.26,17.707,17.01,11.343,17.251,15.782
24.153,19.402,26.67,17.073,17.551,10.307,18.439,15.84
24.275,18.056,26.73,16.795,16.972,10.004,18.857,16.176
24.935,18.058,27.5,17.339,16.734,10.441,19.51,17.412
27.164,20.305,29.837,18.204,18.499,10.744,21.049,18.932
29.542,22.873,31.598,18.129,20.727,9.756,22.257,19.484
29.809,24.083,30.838,17.228,21.048,8.286,22.179,19.152
28.648,24.492,29.214,16.735,20.26,8.065,22.072,19.452
28.44,24.686,29,16.66,20.202,8.787,23.079,20.807
28.909,23.887,29.453,16.221,20.476,9.096,24.441,22.343
27.779,22.147,28.788,15.958,20.089,9.331,25.343,23.909
25.037,20.988,27.105,16.752,19.247,10.496,25.544,25.414
23.145,21.088,25.886,17.888,18.603,12.09,25.06,25.935
22.622,20.988,25.237,17.786,17.708,12.282,23.853,24.712
22.02,19.822,24.049,16.843,15.807,10.692,21.725,22.43
21.759,19.348,22.901,17.446,14.105,9.654,19.82,20.903
22.6,20.576,22.794,19.575,13.759,10.2,19.383,20.359
23.041,21.868,22.819,20.567,13.395,10.42,19.186,19.37
21.972,22.033,22.26,20.021,11.932,9.681,17.892,18.053
21.081,21.983,22.043,20.107,10.813,9.813,16.798,18.041
21.44,22.125,22.245,20.805,10.821,11.007,16.966,19.066
20.536,20.98,21.376,19.609,10.284,10.556,16.815,18.944
17.463,18.972,19.95,16.928,8.868,7.797,15.617,17.731
16.117,19.405,20.6,16.275,8.813,6.023,15.201,17.845
18.223,22.29,23.293,18.374,10.813,7.027,16.159,19.655
19.309,22.592,24.597,20.144,12.081,8.121,16.409,20.891
15.857,17.975,22.371,19.43,9.971,6.724,14.577,20.253
11.309,12.928,18.625,17.562,6.144,4.393,12.201,18.975
10.855,11.835,16.822,16.908,4.633,3.959,11.309,18.538
14.507,13.448,18.006,18.184,6.633,5.697,11.891,18.998
18.085,14.159,20.298,20.057,9.624,7.717,12.616,19.529
18.447,12.631,21.321,20.508,11.067,8.189,12.654,19.349
16.56,10.667,20.85,19.561,11.26,7.277,12.616,18.707
14.955,10.085,20.546,18.818,11.764,6.307,13.175,18.23
14.462,10.56,22.002,18.863,13.179,6.015,13.947,18.04
15.237,11.708,25.513,19.954,15.465,7.073,15.099,18.813
17.788,14.476,30.198,23.161,18.824,10.135,18.135,21.748
21.781,19.15,35.415,28.567,23.698,14.639,23.9,26.72
25.861,24.053,40.883,34.127,29.92,18.971,31.08,32.183
29.525,28.231,46.354,38.644,36.77,22.783,38.472,37.894
32.671,31.949,51.491,42.781,43.162,26.888,46.369,44.624
34.198,33.82,55.22,45.66,47.492,30.059,53.227,50.387
33.602,32.359,55.939,45.033,48.252,29.725,54.48,51.263
29.699,27.467,51.115,39.701,43.08,24.644,46.469,45.121
20.959,19.887,40.025,30.664,31.089,15.982,31.244,33.612
12.166,13.61,28.991,22.348,18.668,8.147,16.925,22.522
10.955,13.128,25.757,19.234,14.334,5.455,10.432,17.371
16.372,16.635,29.15,20.892,17.591,7.512,11.24,18.065
21.526,19.203,32.857,24.355,21.658,11.312,15.07,20.857
24.309,20.508,35.112,28.171,24.038,15.282,19.531,23.488
26.642,22.666,37.256,30.893,26.39,18.293,23.115,25.301
28.564,24.67,38.874,30.866,28.717,18.767,23.776,25.349
29.412,25.137,40.014,29.791,30.417,17.826,22.063,23.995
29.753,25.28,42.321,30.887,32.614,18.574,21.709,23.529
29.95,25.753,45.6,33.549,35.832,20.96,24.495,24.897
29.51,25.549,47.321,34.644,38.021,22.144,26.936,26.086
28.055,24.649,46.407,33.69,37.212,21.577,25.378,25.34
26.751,24.475,45.081,33.192,35.058,21.56,22.246,24.184
27.294,25.37,45.272,34.156,34.37,22.793,21.827,24.362
29.268,26.097,45.809,34.923,34.943,23.593,23.158,24.487
30.217,25.692,44.651,34.286,34.49,23.127,22.216,22.742
28.81,24.001,41.61,32.331,31.859,21.686,18.254,19.844
26.707,21.771,38.261,29.668,28.29,19.607,14.574,17.595
25.254,20.167,35.489,27.212,25.323,17.484,13.272,16.149
23.277,19.603,32.655,25.616,22.983,16.046,12.563,14.453
20.519,19.821,29.695,24.847,21.055,15.593,10.651,12.497
18.778,20.237,27.896,24.462,20.069,15.595,8.776,11.129
18.094,19.507,27.737,23.805,20.18,15.178,8.556,10.569
15.354,15.661,26.808,21.541,19.641,13.418,8.507,9.823
9.29,9.079,22.966,17.353,16.824,10.085,6.711,8.148
3.794,3.817,18.624,13.66,13.484,6.732,4.675,6.507
2.062,2.4,16.916,11.525,12.005,4.32,3.962,5.338
2.407,3.065,17.181,8.83,11.899,1.811,3.286,3.615
3.316,4.171,18.351,6.124,12.513,-0.068,2.234,2.003
5.794,6.068,21.141,6.974,14.807,1.297,2.696,2.548
8.572,7.772,24.186,10.494,17.792,4.894,4.721,4.315
7.938,6.974,23.966,12.147,17.995,6.765,5.464,4.129
3.601,4.078,20.286,11.689,14.725,6.663,3.802,1.94
-0.596,1.651,16.736,11.851,11.374,7.348,1.657,0.31
-1.611,0.66,15.907,12.42,10.57,8.92,0.393,-0.118
-0.506,-0.017,16.781,11.809,10.947,9.379,-0.236,-0.312
-0.761,-1.65,16.104,10.217,9.38,8.125,-0.918,-0.984
-3.175,-3.565,12.718,8.761,5.639,6.232,-2.182,-2.538
-5.461,-4.28,8.849,7.565,2.313,4.5,-3.741,-4.489
-6.218,-4.342,6.796,5.974,1.079,2.675,-4.584,-5.752
-5.177,-4.615,7.381,4.515,2.003,1.217,-3.971,-5.944
-2.229,-3.798,9.939,4.4,4.232,1.369,-2.3,-5.388
1.403,-0.986,12.422,5.447,6.199,2.785,-1.071,-4.724
3.185,1.401,13.092,6.124,6.651,3.528,-1.465,-4.792
2.112,0.697,12.045,5.101,5.641,2.454,-2.878,-5.805
-0.036,-2.26,10.407,2.39,3.962,-0.056,-4.235,-7.383
-1.49,-5.11,8.838,-0.816,2.206,-3.112,-5.785,-9.284
-1.877,-6.48,7.839,-2.798,1.381,-5.28,-7.169,-10.552
-1.977,-6.635,7.255,-3.07,1.781,-5.613,-7.197,-10.444
-3.537,-7.418,5.466,-3.544,1.336,-5.625,-6.866,-10.525
-7.178,-10.053,1.633,-6.059,-1.475,-7.364,-8.158,-12.636
-11.51,-13.657,-2.826,-10.309,-5.164,-10.701,-11.01,-16.35
-14.683,-16.551,-6.048,-14.769,-7.69,-14.003,-13.805,-19.757
-16.282,-18.167,-8.01,-18.173,-9.408,-15.947,-15.346,-21.435
-17.55,-19.107,-9.932,-19.998,-11.501,-16.382,-15.563,-21.45
-19.076,-20.131,-11.625,-20.428,-13.082,-16.251,-15.052,-21.009
-20.141,-22.03,-11.998,-20.511,-12.997,-16.814,-14.821,-21.363
-20.415,-24.589,-11.408,-21.172,-12.1,-18.13,-15.499,-22.533
-20.61,-26.324,-11.487,-22.662,-12.077,-19.531,-17.014,-24.008
-21.172,-26.508,-13.028,-25.136,-13.445,-21.442,-19.165,-25.917
-21.341,-25.563,-14.598,-27.698,-14.446,-23.827,-20.774,-27.678
-20.831,-24.018,-14.508,-28.432,-13.017,-24.713,-20.207,-27.958
-20.305,-22.277,-13.268,-26.84,-10.037,-22.953,-17.813,-26.741
-20.257,-21.109,-12.686,-25.064,-8.554,-20.759,-15.954,-25.823
-20.935,-21.054,-13.133,-25.016,-9.369,-20.708,-16.065,-26.381
-21.608,-21.026,-12.76,-25.168,-9.762,-21.367,-16.417,-26.815
-21.365,-20.24,-10.791,-23.969,-8.218,-20.368,-15.198,-25.869
-20.96,-19.98,-9.414,-23.182,-6.877,-18.749,-13.859,-25.129
-21.322,-20.627,-9.94,-23.793,-7.612,-17.917,-13.979,-25.68
-21.342,-19.991,-10.213,-23.709,-9.092,-17.36,-14.519,-26.235
-20.214,-17.397,-8.87,-22.196,-9.469,-17.185,-14.41,-25.871
-20.586,-16.333,-8.561,-21.959,-9.728,-18.475,-14.655,-25.892
-24.237,-19.28,-10.944,-24.535,-11.466,-21.039,-16.281,-27.41
-27.427,-23.288,-12.993,-27.42,-13.406,-23.169,-18.092,-29.086
-26.168,-24.011,-11.873,-27.848,-13.175,-23.264,-18.164,-29.336
-22.38,-21.382,-9.286,-26.62,-11.326,-21.677,-16.467,-28.704
-20.336,-18.903,-8.367,-26.239,-10.782,-20.623,-14.733,-28.633
-20.819,-18.754,-9.448,-27.161,-12.486,-21.352,-14.533,-29.619
-22.637,-20.294,-11.229,-28.457,-14.925,-23.134,-16.143,-31.293
-24.854,-21.763,-12.725,-29.454,-16.685,-24.255,-18.042,-32.51
-26.048,-21.973,-13.326,-29.347,-17.562,-23.215,-18.586,-32.352
-25.997,-21.694,-13.613,-28.485,-18.576,-21.006,-18.372,-31.911
-25.613,-21.82,-14.141,-28.194,-19.795,-19.778,-17.98,-31.983
-24.469,-21.245,-13.767,-28.052,-19.518,-18.997,-16.443,-31.058
-21.991,-18.991,-11.46,-26.394,-17.097,-16.762,-13.875,-28.416
-19.748,-16.517,-8.331,-23.479,-14.174,-13.78,-11.897,-25.861
-20.051,-16.303,-6.887,-21.949,-13.086,-12.976,-11.687,-25.258
-22.202,-18.185,-7.584,-22.746,-14.027,-14.856,-12.216,-25.891
-23.164,-19.288,-7.954,-23.192,-14.562,-16.204,-11.329,-25.678
-22.658,-18.658,-7.209,-21.624,-13.636,-15.132,-9.57,-24.499
-23.614,-18.836,-8.157,-20.432,-13.671,-14.037,-9.541,-24.075
-26.41,-20.849,-11.581,-21.348,-16.029,-14.855,-11.257,-24.877
-26.98,-21.447,-13.369,-21.422,-17.759,-14.971,-12,-24.892
-24.079,-19.484,-11.782,-18.514,-17.159,-12.371,-10.936,-23.053
-22.165,-18.853,-10.899,-15.816,-17.112,-9.9,-10.023,-21.735
-23.195,-21.181,-12.58,-15.612,-18.864,-9.497,-10.037,-22.424
-23.654,-23.2,-12.762,-14.644,-19.079,-8.353,-9.327,-22.473
-21.465,-22.361,-8.682,-10.016,-15.256,-4.286,-6.561,-19.584
-19.165,-20.143,-4.259,-4.956,-10.25,-0.311,-3.197,-16.2
-19.217,-19.449,-4.392,-4.222,-8.943,-0.303,-1.969,-15.825
-20.099,-19.84,-7.434,-6.57,-11.228,-2.591,-2.944,-17.45
-19.146,-18.411,-9.003,-7.589,-12.846,-3.164,-4.087,-18.058
-17.223,-15.892,-9.42,-7.68,-12.755,-3.062,-4.966,-18.174
-17.443,-16.354,-11.384,-10.455,-13.509,-6.096,-6.707,-20.379
-19.397,-19.723,-13.63,-14.811,-14.639,-10.916,-8.639,-23.635
-19.157,-21.195,-13.139,-15.939,-13.163,-12.389,-8.507,-24.229
-16.345,-19.646,-11.421,-13.966,-10.34,-10.428,-7.002,-22.466
-14.492,-18.4,-11.76,-13.541,-9.945,-9.758,-7.369,-22.069
-13.869,-17.646,-12.886,-15.287,-11.48,-11.431,-9.729,-23.498
-11.486,-15.053,-11.216,-15.441,-11.024,-11.998,-10.203,-23.802
-8.183,-12.198,-7.933,-13.902,-8.328,-10.991,-7.793,-22.885
-8.037,-12.368,-7.884,-14.522,-7.797,-11.654,-7.023,-23.799
-9.928,-13.889,-10.344,-16.557,-9.694,-13.318,-8.941,-25.641
-9.374,-13.493,-10.73,-16.531,-9.796,-13.093,-9.839,-25.656
-6.812,-12.323,-9.765,-15.918,-8.385,-12.706,-10.24,-25.811
-4.297,-11.456,-9.688,-16.172,-8.092,-13.489,-12.097,-27.159
-0.887,-8.724,-8.772,-14.581,-7.929,-12.522,-12.754,-26.316
3.74,-3.705,-5.882,-10.447,-6.189,-8.735,-10.149,-22.353
7.619,0.363,-3.055,-6.793,-3.644,-4.93,-7.007,-18.689
8.972,0.936,-2.377,-5.798,-2.311,-3.672,-6.676,-17.768
8.764,-0.192,-3.315,-6.837,-2.937,-4.485,-9.017,-18.523
10.16,0.576,-3.472,-7.887,-4.032,-4.923,-11.729,-19.194
13.448,3.306,-2.143,-7.646,-4.087,-4.203,-13.091,-19.46
14.546,4.398,-1.706,-6.861,-4.131,-4.106,-13.172,-19.584
12.037,2.476,-3.302,-6.718,-5.438,-5.211,-12.911,-19.269
10.105,0.793,-4.087,-6.399,-6.263,-5.265,-12.19,-17.831
10.573,0.559,-2.525,-5.193,-5.372,-3.652,-11.145,-16.062
10.173,-1.343,-1.55,-4.79,-4.925,-3.281,-11.385,-15.845
7.897,-4.9,-3.414,-6.444,-6.319,-5.562,-13.594,-17.382
6.647,-6.35,-6.277,-8.827,-7.926,-8.205,-16.417,-19.237
6.989,-5.715,-7.346,-10.394,-8.032,-9.521,-18.142,-20.363
5.834,-6.837,-6.615,-11.753,-7.073,-10.903,-18.328,-20.991
2.826,-10.121,-5.931,-13.807,-6.13,-13.312,-17.501,-21.409
1.69,-12.142,-5.773,-15.105,-4.981,-14.547,-15.978,-20.706
3.739,-11.71,-5.01,-13.645,-2.827,-12.442,-13.526,-17.961
6.183,-10.664,-3.396,-10.41,0.284,-8.618,-9.941,-14.083
6.804,-10.147,-2.139,-8.243,3.326,-6.428,-5.446,-10.894
6.568,-9.423,-1.078,-7.589,5.851,-6.031,-0.031,-8.043
6.939,-8.263,1.143,-7.072,8.226,-5.191,5.553,-4.135
6.698,-8.164,3.471,-6.867,9.567,-4.042,8.95,-0.203
3.248,-10.673,2.498,-8.558,7.392,-5.201,7.559,0.826
-4.344,-16.45,-4.358,-13.446,-0.258,-10.209,-0.915,-3.725
-13.057,-23.522,-14.86,-20.082,-11.234,-16.803,-14.887,-12.901
-18.066,-27.696,-22.214,-24.334,-19.484,-20.679,-26.814,-21.096
-18.849,-28.062,-23.092,-24.472,-21.849,-20.817,-31.129,-24.14
-18.07,-26.629,-20.795,-22.17,-20.482,-19.147,-29.232,-22.77
-16.159,-23.683,-18.628,-18.684,-17.807,-16.322,-24.423,-19.063
-13.22,-19.813,-16.467,-14.715,-14.347,-12.568,-18.661,-14.425
-12.241,-18.264,-14.313,-12.342,-11.449,-9.992,-14.584,-11.253
-14.673,-20.266,-13.255,-12.825,-10.725,-10.1,-14.251,-11.343
-16.479,-21.98,-12.045,-13.433,-10.142,-10.736,-15.02,-12.07
-13.911,-20.389,-8.452,-11.137,-6.722,-9.173,-13.222,-10.235
-9.764,-18.158,-4.386,-8.118,-2.845,-6.853,-10.797,-7.962
-10.11,-19.417,-4.972,-9.241,-4.143,-7.645,-12.193,-9.178
-16.234,-23.985,-11.408,-14.928,-11.26,-12.124,-17.051,-13.226
-22.545,-27.956,-18.1,-20.251,-18.293,-16.485,-20.638,-15.885
-24.21,-28.712,-19.554,-21.251,-20.481,-17.22,-20.352,-15.068
-22.62,-26.93,-16.697,-18.178,-18.919,-14.066,-17.786,-12.217
-21.36,-24.766,-14.108,-13.44,-17.125,-9.277,-15.647,-9.641
-20.91,-23.509,-13.704,-9.44,-16.396,-5.479,-15.115,-8.517
-19.094,-22.428,-13.51,-7.111,-15.357,-3.318,-14.966,-8.098
-16.021,-20.81,-12.482,-6.594,-13.836,-2.677,-13.921,-7.356
-14.332,-19.157,-12.24,-7.909,-13.864,-3.929,-12.798,-6.462
-13.716,-17.321,-13.048,-9.244,-15.356,-5.417,-12.561,-5.589
-11.436,-14.872,-12.697,-8.265,-15.521,-4.552,-12.675,-4.303
-7.669,-12.861,-10.307,-5.772,-13.449,-2.19,-12.394,-2.492
-5.008,-12.424,-8.007,-4.482,-11.296,-1.25,-11.836,-0.947
-4.149,-12.609,-7.569,-5.099,-10.553,-2.256,-11.243,-0.338
-3.899,-12.012,-8.39,-6.842,-10.847,-4.128,-11.034,-0.691
-3.785,-10.834,-9.67,-9.284,-11.884,-6.522,-11.864,-1.816
-4.275,-9.735,-11.53,-11.386,-13.521,-8.712,-13.141,-2.697
-5.718,-9.159,-13.92,-11.91,-15.349,-9.496,-13.545,-2.138
-7.484,-9.286,-15.605,-10.521,-16.707,-8.397,-12.593,-0.13
-8.819,-9.989,-15.508,-7.796,-16.917,-5.874,-10.945,2.192
-9.847,-11.078,-14.581,-5.131,-15.901,-3.032,-9.346,3.754
-10.271,-11.557,-14.217,-3.729,-13.99,-0.713,-7.525,4.751
-9.86,-10.95,-14.608,-4.258,-12.111,0.396,-5.897,5.428
-9.333,-10.25,-15.112,-6.233,-10.97,0.006,-5.633,5.53
-9.233,-9.72,-15.374,-7.823,-10.425,-1.114,-6.537,5.315
-9.518,-8.434,-16.101,-8.01,-10.993,-2.139,-7.922,5.026
-9.31,-5.971,-17.336,-6.739,-12.867,-2.135,-9.459,4.661
-7.974,-3.639,-17.868,-3.934,-14.603,-0.096,-10.597,4.352
-6.608,-3.123,-17.405,-0.285,-15.017,3.495,-10.751,4.696
-6.452,-4.159,-16.951,2.543,-14.375,6.797,-10.065,6.232
-6.782,-5.093,-16.712,3.458,-12.961,8.705,-8.969,8.418
-6.333,-4.916,-16.111,2.798,-10.67,9.417,-7.387,9.903
-6.309,-4.316,-16.318,0.905,-8.989,8.731,-6.473,9.043
-7.562,-3.628,-18.399,-1.679,-9.219,6.754,-7.568,6.349
-7.383,-2.039,-20.491,-3.671,-9.846,4.869,-8.976,5.028
-5.219,-1.07,-21.613,-5.327,-10.273,3.186,-9.235,5.62
-4.867,-2.855,-23.807,-7.859,-12.498,0.843,-10.335,5.216
-7.07,-5.226,-27.668,-10.656,-16.44,-1.36,-13.386,3.226
-8.108,-4.992,-30.443,-12.032,-18.753,-1.992,-15.563,2.219
-7.188,-3.431,-30.822,-11.989,-18.314,-1.503,-14.936,2.777
-7.75,-3.928,-31.582,-12.438,-18.411,-1.831,-14.131,2.383
-11.178,-7.074,-34.808,-14.247,-21.115,-3.577,-15.62,0.093
-15.078,-10.932,-38.342,-16.29,-24.062,-5.481,-18.013,-2.266
-16.964,-13.672,-39.48,-17.705,-24.494,-6.66,-19.207,-3.462
-16.901,-14.836,-39.088,-19.014,-22.997,-7.566,-19.42,-4.326
-16.796,-14.754,-39.174,-20.476,-21.729,-8.382,-19.685,-5.541
-17.691,-13.742,-39.089,-21.231,-21.279,-8.45,-19.853,-6.037
-19.087,-12.892,-37.658,-21.327,-20.94,-8.482,-19.951,-5.582
-20.532,-13.005,-36.305,-21.746,-20.425,-9.825,-20.756,-5.81
-22.332,-12.866,-36.925,-21.741,-20.597,-11.123,-21.984,-7.05
-24.026,-11.207,-38.405,-19.639,-21.867,-9.961,-22.419,-7.498
-24.803,-9.636,-38.903,-17.179,-23.169,-7.794,-22.307,-6.717
-26.264,-11.561,-39.945,-18.462,-24.677,-8.74,-23.762,-7.32
-29.837,-16.652,-42.968,-22.411,-27.401,-12.282,-26.924,-10.048
-33.552,-20.432,-45.692,-24.06,-30.164,-13.914,-28.964,-11.727
-35.36,-21.276,-46.477,-23.608,-31.675,-13.719,-29.571,-11.479
-35.625,-21.196,-46.717,-24.357,-32.65,-15.259,-31.049,-11.744
-34.809,-20.064,-46.245,-24.622,-32.527,-17.113,-30.789,-12.044
-32.354,-16.676,-42.837,-21.439,-29.218,-15.567,-24.785,-9.767
-29.608,-14.241,-38.584,-18.631,-25.062,-13.621,-18.412,-6.95
-28.749,-15.889,-37.739,-20.409,-24.276,-15.783,-18.275,-7.21
-28.393,-18.174,-38.564,-22.276,-24.825,-18.386,-20.341,-8.231
-26.726,-17.726,-37.038,-19.403,-22.905,-16.653,-19.23,-6.928
-24.677,-16.519,-33.724,-15.08,-19.625,-13.418,-16.631,-5.547
-23.29,-16.707,-31.913,-14.144,-18.308,-13.507,-15.801,-6.254
-22.576,-17.595,-32.85,-16.246,-19.761,-16.654,-16.936,-7.544
-21.485,-17.093,-33.563,-17.806,-20.509,-18.888,-17.981,-8.04
-19.641,-14.78,-31.829,-17.916,-18.603,-18.968,-18.746,-8.928
-18.311,-12.642,-30.037,-18.645,-17.272,-19.351,-20.53,-10.686
-17.326,-11.396,-29.227,-19.803,-17.149,-20.468,-20.88,-10.817
-15.614,-10.464,-27.176,-19.991,-14.905,-21.091,-17.371,-8.958
-14.487,-10.764,-24.577,-20.478,-11.947,-22.247,-14.087,-8.877
-15.746,-12.767,-24.466,-22.255,-13.044,-24.446,-15.427,-11.381
-17.846,-14.034,-25.932,-23.217,-17.022,-25.378,-18.849,-12.618
-18.077,-12.649,-25.755,-22.082,-18.975,-24.019,-20.282,-11.725
-15.979,-9.441,-23.039,-19.757,-17.436,-21.409,-18.965,-10.931
-11.846,-5.195,-18.44,-16.1,-13.159,-17.435,-15.331,-9.306
-7.303,-1.383,-14.708,-12.28,-8.889,-13.432,-12.347,-6.239
-5.732,-0.528,-15.089,-11.317,-8.715,-12.519,-13.389,-4.515
-7.367,-1.697,-17.3,-11.871,-11.188,-13.374,-15.318,-4.501
-8.847,-1.47,-16.399,-9.799,-10.714,-11.81,-12.772,-3.39
-8.746,0.208,-13.175,-5.895,-7.37,-8.374,-7.557,-0.56
-8.837,0.379,-12.462,-4.567,-6.553,-7.23,-5.367,1.446
-9.958,-1.093,-14.386,-5.754,-9.042,-8.607,-5.91,1.384
-11.025,-1.409,-14.538,-5.682,-10.324,-9.058,-4.996,0.806
-11.669,-0.127,-12.026,-4.327,-8.923,-8.191,-2.724,0.671
-12.489,0.542,-10.379,-4.656,-7.449,-8.659,-1.537,0.442
-14.148,-0.816,-11.896,-7.346,-7.798,-11.411,-1.932,-0.507
-16.259,-3.303,-14.773,-10.362,-8.894,-14.353,-3.094,-1.797
-17.315,-5.338,-15.889,-11.662,-8.496,-15.004,-3.487,-2.148
-16.976,-6.696,-15.157,-10.886,-6.896,-13.421,-2.179,-1.296
-16.473,-7.363,-15.064,-8.91,-6.743,-11.271,-0.644,-0.228
-16.8,-7.257,-17.202,-7.286,-9.411,-9.644,-0.858,0.27
-17.005,-6.974,-20.27,-6.986,-12.676,-8.713,-1.963,0.423
-15.356,-6.421,-21.366,-7.16,-12.986,-8.016,-1.928,0.85
-12.525,-4.831,-19.353,-6.265,-9.813,-6.747,-0.394,1.921
-11.048,-2.946,-15.993,-4.286,-5.625,-4.783,2.01,3.663
-12.263,-2.927,-13.825,-3.626,-2.87,-3.691,3.955,4.825
-14.442,-4.511,-13.179,-5.601,-1.994,-4.482,4.463,4.391
-14.796,-4.846,-13.032,-8.04,-2.355,-6.003,3.801,3.207
-13.634,-3.533,-13.555,-9.059,-3.855,-7.249,2.105,2.002
-12.982,-2.49,-13.949,-8.612,-5.089,-7.49,0.679,1.437
-12.176,-1.562,-11.762,-6.319,-3.379,-5.372,2.28,2.875
-9.311,0.755,-7.726,-2.49,0.711,-1.452,6.053,5.694
-6.108,3.002,-6.327,-0.178,2.794,0.768,6.693,6.539
-5.501,2.752,-8.702,-1.34,0.974,-0.378,2.934,4.36
-5.501,2.29,-10.198,-2.515,-1.066,-1.665,0.721,2.818
-2.687,4.973,-7.677,-0.034,0.293,-0.222,3.81,4.463
1.426,8.687,-3.187,4.142,4.441,2.414,9.079,7.64
2.883,9.347,0.06,6.055,8.09,3.598,11.895,9.956
1.655,8.018,1.538,5.997,9.074,3.767,11.647,11.063
1.67,9.18,3.182,7.545,9.123,5.427,12.031,12.291
4.043,12.893,5.402,10.838,10.128,8.173,14.385,13.606
6.489,15.826,7.117,13.092,11.189,9.754,16,14.018
8.452,17.569,8.762,14.596,11.628,11.019,16.261,14.324
9.902,18.86,10.321,17.175,11.613,13.529,16.7,15.237
9.51,18.856,10.612,19.94,10.988,15.863,17.321,15.919
7.264,17.459,9.863,20.86,9.781,16.176,17.016,15.648
5.125,16.328,9.403,20.729,8.686,15.788,16.1,15.265
4.23,16.111,9.517,21.496,8.433,16.828,16.139,16.007
3.389,14.727,8.843,21.463,8.139,17.573,16.491,16.502
1.952,11.391,6.723,18.412,6.391,15.611,15.016,14.488
1.962,9.57,5.706,15.243,4.892,13.169,13.378,11.789
4.905,11.976,8.476,16.038,6.784,13.566,15.499,12.378
8.504,15.946,12.843,19.406,10.677,15.949,19.458,15.204
10.677,18.177,15.607,21.63,13.214,17.974,20.885,16.333
13.376,19.898,18.33,23.118,15.66,20.012,22.59,17.229
17.448,22.484,22.563,25.658,19.787,22.947,28.327,21.265
19.937,24.018,25.974,28.063,23.216,25.517,35.15,26.677
19.328,23.221,26.85,28.707,24.068,26.288,39.85,30.271
17.096,21.091,26.048,27.716,23.6,25.403,42.51,31.659
13.363,17.642,22.882,24.674,21.398,22.624,41.058,30.179
5.334,10.753,13.787,17.558,13.152,15.904,30.752,22.986
-6.321,1.346,-0.1,7.508,-1.062,6.137,13.377,10.625
-14.363,-4.52,-9.998,0.638,-12.501,-0.538,-0.453,-0.027
-14.005,-3.175,-10.244,0.917,-14.483,-0.183,-3.297,-2.885
-8.742,1.997,-4.545,5.927,-9.537,4.596,2.095,1.171
-4.642,5.02,0.462,10.341,-3.913,8.846,8.183,5.979
-3.576,3.97,2.081,11.005,-1.045,9.78,10.179,6.517
-3.428,1.891,1.702,8.811,-0.636,7.892,9.08,3.578
-2.844,1.25,1.082,6.077,-1.373,5.376,7.99,0.867
-2.597,1.516,0.76,4.18,-2.263,4.095,7.623,-0.049
-3.21,1.803,1.011,3.457,-2.753,4.246,7.358,-0.071
-3.256,2.787,2.435,4.108,-2.362,5.14,8.119,0.449
-1.07,5.521,4.906,6.16,-0.32,6.613,10.632,2.037
1.916,8.563,6.242,7.694,2.092,7.458,12.145,3.121
3.426,9.333,4.762,6.104,2.052,5.54,9.849,1.463
5.081,8.805,3.07,2.431,0.654,1.854,6.727,-1.155
9.733,10.675,5.432,1.14,2.481,0.689,8.428,-0.485
14.979,14.844,10.483,3.665,7.191,3.3,13.798,3.196
16.229,17.282,12.685,6.809,9.152,6.253,16.627,5.642
15.988,18.008,12.716,9.709,8.145,8.763,17.062,6.861
19.892,20.9,16.027,14.692,9.774,13.885,19.897,10.314
26.502,26.438,22.271,21.619,15.162,21.731,25.482,16.203
30.906,31.905,26.836,27.926,20.012,28.731,30.583,21.731
32.569,35.45,28.848,31.754,21.932,32.225,33.15,24.737
34.286,37.624,31.155,33.445,23.158,33.184,34.336,25.941
36.831,39.917,34.516,34.625,25.747,34.288,36.178,27.315
37.955,41.838,36.224,35.547,27.878,35.749,38.044,28.773
36.934,41.901,35.122,35.274,27.521,35.843,38.196,29.192
36.358,40.879,33.509,34.194,26.059,34.646,37.145,29.008
37.571,40.445,32.862,33.24,25.33,33.331,36.351,28.971
38.034,39.708,31.669,31.576,24.244,31.405,35.193,27.944
36.542,37.684,29.647,29.296,22.254,29.01,33.649,25.801
35.792,36.153,28.849,28.627,21.273,28.176,33.715,24.944
36.486,36.027,28.78,29.122,21.018,28.736,34.452,25.601
35.777,35.742,27.026,27.984,19.277,28.415,33.061,25.323
32.646,34.232,23.883,25.129,16.248,26.869,30.126,23.389
29.444,31.779,21.404,22.681,13.64,25.499,27.839,21.445
27.431,28.645,19.928,20.749,11.836,24.375,25.954,20.103
25.384,25.759,18.581,18.109,10.438,22.445,23.22,18.104
23.28,25.275,17.438,15.784,9.559,20.371,20.382,15.624
21.822,26.875,16.653,15.002,8.975,19.331,18.501,14.056
20.201,27.114,15.525,14.54,8.115,18.506,17.046,13.108
17.827,24.445,13.634,12.968,6.885,16.655,15.216,11.579
15.678,21.188,12.052,10.888,5.873,14.676,13.751,10
15.038,20.039,12.386,10.237,6.154,14.882,14.509,10.145
15.047,20.053,13.272,10.632,7.06,16.533,16.395,10.959
13.629,18.763,11.757,9.189,6.524,15.801,15.743,9.597
10.655,16.389,8.235,5.397,4.58,12.212,12.598,6.879
7.376,13.928,4.951,1.764,2.91,9.447,10.549,5.777
4.601,11.133,2.34,0.061,1.974,9.391,10.655,6.488
2.211,8.151,-0.148,-0.432,0.728,10.087,10.569,6.841
0.404,6.426,-1.684,-0.907,-0.756,9.956,9.592,6.274
0.16,6.693,-1.31,-1.499,-1.354,9.683,9.161,5.925
0.864,7.032,-0.809,-2.855,-1.885,8.899,8.421,5.177
1.006,6.056,-1.899,-5.119,-3.184,6.726,6.02,2.99
1.299,5.77,-2.496,-5.789,-3.381,5.366,3.946,1.135
3.391,8.065,0.069,-3.048,-0.95,7.338,4.391,1.958
5.434,10.542,3.527,-0.097,1.486,10.044,5.277,3.933
2.841,8.751,2.013,-2.328,-0.825,8.022,2.714,2.681
-4.085,3.334,-5.343,-9.538,-7.696,1.164,-2.77,-2.381
-9.111,-0.049,-12.405,-15.761,-13.375,-4.726,-7.102,-7.024
-9.01,0.672,-15.095,-18.101,-14.88,-6.638,-8.879,-8.99
-6.729,2.54,-15.588,-19.137,-14.874,-6.968,-10.086,-10.266
-4.676,4.453,-15.954,-19.787,-15.258,-7.039,-11.726,-12.036
-1.994,7.264,-14.936,-17.962,-14.462,-5.491,-12.141,-12.442
0.623,8.694,-12.668,-15.02,-12.399,-3.431,-10.82,-11.123
1.177,6.715,-11.76,-14.81,-11.526,-3.791,-10.412,-10.901
0.285,4.169,-13.064,-16.824,-12.773,-5.955,-12.389,-13.024
0.14,4.312,-14.577,-17.248,-14.431,-6.544,-14.198,-14.958
1.992,6.459,-14.254,-15.642,-14.287,-4.912,-13.451,-14.522
4.256,7.359,-12.991,-15.806,-12.758,-4.397,-12.337,-13.715
3.966,5.206,-13.433,-18.946,-12.517,-6.684,-13.659,-15.03
1.269,1.793,-15.598,-20.85,-14.015,-8.304,-15.627,-16.706
-0.844,-0.155,-16.276,-18.25,-14.464,-5.974,-14.877,-15.695
-1.085,-0.468,-13.792,-13.589,-12.372,-1.888,-11.583,-12.406
-1.095,-0.938,-10.764,-11.641,-10.221,-0.586,-9.377,-10.419
-1.401,-1.696,-8.977,-13.027,-9.415,-2.415,-10.178,-11.623
-0.565,-1.578,-6.502,-14.201,-7.495,-3.804,-11.365,-13.542
0.744,-1.434,-2.977,-13.82,-4.065,-3.538,-10.54,-13.614
0.871,-2.2,-0.61,-14.052,-2.214,-3.969,-9.325,-12.894
0.701,-2.538,-0.147,-15.964,-3.095,-6.411,-10.2,-13.584
1.821,-1.392,-0.687,-17.503,-4.516,-9.001,-12.156,-15.062
3.092,-0.323,-1.69,-17.061,-5.005,-9.938,-12.769,-15.411
1.832,-1.61,-3.176,-16.642,-5.934,-10.527,-13.053,-15.523
-1.394,-4.316,-4.809,-17.891,-8.122,-11.969,-14.786,-16.812
-3.369,-5.577,-6.332,-18.8,-10.193,-12.604,-16.266,-17.844
-3.348,-5.334,-7.729,-17.837,-11.079,-11.371,-15.467,-16.925
-2.952,-5.827,-8.419,-16.928,-10.996,-10.144,-13.864,-15.191
-2.721,-7.509,-8.029,-17.759,-10.417,-10.279,-13.825,-14.835
-2.477,-8.726,-7.329,-18.47,-9.68,-10.037,-14.697,-15.545
-3.189,-9.306,-7.419,-17.337,-9.515,-8.377,-14.755,-15.616
-4.825,-10.417,-7.701,-15.705,-9.587,-6.973,-13.631,-14.628
-5.738,-11.776,-6.604,-15.156,-8.14,-6.806,-11.695,-13.318
-6.078,-13.281,-4.966,-15.947,-5.655,-7.676,-10.13,-12.912
-7.027,-15.968,-4.936,-17.484,-4.959,-9.34,-9.878,-13.706
-8.406,-19.025,-6.221,-18.594,-6.795,-10.568,-10.124,-14.372
-9.219,-19.54,-6.208,-18.063,-8.172,-9.691,-9.054,-13.373
-8.702,-16.894,-3.908,-15.975,-6.834,-7.22,-6.961,-11.144
-7.614,-14.405,-1.837,-14.414,-5.117,-5.965,-6.935,-10.237
-7.52,-14.47,-1.748,-14.344,-5.398,-6.675,-9.256,-11.259
-8.917,-15.755,-2.358,-14.199,-6.358,-6.898,-10.888,-12.114
-10.972,-16.014,-2.513,-13.164,-6.395,-5.57,-11.295,-12.09
-11.869,-14.755,-2.248,-12.227,-5.716,-4.463,-11.759,-12.329
-10.312,-13.2,-1.604,-12.202,-4.627,-4.854,-11.994,-13.279
-7.627,-12.667,-0.941,-12.891,-2.856,-5.865,-11.514,-14.199
-7.329,-14.161,-1.838,-14.299,-1.747,-6.913,-11.637,-15.004
-10.704,-17.825,-5.265,-16.936,-3.634,-8.988,-13.506,-16.431
-14.368,-21.326,-9.132,-20.037,-7.418,-11.856,-15.552,-17.941
-14.34,-21.234,-10.258,-21.059,-9.03,-12.761,-15.344,-17.692
-10.586,-16.964,-8.386,-18.545,-7.004,-10.123,-13.035,-15.192
-6.966,-12.382,-6.813,-15.186,-4.572,-6.842,-11.429,-12.856
-6.337,-11.403,-7.863,-14.625,-4.832,-6.516,-11.888,-12.873
-7.503,-13.138,-9.845,-16.119,-6.76,-8.299,-12.625,-14.034
-8.724,-14.41,-10.735,-16.589,-8.06,-9.232,-12.301,-14.184
-9.636,-14.334,-10.938,-15.539,-8.149,-8.772,-11.544,-13.304
-9.577,-14.363,-11.114,-14.846,-7.371,-8.533,-11.002,-12.726
-8.095,-15.295,-10.57,-14.891,-5.766,-8.803,-10.047,-12.331
-6.674,-16.045,-9.126,-14.196,-3.908,-8.167,-8.202,-11.016
-7.093,-15.71,-7.987,-12.73,-3.002,-6.956,-6.679,-9.46
-8.103,-14.465,-7.051,-11.3,-2.325,-6.515,-5.918,-8.555
-7.696,-13.032,-5.491,-9.909,-0.69,-6.559,-5.058,-8.034
-6.533,-12.085,-4.285,-8.711,0.622,-6.418,-4.281,-7.857
-6.089,-11.657,-4.551,-7.87,0.268,-6.076,-4.124,-7.995
-6.693,-11.756,-5.958,-7.594,-1.266,-5.981,-4.726,-8.449
-7.839,-12.438,-7.436,-8.404,-2.754,-6.832,-6.169,-9.555
-9.691,-13.999,-8.688,-10.472,-3.946,-8.891,-8.523,-11.643
-12.962,-17.015,-10.429,-13.108,-5.63,-11.414,-11.427,-14.33
-16.525,-20.849,-12.343,-14.875,-7.29,-12.994,-13.485,-16.111
-18.415,-24.164,-12.952,-14.952,-7.231,-13.099,-13.59,-16
-18.57,-26.442,-11.643,-13.789,-5.242,-12.402,-12.096,-14.514
-18.196,-27.354,-9.495,-12.002,-3.139,-11.333,-10.249,-12.728
-17.121,-25.952,-7.556,-9.178,-1.799,-9.29,-8.719,-10.843
-14.222,-22.53,-5.413,-5.064,0.156,-5.881,-6.886,-8.301
-10.636,-19.896,-2.824,-1.508,3.1,-2.63,-4.638,-5.919
-8.773,-19.66,-0.227,-0.093,5.816,-1.319,-2.914,-5.003
-9.042,-20.016,2.415,0.27,7.954,-1.449,-2.271,-5.101
-9.527,-18.894,5.235,1.288,10.142,-1.285,-2.276,-4.719
-8.182,-16.452,7.498,2.862,12.263,-0.352,-2.008,-3.107
-5.6,-14.344,7.907,3.427,12.768,0.009,-1.615,-1.396
-3.688,-13.031,7.094,3.117,11.696,-0.524,-1.675,-0.596
-2.548,-11.357,7.184,3.964,11.319,-0.168,-1.498,0.009
-1.332,-9.433,7.622,5.466,11.689,0.948,-0.876,0.187
-0.439,-8.83,5.947,5.055,10.938,0.283,-1.181,-1.315
-0.279,-9.211,3.138,3.68,10.179,-1.633,-1.892,-2.934
1.432,-7.795,3.648,5.447,12.844,-0.57,0.738,-0.738
6.19,-4.045,8.31,10.698,18.489,4.396,7.626,5.588
10.577,-1.049,12.592,15.308,22.601,9.115,14.368,11.795
11.255,-0.275,14.018,17.505,23.318,11.294,18.119,15.524
9.753,0.102,14.373,19.043,22.62,12.692,20.356,18.214
8.301,0.427,13.544,19.599,20.924,13.469,20.978,19.891
4.698,-2.769,7.768,15.282,14.771,10.041,15.467,16.81
-3.117,-11.009,-3.477,5.157,2.81,1.094,2.312,7.531
-10.729,-19.12,-14.329,-5.137,-9.202,-8.63,-11.646,-2.744
-13.259,-22.154,-20.156,-10.678,-15.557,-14.524,-19.619,-8.83
-12.366,-21.742,-22.069,-12.211,-17.256,-16.544,-21.734,-10.629
-11.37,-20.73,-21.769,-11.217,-16.973,-15.263,-20.2,-9.436
-9.882,-18.887,-18.734,-7.54,-14.664,-10.908,-15.899,-5.987
-6.732,-16.313,-13.561,-2.979,-10.493,-6.325,-10.894,-2.307
-3.376,-14.326,-9.312,-0.649,-6.816,-4.593,-8.32,-0.86
-1.662,-12.635,-8.003,-0.429,-5.422,-4.853,-8.725,-1.479
-1.412,-10.458,-8.364,-0.035,-5.465,-4.597,-10.024,-2.169
-1.636,-8.842,-8.013,0.72,-4.998,-3.905,-10.462,-2.21
-2.469,-9.365,-6.705,0.019,-3.594,-4.785,-10.104,-2.414
-4.548,-11.662,-5.945,-2.602,-2.291,-7.666,-10.158,-3.391
-6.505,-13.281,-5.509,-4.795,-0.919,-10.334,-10.316,-4.249
-6.336,-13.065,-3.737,-4.761,1.525,-11.206,-8.98,-3.818
-4.391,-12.067,-0.551,-3.201,4.788,-10.634,-6.233,-2.144
-2.437,-10.716,2.584,-0.949,7.973,-8.677,-3.726,0.001
-2.193,-9.816,3.961,1.232,9.753,-6.038,-2.919,1.49
-4.239,-11.449,3.097,2.215,9.08,-4.68,-3.845,1.702
-6.663,-15.053,2.008,2.198,8.001,-4.696,-4.602,1.489
-6.867,-16.888,3.024,2.505,9.844,-4.044,-3.185,2.227
-5.612,-15.689,4.939,3.345,13.092,-2.11,-0.53,3.833
-6.314,-14.765,4.289,3.281,12.64,-0.997,0.263,4.447
-9.156,-16.153,0.862,1.613,8.154,-2.053,-1.561,3.232
-10.88,-17.537,-2.234,-0.516,4.5,-3.794,-3.743,1.693
-10.342,-17.024,-3.492,-2.099,4.123,-5.021,-4.398,1.336
-9.129,-15.929,-3.817,-3.245,4.966,-6.084,-3.905,1.837
-8.248,-15.746,-3.99,-4.144,5.032,-6.652,-3.827,1.871
-6.966,-15.472,-3.675,-4.395,5.521,-6.022,-4.124,1.432
-4.498,-13.248,-2.603,-3.747,9.149,-4.867,-3.542,1.684
-1.876,-9.634,-1.919,-2.843,18.388,-4.187,-2.402,2.553
-0.896,-7.073,-2.725,-2.482,35.016,-3.907,-1.847,3.046
-1.755,-6.387,-4.095,-2.782,54.833,-3.875,-1.999,3.016
-3.377,-6.285,-4.587,-3.335,67.424,-4.548,-2.554,2.82
-5.273,-6.186,-4.205,-3.8,68.681,-6.033,-3.341,2.377
-6.292,-5.997,-2.78,-3.255,65.171,-6.823,-3.26,2.237
-4.274,-4.316,0.453,-0.463,62.653,-4.804,-1.121,3.678
-0.133,-1.102,3.989,3.13,60.574,-0.934,1.677,5.915
2.212,0.685,4.999,4.471,58.173,1.28,2.506,6.588
0.929,-1.116,3.329,3.603,56.454,0.935,1.339,5.609
-1.662,-4.709,1.84,3.36,55.142,0.602,1.051,5.447
-3.12,-7.334,1.883,4.289,52.339,1.288,2.534,6.502
-4.667,-9.623,0.979,3.341,47.106,0.396,2.567,5.884
-6.633,-12.61,-1.465,-0.133,43.019,-2.618,0.712,3.578
-6.152,-14.439,-2.578,-2.72,43.904,-4.416,0.58,2.86
-3.119,-13.925,-2.436,-2.92,45.996,-3.728,2.453,4.007
-0.643,-12.322,-3.325,-2.072,43.534,-2.195,3.864,5.063
-0.093,-11.219,-4.524,-1.018,38.335,-0.618,4.615,5.716
-0.155,-10.982,-4,0.124,36.234,0.967,5.909,6.591
0.961,-10.379,-2.274,1.109,38.106,2.182,7.535,7.423
3.223,-8.618,-1.66,1.351,39.151,2.697,7.659,7.273
4.688,-6.833,-2.972,0.408,35.878,2.324,5.39,5.938
5.156,-5.065,-4,-0.598,31.162,1.476,3.301,4.543
7.573,-1.086,-2.328,-0.013,30.019,1.262,4.221,4.376
12.621,4.941,0.194,1.001,31.223,1.597,5.551,4.738
17.002,10.004,0.132,0.445,29.7,1.503,3.559,4.112
18.58,12.764,-1.81,-0.623,25.322,1.265,0.523,3.072
18.252,13.937,-2.82,-0.012,21.961,1.916,0.697,3.274
18.272,14.719,-1.842,2.964,21.721,4.258,4.201,5.256
19.094,15.082,-0.056,6.335,22.721,7.188,7.252,7.237
18.526,13.237,0.532,7.033,21.403,7.757,6.749,6.845
16.177,9.346,-0.276,5.481,17.514,5.902,4.265,5.153
14.037,6.4,-1.488,4.328,13.483,4.513,2.766,4.674
12.523,5.942,-3.285,3.719,9.932,4.238,1.908,4.722
10.549,6.364,-5.952,2.214,6.118,3.467,0.012,3.268
8.481,6.308,-7.425,0.46,3.456,2.258,-1.738,1.365
7.414,6.444,-5.659,0.104,3.874,1.776,-1.08,1.409
6.167,6.269,-3.838,-0.39,4.482,0.768,-0.22,1.807
3.306,4.304,-6.435,-3.273,0.792,-2.234,-2.665,-0.419
0.277,1.769,-10.868,-6.198,-5.349,-5.003,-5.73,-3.343
-0.92,0.805,-11.247,-5.43,-8.611,-4.802,-4.607,-3.321
-0.73,0.785,-7.773,-1.772,-8.649,-2.597,-1.083,-1.397
-0.965,-0.259,-5.397,0.74,-9.229,-1.319,-0.576,-1.009
-1.841,-2.194,-5.357,0.755,-10.891,-1.586,-2.803,-1.633
-2.16,-2.905,-4.446,0.974,-10.752,-1.227,-2.701,-0.048
-1.315,-0.885,-1.218,3.182,-8.242,0.887,1.079,3.613
0.651,2.822,2.338,5.343,-5.971,2.938,4.871,6.17
3.459,5.452,4.549,5.178,-5.525,2.912,5.943,6.433
7.269,6.675,6.284,4.207,-5.21,1.747,5.942,6.418
11.897,8.448,7.941,4.91,-4.255,1.455,6.888,7.354
15.237,10.187,7.631,6.059,-5.411,1.329,7.266,7.693
15.857,10.051,5.447,5.496,-9.022,-0.037,5.711,6.524
15.528,9.502,4.454,4.531,-11.315,-1.201,3.948,5.174
16.735,11.451,5.902,5.372,-10.925,-0.164,3.774,5.024
19.105,15.18,7.683,6.952,-10.554,1.933,4.421,5.966
20.136,17.145,7.3,6.87,-12.382,2.359,3.838,6.614
19.552,16.771,5.074,5.758,-15.253,1.242,2.394,6.315
19.791,16.979,4.576,6.556,-15.853,1.57,3.292,6.725
20.305,17.714,7.476,9.214,-13.408,3.597,6.485,8.49
16.373,14.556,9.207,9.119,-12.531,2.854,6.417,7.882
7.775,7.209,6.241,4.556,-16.134,-2.087,1.444,3.154
1.231,1.876,3.156,1.028,-19.465,-5.505,-2.099,-0.288
0.06,1.049,4.003,2.219,-18.656,-3.987,-1.322,0.991
0.21,0.297,4.755,4.241,-17.476,-1.86,-1.639,2.736
-1.726,-2.805,1.717,3.567,-19.2,-2.913,-5.621,1.903
-3.528,-5.069,-1.159,2.359,-19.88,-4.942,-7.093,1.471
-2.535,-4.342,-0.141,2.453,-16.113,-5.495,-2.342,3.074
-0.873,-3.296,1.04,1.66,-12.473,-6.099,2.193,3.616
-0.925,-3.561,-0.749,-0.24,-13.345,-7.284,2.053,2.345
-1.654,-3.058,-2.263,-0.247,-15.793,-6.864,1.672,2.388
-2.259,-1.437,-1.568,1.24,-16.424,-5.479,3.142,3.921
-2.721,-0.541,-0.995,1.356,-16.023,-5.732,3.072,4.393
-1.886,-0.297,-0.967,0.632,-15.515,-6.936,1.284,3.782
0.561,0.438,0.426,1.306,-14.396,-6.828,1.363,3.954
2.553,0.994,2.271,2.793,-13.334,-5.881,3.701,4.902
2.727,0.223,1.916,3.229,-13.668,-5.867,4.901,5.041
2.356,-1.161,-0.242,2.816,-15.08,-6.467,3.424,4.183
2.019,-2.236,-2.107,2.454,-16.832,-6.959,1.14,3.333
0.877,-3,-2.866,2.157,-18.663,-7.807,0.517,3.06
-0.589,-3.147,-2.457,1.975,-19.707,-8.625,1.809,3.276
-1.944,-3.086,-1.626,1.448,-19.692,-9.294,2.394,3.004
-4.12,-4.016,-2.126,-0.523,-20.223,-11.377,0.109,1.111
-6.338,-4.921,-4.404,-3.182,-22.597,-14.587,-4.004,-1.825
-5.408,-2.887,-5.749,-3.434,-24.707,-15.479,-6.297,-2.697
-0.051,2.513,-2.951,0.424,-22.848,-11.904,-3.036,0.987
6.37,7.848,2.874,6.241,-17.636,-6.192,4.527,6.801
8.821,9.673,6.953,10.487,-14.221,-2.364,9.493,9.868
6.25,8.165,7.312,11.974,-14.879,-1.443,8.456,9.247
3.014,6.392,7.17,12.366,-15.886,-1.287,6.172,8.159
3.174,6.546,9.259,13.062,-14.12,-0.397,6.559,8.372
5.932,8.01,11.971,13.537,-11.402,0.588,7.401,8.622
8.506,9.341,13.386,13.414,-9.834,0.825,7.081,8.468
9.724,10.039,14.254,13.128,-8.8,0.172,7.602,8.979
9.84,10.126,15.348,12.819,-7.86,-0.942,9.668,10.031
9.178,9.629,15.725,12.571,-8.007,-1.501,10.794,10.191
8.447,9.338,15.31,13.34,-8.922,-0.441,9.849,9.631
9.634,10.882,16.808,16.643,-7.672,3.108,10.281,11.09
12.944,13.711,21.437,21.736,-3.098,8.352,14.705,15.143
14.202,14.303,24.905,24.562,0.433,11.507,19.006,17.592
9.85,10.744,22.184,22.059,-2.118,9.256,17.221,15.086
2.305,5.349,14.649,16.101,-9.101,3.203,10.313,10.027
-3.575,1.357,8.521,11.225,-14.315,-1.796,5.025,7.096
-7.079,-1.036,6.601,9.106,-15.948,-3.677,4.423,6.87
-10.05,-3.122,6.228,8.049,-17.197,-4.339,5.321,6.528
-11.807,-4.262,5.195,6.872,-19.485,-5.199,4.516,4.823
-10.868,-3.662,4.171,5.872,-21.488,-5.873,2.218,2.67
-8.056,-2.279,4.029,5.462,-22.439,-6.123,0.439,1.213
-4.583,-0.428,4.68,5.775,-22.399,-6.062,0.535,0.948
-0.525,2.52,5.765,6.75,-21.417,-5.624,2.113,1.812
3.46,5.759,6.723,8.124,-20.251,-4.732,3.648,3.368
6.194,8.141,7.133,9.789,-20.155,-3.158,4.025,4.898
7.336,9.862,6.805,11.626,-21.668,-1.072,3.391,5.752
7.012,10.808,5.502,12.782,-24.053,0.275,2.532,5.559
6.638,10.663,4.596,13.053,-24.859,0.478,2.742,5.079
8.241,10.457,6.267,13.67,-22.568,0.787,4.585,5.54
10.991,11.323,9.664,14.817,-19.531,1.466,6.212,6.377
13.018,13.498,12.322,15.465,-18.123,1.785,6.23,6.571
15.321,17.066,14.151,15.786,-16.968,2.145,5.957,6.881
18.984,21.67,16.519,16.768,-14.307,3.12,6.607,8.04
21.803,25.463,19.064,18.34,-11.35,3.995,7.515,8.95
21.691,26.461,19.679,19.586,-10.128,3.954,7.773,8.374
20.112,25.127,17.672,19.904,-10.669,3.201,7.547,6.773
19.956,23.923,15.521,19.701,-11.058,2.452,7.91,5.874
23.041,25.304,16.904,20.778,-8.627,2.968,10.443,7.559
28.909,29.695,22.584,24.11,-2.861,5.728,15.855,12.144
35.264,34.777,29.731,28.028,3.852,9.839,23.526,18.324
39.887,37.75,35.433,30.55,9.497,13.225,31.97,24.598
40.043,36.68,37.389,30.115,12.164,13.511,37.083,28.109
33.556,30.823,33.747,25.264,9.235,9.177,33.923,25.64
22.009,21.319,25.045,16.604,0.373,1.32,22.133,17.383
10.202,11.113,14.843,7.486,-10.535,-6.711,7.346,7.259
2.847,4.206,8.069,2.21,-17.552,-11.106,-2.607,0.363
0.017,1.878,6.274,1.941,-19.026,-10.686,-4.874,-1.346
-1.799,1.594,6.694,3.667,-18.249,-7.984,-2.944,-0.273
-2.989,2.035,7.842,5.059,-16.5,-5.677,0.067,1.272
-2.027,3.506,10.041,6.229,-13.085,-4.405,3.146,2.824
-1.214,4.367,11.361,6.838,-10.51,-3.978,4.081,3.173
-3.748,2.894,9.14,5.944,-12.043,-4.408,1.117,0.805
-7.043,1.255,5.207,4.929,-15.662,-4.871,-3.04,-2.533
-5.78,2.856,4.578,6.529,-16.132,-3.49,-3.887,-3.125
-0.694,6.504,7.85,9.806,-12.875,-0.786,-1.574,-0.974
2.294,8.285,10.187,10.82,-10.646,0.046,-0.538,0.195
0.429,7.312,8.828,8.694,-12.05,-1.762,-2.848,-1.398
-2.659,5.973,7.137,6.927,-13.576,-2.859,-4.825,-3.159
-2.259,6.309,9.185,8.02,-11.399,-0.799,-2.732,-2.286
1.074,7.739,13.782,10.064,-7.119,1.995,1.098,0.337
3.805,8.751,17.869,10.684,-3.512,2.333,3.127,2.762
5.16,8.957,21.127,10.203,-0.499,0.954,4.124,4.573
6.508,8.796,23.955,9.768,2.063,0.382,5.533,5.685
8.29,9.192,26.273,10.223,3.94,1.733,7.133,6.45
9.69,10.189,28.442,11.444,5.729,3.868,8.917,7.456
9.878,9.894,29.892,11.778,6.99,4.387,10.213,7.776
9.212,7.383,29.397,10.511,6.771,2.871,9.453,6.584
8.609,4.729,27.638,9.229,6.04,1.788,7.501,5.65
7.256,3.5,25.89,8.805,5.329,2.451,6.807,6.329
3.64,2.669,23.844,8.365,3.374,3.326,7.4,6.942
-0.582,1.775,21.899,8.173,1.107,3.698,8.12,6.684
-1.986,1.966,21.66,9.494,1.212,4.861,9.099,7.404
-0.053,3.682,23.026,12.302,3.516,7.633,10.872,10.052
2.523,5.937,24.395,15.552,5.543,11.399,13.2,13.253
3.061,7.464,24.979,18.084,6.137,14.732,15.116,15.179
1.823,8.21,25.248,19.272,6.313,16.541,16.06,15.584
1.581,9.303,26.258,19.621,7.574,17.008,16.515,15.779
4.078,11.432,28.931,20.074,10.463,17.11,17.31,16.708
7.785,13.629,32.306,20.678,14.019,17.366,18.661,17.905
10.047,14.26,33.854,20.829,16.394,17.602,19.957,18.689
11.202,14.067,33.542,20.956,17.113,18.129,20.883,19.575
13.375,15.017,33.451,21.607,16.819,19.066,21.319,20.767
16.063,15.931,33.328,21.438,15.255,18.888,20.727,21.131
17.872,15.249,32.204,19.804,13.202,17.358,20.001,20.742
19.44,15.166,31.513,18.8,13.202,16.823,20.831,20.729
20.854,16.745,31.817,18.978,14.937,17.354,21.969,20.273
20.856,17.363,31.245,18.222,15.208,16.775,21.299,18.554
19.439,16.622,29.406,16.638,13.733,15.673,20.182,17.329
16.916,16.339,26.884,15.488,12.13,14.862,19.688,16.865
13.034,15.653,22.83,13.63,9.429,12.648,17.903,14.947
9.645,13.773,18.448,11.134,5.38,10.042,15.369,12.506
9.048,12.646,16.778,10.257,2.892,10.052,14.992,12.295
9.609,13.08,17.103,10.715,3.131,11.408,16.257,13.284
8.259,13.189,16.356,10.315,3.845,11.202,16.678,13.199
5.871,11.806,14.693,9.152,3.965,10.291,16.234,12.639
5.717,10.47,14.408,8.833,4.942,10.738,15.933,12.511
7.532,10.335,15.208,8.936,6.779,11.638,15.241,11.545
7.883,9.792,14.834,7.729,7.574,11.021,13.866,9.334
5.637,7.185,12.548,4.96,6.556,8.99,12.458,7.585
3.209,3.754,9.605,1.979,4.743,7.13,11.147,7.098
2.673,2.275,7.373,0.364,3.553,6.757,10.285,7.222
2.495,2.55,5.451,-0.172,2.737,7.178,10.092,6.884
0.524,1.391,3.129,-1.292,1.217,6.39,9.794,5.471
-1.96,-2.095,1.228,-3.269,-0.381,4.082,8.712,3.548
-2.967,-5.562,0.034,-5.601,-1.173,1.394,6.699,1.612
-2.949,-6.902,-1.153,-7.545,-1.64,-0.244,4.97,0.226
-2.934,-5.975,-2.059,-7.53,-2.284,0.625,5.14,0.48
-2.735,-4.261,-1.932,-5.607,-2.641,3.283,6.295,1.916
-2.476,-3.671,-1.419,-4.29,-2.405,4.72,6.296,2.482
-3.491,-4.921,-2.339,-5.379,-2.996,3.328,4.582,0.892
-5.543,-6.493,-4.66,-7.605,-5.358,1.005,2.553,-1.648
-6.556,-6.679,-6.363,-8.493,-7.679,0.433,2.171,-2.726
-6.043,-5.705,-7.134,-7.893,-8.625,1.422,2.944,-2.375
-4.478,-3.747,-7.726,-7.302,-8.924,2.03,2.792,-2.386
-1.663,-0.54,-7.281,-7.343,-8.554,1.385,2.29,-2.798
1.017,2.021,-5.676,-8.447,-7.169,-0.765,2.766,-3.153
1.058,1.299,-4.854,-11.042,-6.03,-4.304,2.789,-4.269
-0.707,-1.82,-5.198,-13.425,-5.718,-7.209,1.915,-5.726
-0.85,-3.829,-5.13,-13.354,-4.965,-7.359,2.164,-5.939
0.899,-3.545,-4.289,-11.612,-3.41,-5.657,3.413,-5.126
1.712,-2.449,-3.085,-9.73,-1.888,-3.69,4.224,-3.961
0.793,-1.321,-1.613,-7.472,-0.879,-1.251,4.929,-2.317
-0.026,0.241,-0.461,-5.109,-0.588,1.545,5.579,-1.128
0.295,2.008,0.392,-3.478,-0.613,3.703,5.421,-1.404
1.128,2.817,1.773,-2.499,-0.038,4.783,4.759,-2.43
2.38,2.763,3.518,-1.833,1.378,5.016,4.433,-2.925
4.756,3.917,4.88,-1.124,3.171,4.992,4.597,-2.517
7.55,7.113,5.972,-0.095,4.908,5.17,5.087,-1.67
8.516,9.83,6.712,0.556,5.682,5.147,5.514,-1.459
6.358,9.125,5.778,-0.354,4.295,4.001,4.892,-2.98
2.696,5.897,3.061,-2.364,1.703,2.09,3.494,-5.19
0.954,4.034,1.08,-3.277,0.681,1.255,3.045,-5.727
2.587,5.319,1.649,-1.94,2.086,2.395,3.949,-4.527
4.174,6.733,2.043,-0.617,2.661,3.402,4.106,-4.204
1.579,4.612,-1.861,-2.445,-1.36,1.723,1.197,-6.626
-2.561,0.896,-8.108,-5.725,-7.615,-0.576,-3.03,-9.584
-3.71,-0.716,-12.025,-6.797,-11.351,-0.478,-5.37,-10.506
-3.97,-1.435,-14.493,-6.733,-13.535,-0.222,-7.163,-11.283
-5.937,-2.833,-17.716,-7.634,-16.499,-2.042,-10.376,-13.674
-6.881,-3.024,-19.666,-7.876,-18.486,-3.217,-12.701,-15.431
-5.035,-1.462,-18.556,-6.183,-17.84,-1.826,-12.03,-14.763
-3.226,-0.427,-16.429,-4.989,-16.2,-0.784,-10.643,-13.747
-3.747,-0.699,-15.645,-6.322,-15.45,-2.427,-11.117,-14.612
-4.467,-0.088,-15.406,-7.967,-15.012,-3.992,-12.023,-15.653
-1.961,3.436,-13.497,-6.82,-13.269,-2.074,-11.141,-14.09
3.796,9.157,-9.804,-3.444,-10.046,1.985,-9.399,-10.842
9.246,13.808,-7.071,-1.414,-7.432,3.916,-8.959,-9.356
11.647,15.08,-7.375,-2.552,-7.132,2.428,-9.638,-10.411
12.02,14.549,-9.116,-4.404,-7.803,0.757,-9.889,-11.49
12.508,15,-9.636,-3.989,-7.419,1.561,-9.411,-11.082
13.439,17.034,-8.504,-1.27,-5.855,4.091,-8.364,-9.695
13.72,18.883,-7.193,1.675,-4.489,6.416,-7.392,-8.548
13.011,18.844,-6.588,3.17,-4.181,7.469,-7.761,-8.612
12.773,18.096,-5.457,4.121,-3.479,8.105,-8.45,-8.639
13.759,18.598,-2.683,6.526,-0.74,10.141,-6.758,-6.572
14.324,19.411,0.422,9.613,2.847,13.118,-2.933,-3.502
12.757,17.861,1.535,10.194,4.474,13.996,-0.837,-2.586
10.412,14.051,0.614,8.091,3.962,12.179,-2.003,-3.577
10.451,11.95,0.343,7.196,4.425,11.209,-2.661,-2.946
12.475,13.263,1.798,8.622,6.775,12.505,-0.707,-0.434
13.178,14.479,2.862,9.145,8.338,13.253,0.962,0.848
12.381,13.383,2.199,7.698,8.1,12.198,0.62,0.021
12.12,12.201,1.049,6.745,7.648,11.526,-0.261,-1.359
11.743,12.435,0.661,7.841,7.623,13.005,-0.675,-1.947
9.782,12.8,0.865,10.181,7.539,16.061,-0.754,-1.22
7.954,12.558,1.244,12.205,7.478,19.039,-0.704,0.106
7.829,11.871,1.228,12.471,7.227,20.299,-1.163,0.329
7.251,10.326,0.211,10.693,6.432,19.428,-1.754,-0.609
4.396,7.926,-1.341,8.092,5.655,17.517,-1.203,-0.949
1.166,5.674,-2.644,5.53,4.929,15.131,-0.665,-0.779
0.326,4.778,-3.297,3.319,4.131,12.632,-1.626,-1.385
1.588,5.316,-3.115,1.99,4.086,11.234,-2.768,-2.276
2.673,6.335,-1.908,1.484,5.234,11.141,-2.645,-2.44
2.969,7.32,0.291,1.002,7.017,11.003,-1.834,-2.303
2.839,7.133,1.652,-0.486,7.942,9.407,-2.144,-3.445
2.362,4.842,0.707,-2.806,7.381,6.639,-3.806,-5.916
1.671,2.108,-0.897,-4.387,6.827,4.611,-4.883,-7.458
-0.136,0.289,-1.824,-5.032,6.758,3.865,-5.124,-7.202
-2.673,-1.08,-2.26,-5.83,6.208,3.228,-5.968,-6.606
-3.001,-1.752,-0.99,-6.27,6.142,2.881,-6.721,-6.348
-1.343,-1.653,2.34,-4.862,7.85,4.219,-5.671,-5.592
-2.475,-3.189,3.396,-3.212,8.336,5.72,-4.944,-5.117
-8.09,-8.424,-1.519,-5.224,3.814,3.895,-8.382,-7.274
-13.208,-14.424,-8.087,-9.923,-2.381,0.176,-13.903,-10.889
-13.266,-15.658,-9.457,-11.629,-3.372,-0.468,-15.497,-11.783
-10.294,-11.599,-6.083,-9.073,0.835,2.062,-12.485,-9.437
-8.921,-7.856,-3.503,-6.76,3.929,3.536,-9.954,-7.64
-9.288,-7.833,-3.612,-6.689,3.312,2.875,-10.325,-7.781
-8.448,-8.592,-4.251,-6.655,2.253,2.449,-11.263,-7.595
-7.223,-8.076,-5.146,-6.401,2.227,2.644,-11.984,-7.092
-8.249,-8.086,-6.941,-7.125,1.852,2.598,-13.291,-7.697
-10.306,-8.82,-7.928,-7.734,1.357,3.115,-13.979,-8.136
-11.72,-9.057,-7.539,-7.314,1.023,4.324,-13.309,-7.473
-13.056,-9.566,-7.425,-6.806,0.131,4.939,-12.247,-6.765
-13.579,-10.828,-7.587,-6.418,-0.244,5.1,-10.9,-5.827
-11.517,-10.673,-6.056,-4.433,2.151,6.967,-7.55,-2.486
-7.395,-7.494,-1.927,0.378,7.575,11.913,-0.616,4.431
-2.797,-2.709,3.795,6.796,14.18,18.579,8.949,13.116
1.427,1.229,9.067,12.238,19.709,23.965,17.718,20.064
2.393,1.325,9.919,13.033,20.658,24.218,20.729,21.261
-4.393,-5.727,1.897,5.516,12.872,16.267,13.274,13.672
-17.617,-18.195,-13.028,-8.005,-2.086,2.958,-3.487,-0.018
-27.699,-27.201,-24.571,-17.586,-14.263,-6.293,-19.272,-10.191
-28.725,-28.064,-26.669,-17.883,-17.045,-6.668,-25.048,-10.866
-27.241,-27.85,-25.914,-16.198,-16.135,-5.127,-23.982,-7.748
-28.931,-30.936,-27.356,-17.917,-16.57,-6.914,-21.936,-6.749
-28.203,-30.584,-25.283,-16.864,-13.808,-6.051,-17.421,-4.53
-21.242,-24.299,-17.653,-10.296,-6.697,0.339,-10.486,0.626
-14.691,-19.963,-12.352,-5.929,-2.318,4.711,-7.327,2.768
-14.379,-21.944,-13.37,-7.765,-3.421,3.196,-10.013,-0.486
-16.622,-24.735,-14.957,-10.149,-4.426,1.505,-12.637,-3.042
-15.969,-23.141,-12.93,-9.228,-1.976,3,-11.235,-1.459
-13.844,-20.006,-11.152,-8.854,0.069,3.425,-9.178,-0.851
-14.02,-19.766,-12.889,-11.664,-1.324,0.388,-9.648,-4.5
-15.886,-21.269,-14.897,-13.97,-3.478,-2.375,-10.89,-7.532
-16.265,-20.746,-13.551,-12.7,-3.085,-1.928,-10.378,-5.36
-13.985,-17.39,-9.992,-9.7,-0.345,0.259,-7.822,-0.112
-10.714,-13.708,-7.085,-7.396,2.713,1.89,-4.667,3.931
-8.952,-12.114,-6.141,-6.038,4.215,2.296,-3.256,5.232
-9.395,-12.599,-7.294,-5.606,3.084,1.684,-4.832,4.076
-9.077,-12.688,-8.616,-5.529,1.451,1.245,-7.059,1.987
-5.163,-10.278,-6.956,-4.113,3.242,2.371,-6.248,1.549
-0.039,-6.791,-2.753,-1.165,8.051,4.542,-2.503,3.515
2.456,-4.923,0.032,1.505,11.628,6.35,0.485,6.005
2.333,-4.702,-0.685,2.322,11.609,7.051,0.272,6.894
1.959,-4.12,-2.636,1.49,9.491,6.515,-1.925,5.717
2.508,-2.505,-2.703,0.379,8.12,5.305,-3.986,3.508
3.039,-1.079,-1.439,-0.547,8.195,3.968,-5.768,1.29
2.775,-0.257,-1.323,-1.487,8.245,2.666,-7.487,-0.299
2.549,0.566,-2.185,-1.865,7.401,1.839,-8.258,-0.727
2.879,1.221,-2.284,-1.329,6.352,1.815,-7.646,-0.105
2.691,0.893,-2.073,-1.117,5.763,1.683,-6.861,0.291
1.532,-0.495,-2.724,-2.459,5.755,0.391,-7.052,-0.559
0.994,-1.578,-2.884,-4.253,6.867,-1.207,-7.199,-1.377
1.668,-1.461,-1.257,-4.872,8.735,-2.207,-6.615,-0.892
1.779,-1.373,0.303,-4.982,9.211,-3.578,-7.113,-0.599
0.775,-2.349,0.09,-5.789,7.501,-5.685,-9.229,-1.862
0.525,-2.952,-0.223,-6.379,6.076,-6.828,-10.44,-3.016
1.512,-1.677,1.026,-5.337,7.148,-5.714,-9.357,-2.201
1.926,0.152,2.45,-3.177,9.469,-3.284,-7.427,-0.481
1.597,0.432,2.474,-1.254,10.686,-1.204,-6.126,0.243
1.491,-1.068,0.984,-0.56,9.93,-0.469,-6.359,-0.473
1.452,-2.336,-0.958,-0.607,8.542,-0.317,-7.566,-1.224
2.198,-0.782,-0.818,0.946,9.46,1.765,-6.335,0.683
3.568,2.204,1.514,3.41,12.298,4.944,-2.189,4.523
2.556,2.104,2.057,2.461,12.743,4.423,-0.199,5.514
-1.999,-2.057,-1.28,-2.517,9.414,-0.686,-2.865,2.299
-6.98,-6.706,-5.586,-7.38,5.473,-5.819,-6.61,-1.285
-9.527,-9.195,-8.18,-10.199,2.93,-8.49,-8.482,-3.243
-11.186,-11.169,-10.954,-13.657,-0.101,-11.329,-10.522,-6.06
-13.525,-13.728,-14.886,-18.208,-3.93,-15.137,-13.816,-9.855
-14.16,-14.216,-16.293,-19.78,-4.824,-16.154,-14.405,-10.57
-12.319,-12.332,-13.988,-17.824,-2.053,-13.86,-10.978,-8.087
-10.826,-11.264,-11.413,-16.339,0.655,-12.057,-8.37,-6.698
-10.582,-11.372,-10.196,-16.547,1.679,-11.666,-9.062,-7.339
-9.829,-10.476,-9.485,-16.747,2.268,-11.02,-9.701,-7.206
-8.766,-9.458,-10.088,-17.264,1.897,-11.012,-8.891,-6.09
-9.641,-11.269,-13.588,-19.945,-1.438,-13.834,-10.098,-7.063
-11.607,-14.793,-18.5,-23.996,-6.676,-18.476,-14.387,-10.632
-10.39,-15.383,-21.134,-26.185,-9.868,-21.314,-17.751,-13.401
-4.126,-11.132,-19.543,-24.648,-8.507,-19.973,-16.618,-12.464
3.363,-5.2,-15.504,-20.979,-4.251,-15.818,-12.4,-8.903
6.454,-1.842,-12.943,-18.729,-1.621,-13.01,-9.781,-6.633
4.137,-1.557,-13.489,-19.24,-2.804,-13.536,-10.526,-7.147
0.403,-1.97,-14.539,-20.289,-4.867,-15.001,-11.779,-8.181
-1.148,-1.841,-13.439,-19.776,-4.248,-14.872,-11.247,-8.134
-1.011,-1.516,-11.629,-18.385,-2.283,-13.582,-10.378,-7.995
-1.208,-0.972,-11.229,-17.26,-2.264,-12.266,-10.745,-8.382
-1.409,0.001,-10.944,-16,-3.47,-10.969,-11.148,-8.422
-0.863,0.198,-9.596,-14.8,-3.44,-10.281,-10.771,-8.334
-0.851,-1.757,-8.557,-14.791,-2.413,-10.997,-10.695,-9.006
-3.031,-5.595,-8.945,-16.01,-2.255,-12.535,-11.607,-10.196
-7.076,-9.643,-10.331,-17.442,-3.516,-13.84,-13.008,-11.439
-10.545,-11.93,-11.846,-18.095,-4.972,-14.317,-14.014,-12.381
-12.126,-12.181,-13.346,-17.751,-5.91,-13.869,-14.572,-12.937
-12.578,-11.369,-14.408,-16.315,-6.282,-12.2,-14.734,-13.093
-12.495,-10.292,-13.904,-14.039,-5.719,-9.527,-14.186,-12.617
-11.765,-9.864,-12.166,-12.522,-4.593,-7.93,-13.6,-11.975
-9.733,-9.662,-10.493,-12.228,-3.498,-8.163,-13.14,-11.381
-6.916,-8.286,-9.597,-11.929,-2.668,-8.293,-11.796,-10.325
-5.545,-6.006,-9.634,-11.152,-2.368,-7.407,-9.739,-8.923
-6,-4.127,-9.88,-9.99,-2.29,-6.347,-8.502,-8.081
-6.004,-2.895,-9.436,-8.563,-2.02,-5.58,-8.922,-8.652
-4.371,-1.333,-8.408,-7.251,-1.568,-4.713,-9.887,-9.973
-2.362,1.001,-7.418,-6.24,-0.674,-3.526,-9.752,-10.216
-0.352,3.601,-6.153,-5.08,1.332,-2.274,-7.858,-8.668
2.405,5.752,-4.089,-3.63,4.187,-1.585,-4.764,-6.594
4.788,6.939,-2.028,-2.675,6.564,-1.926,-1.977,-5.428
5.767,7.975,-0.496,-1.953,8.208,-1.961,-0.247,-4.656
5.962,9.351,0.551,-0.795,9,-0.765,0.116,-4.001
5.427,9.323,-0.058,-0.553,7.263,-0.592,-1.762,-5.08
3.854,6.82,-3.12,-2.358,2.749,-2.985,-5.192,-8.106
2.232,3.696,-6.581,-4.367,-1.1,-5.4,-7.552,-10.502
2.478,2.626,-7.102,-3.796,-0.537,-4.561,-6.969,-9.778
4.977,4.185,-4.144,-0.674,3.724,-0.959,-4.02,-6.396
7.382,6.629,-0.776,2.126,7.402,1.864,-1.137,-3.437
7.157,7.769,-0.133,2.334,7.806,1.69,-0.61,-3.439
4.74,6.932,-1.881,0.971,6.458,-0.109,-1.961,-5.561
2.671,5.214,-2.919,0.843,6.433,-0.836,-2.26,-6.734
1.724,3.467,-1.826,2.278,7.989,-0.314,-1.011,-6.369
0.648,1.938,-0.109,3.349,9.486,-0.18,-0.609,-6.341
-0.968,0.997,0.533,3.129,10.535,-0.692,-1.455,-6.886
-1.562,1.033,0.235,2.319,11.549,-0.735,-1.689,-6.674
0.243,2.347,0.455,2.318,12.608,0.442,-0.649,-5.296
2.067,3.621,0.561,2.891,12.52,1.641,-0.239,-4.32
0.582,3.036,-1.768,2.376,10.125,1.102,-1.988,-5.11
-2.571,1.647,-5.385,1.415,7.435,-0.119,-3.924,-6.229
-3.093,1.711,-6.296,2.375,7.576,0.603,-3.199,-5.441
-0.362,3.19,-3.495,5.232,10.162,3.334,-0.146,-2.788
1.94,4.065,0.011,7.064,12.055,5.003,2.162,-0.615
1.425,3.369,1.899,6.177,12.017,3.593,1.8,-0.738
0.075,2.413,2.631,4.444,11.33,1.228,0.008,-2.055
0.755,3.271,3.521,4.471,11.316,1.104,-0.269,-1.91
3.738,6.64,5.427,6.139,12.817,2.807,2.674,0.353
6.464,9.705,7.414,6.561,14.942,2.956,6.117,1.963
6.926,9.481,7.922,4.745,15.759,1.072,6.361,1.364
6.105,7.397,7.513,3.215,15.263,0.208,4.799,0.795
4.326,5.126,6.522,2.212,13.573,0.052,3.681,0.291
0.213,1.598,3.601,-0.597,9.806,-2.634,1.333,-2.928
-4.217,-2.34,0.508,-3.581,6.072,-6.133,-1.752,-6.84
-4.058,-3.125,1.874,-2.751,6.511,-5.524,-1.128,-6.327
0.315,-0.514,6.701,0.549,10.012,-1.883,2.525,-2.691
3.766,2.262,9.624,2.406,12.006,0.061,4.205,-0.856
5.165,4.346,10.517,3.656,12.586,0.659,4.034,-0.61
5.973,5.988,11.916,5.764,13.723,2.126,4.67,0.13
6.243,6.751,13.457,7.382,14.978,3.715,5.974,1.117
6.8,7.805,14.557,8.563,16.153,5.114,7.205,2.266
8.416,9.825,15.403,10.325,17.336,7.214,7.931,3.797
10.365,11.624,15.699,12.149,17.995,9.712,7.73,5.004
11.557,12.305,14.897,13.193,17.797,11.434,6.954,5.047
12.448,12.828,13.791,14.241,17.527,12.676,6.931,4.693
14.37,14.628,14.088,16.088,18.409,14.395,8.215,5.346
15.713,16.359,14.97,16.774,19.309,15.017,9.164,6.313
14.835,16.733,14.828,15.505,18.644,13.604,9.12,6.806
14.501,18.13,14.847,15.536,18.054,13.429,9.699,8
17.157,22.049,16.898,19.047,19.878,17.124,11.986,10.963
20.713,25.945,20.981,24.015,23.71,22.516,15.707,15.079
22.22,27.477,25.309,27.094,27.455,25.708,19.347,18.382
21.657,27.13,27.47,27.022,29.553,25.52,20.978,19.447
20.06,25.512,26.389,25.116,29.135,23.568,20.21,18.848
17.911,22.939,23.974,23.777,26.835,21.984,19.057,18.453
15.987,20.792,23.292,24.37,25.263,22.064,19.884,19.368
15.367,20.493,25.383,26.596,26.501,24.293,22.48,21.255
16.671,22.404,29.301,29.884,30.17,28.422,25.205,23.738
18.457,24.793,32.845,33.177,33.674,32.503,27.238,26.3
19.311,25.85,34.529,35.493,35.28,34.908,29.005,28.357
20.987,26.965,35.755,37.521,36.278,36.732,31.488,30.164
24.9,30.027,38.162,40.089,38.227,39.328,34.919,32.43
29.316,33.856,41.189,42.862,41.182,42.439,39.346,36.232
32.69,36.411,44.187,45.472,44.81,45.354,45.146,41.94
36.13,38.703,48.055,48.729,49.032,48.272,52.126,48.608
38.903,41.348,51.426,51.828,51.979,50.678,57.614,53.797
35.404,39.236,48.442,49.55,48.875,48.654,55.581,52.829
23.705,28.836,36.761,39.18,37.78,39.506,42.926,43.482
11.73,16.969,23.707,27.022,24.726,28.133,26.398,31.024
7.998,12.783,18.145,21.195,18.205,22.434,16.876,23.401
11.268,15.251,19.939,21.696,19.267,23.566,16.784,22.572
15.576,17.734,23.902,23.924,23.115,26.989,20.652,25.243
20.037,19.939,29.121,27.386,28.288,30.968,25.976,29.759
25.727,24.578,35.704,32.386,34.685,35.759,32.412,35.011
30.597,29.475,40.468,35.442,39.156,38.946,36.357,37.691
33.62,32.188,42.222,35.195,40.78,38.909,36.009,36.928
36.447,34.519,43.273,34.823,42.337,37.747,34.927,35.849
38.79,37.125,44.275,35.561,44.13,37.377,35.701,36.04
37.449,36.487,42.525,34.245,42.67,36.298,35.08,34.742
32.477,31.889,37.081,29.852,37.187,33.144,30.111,30.404
28.723,28.13,31.778,26.244,31.661,30.021,23.825,26.094
28.174,27.288,29.944,25.557,28.794,28.703,20.213,24.17
28.41,26.685,30.718,26.068,28.299,28.443,20.273,24.004
28.296,25.529,31.741,26.501,29.437,28.552,23.01,24.546
28.469,25.606,31.412,26.619,30.598,28.758,25.305,24.646
28.491,26.963,29.052,26.005,29.478,28.69,24.239,23.598
27.925,28.294,26.086,25.493,26.401,28.939,21.617,22.682
27.219,28.835,24.775,25.727,23.968,29.346,21.03,22.996
24.822,26.703,23.227,23.495,21.625,26.717,20.681,22.187
19.279,20.988,18.237,16.447,17.141,19.601,17.031,18.267
13.225,14.688,12.014,8.711,12.002,11.974,11.912,13.648
9.854,10.939,8.448,5.488,8.757,8.046,8.957,11.13
9.3,10.266,7.366,6.561,7.482,7.872,8.451,10.557
9.996,11.799,7.289,8.449,7.682,9.247,8.977,10.744
12.683,15.93,10.498,11.641,11.38,12.59,12.019,13.238
19.97,24.038,19.395,19.691,20.269,20.217,19.796,20.561
28.876,32.608,28.562,29.027,29.013,28.496,27.646,28.614
31.842,34.649,30.085,31.203,30.14,29.938,28.326,29.834
26.678,29.236,24.321,25.652,24.243,24.057,22.302,24.068
18.218,21.965,16.901,18.901,17.148,16.846,15.608,17.244
11.333,16.46,10.832,14.712,12.046,12.261,11.834,12.889
7.741,12.894,7.467,13.345,9.985,10.897,11.204,11.71
9.966,14.266,10.377,16.943,13.973,14.401,15.24,15.816
19.84,23.085,20.838,26.842,25.147,23.71,24.932,25.693
31.655,33.18,32.365,37.711,37.112,33.863,35.114,35.96
37.596,37.166,38.062,43.322,42.962,39.046,40.342,41.611
38.708,37.315,39.337,45.006,44.348,40.434,42.889,44.127
41.278,40.025,40.924,47.53,46.475,42.412,47.079,46.84
45.718,45.271,42.428,50.331,49.064,44.577,51.014,48.911
47.021,47.522,40.44,48.953,48.276,42.732,50.02,47.278
43.693,44.378,35.845,43.228,44.352,36.448,44.756,42.217
39.839,39.928,33.122,38.217,41.763,30.706,40.713,37.755
38.438,38.076,32.889,36.657,41.867,28.919,40.364,36.525
37.481,37.483,31.685,36.328,41.277,29.531,40.89,37.122
35.269,36.894,28.889,35.978,38.949,30.597,40.258,37.538
32.613,36.649,25.295,35.33,36.303,30.435,38.417,36.46
29.152,34.511,19.262,31.587,32.159,26.293,34.48,32.504
25.582,30.213,12.533,25.212,26.863,19.862,29.784,27.566
24.844,27.884,10.49,21.618,24.422,16.903,27.909,25.658
26.857,28.603,13.06,22.425,25.682,18.287,29.139,26.724
27.309,28.425,13.889,23.036,25.964,19.088,29.518,26.546
22.964,24.464,9.227,19.954,21.44,16.147,25.842,22.728
16.429,18.56,3.148,15.718,15.418,12.036,20.91,18.727
11.921,13.547,0.552,13.956,13.117,10.271,19.498,18.369
7.752,8.089,-1.36,12.691,12.027,9.072,19.814,18.667
0.23,-0.304,-7.487,7.761,6.657,4.591,16.724,14.619
-7.674,-8.541,-14.992,0.899,-0.476,-1.316,11.113,7.928
-10.096,-11.117,-17.892,-2.249,-3.173,-3.556,7.93,4.168
-8.668,-9.531,-17.61,-1.729,-3.05,-3.039,7.063,3.426
-9.629,-9.833,-19.475,-2.861,-5.538,-4.968,4.776,1.532
-13.617,-13.133,-23.315,-7.47,-9.876,-10.037,1.18,-1.989
-17.332,-16.733,-25.982,-12.855,-12.858,-15.081,-1.485,-4.895
-19.794,-19.611,-27.365,-16.386,-15.081,-18.505,-3.313,-6.918
-21.469,-21.93,-28.478,-17.533,-17.712,-20.513,-5.215,-8.749
-22.077,-23.415,-28.692,-17.376,-19.315,-21.293,-6.651,-9.883
-21.377,-23.596,-27.755,-16.871,-18.768,-20.697,-6.97,-9.96
-19.742,-21.793,-26.639,-15.719,-17.24,-18.733,-6.77,-9.68
-17.986,-18.455,-25.717,-14.056,-16.217,-16.728,-6.683,-9.526
-17.334,-16.557,-25.418,-14.047,-16.606,-17.245,-7.244,-10.227
-17.806,-17.663,-26.452,-16.869,-18.492,-20.863,-9.006,-12.459
-18.593,-19.625,-28.118,-21.103,-21.107,-25.717,-11.525,-15.45
-20.177,-20.919,-28.762,-25.245,-23.711,-30.373,-13.838,-18.043
-21.947,-21.68,-27.206,-27.518,-24.848,-33.101,-15.063,-19.284
-21.546,-21.667,-23.818,-26.348,-23.154,-32.002,-14.535,-18.69
-18.921,-20.79,-20.128,-22.919,-19.495,-28.081,-12.076,-16.774
-16.797,-19.859,-17.605,-19.86,-16.386,-24.373,-9.038,-14.798
-17.642,-20.316,-17.986,-18.765,-16.517,-22.94,-8.694,-14.682
-22.262,-23.468,-22.733,-20.311,-21.379,-24.62,-13.101,-17.96
-29.591,-29.173,-30.551,-24.227,-29.459,-29.05,-20.476,-23.901
-35.622,-34.174,-36.321,-27.712,-35.773,-33.231,-25.876,-28.427
-36.879,-35.384,-36.395,-28.602,-36.964,-34.902,-25.928,-28.416
-35.993,-35.46,-34.338,-30.097,-36.086,-37.354,-23.808,-27.321
-36.961,-37.977,-35.308,-35.046,-37.019,-43.304,-24.438,-29.605
-38.843,-41.019,-38.575,-40.061,-39.042,-48.778,-27.226,-33.454
-39.983,-41.999,-40.669,-41.381,-40.475,-49.916,-28.642,-35.09
-41.958,-42.467,-40.826,-40.057,-41.532,-48.259,-27.878,-34.503
-45.783,-44.697,-40.585,-38.584,-42.567,-46.448,-26.765,-33.707
-49.639,-48.21,-41.625,-37.798,-43.858,-45.578,-26.863,-33.707
-52.535,-51.463,-44.784,-37.848,-46.596,-46.167,-28.596,-34.761
-54.885,-53.528,-48.782,-38.113,-50.616,-47.1,-31.027,-36.297
-56.241,-54.397,-51.883,-37.756,-53.968,-46.775,-32.766,-37.182
-56.406,-55.065,-54.375,-37.723,-55.994,-46.197,-33.886,-37.441
-55.871,-55.77,-55.992,-38.933,-57.056,-46.956,-34.936,-37.758
-55.391,-56.144,-55.616,-40.962,-57.646,-48.924,-36.075,-38.671
-55.642,-56.325,-54.331,-43.275,-58.424,-51.376,-37.42,-40.376
-56.163,-55.833,-53.752,-44.976,-59.065,-53.366,-38.377,-42.097
-56.123,-53.712,-53.269,-44.894,-58.645,-53.736,-37.914,-42.513
-55.059,-49.785,-51.462,-42.833,-56.729,-52.014,-35.765,-40.996
-53.689,-46.259,-49.587,-40.72,-54.815,-49.764,-33.839,-39.341
-53.651,-46.369,-50.531,-40.783,-55.59,-49.367,-34.778,-40.074
-54.191,-49.226,-53.297,-41.951,-58.277,-50.389,-38.008,-42.422
-52.961,-50.786,-54.017,-41.832,-59.257,-50.48,-40.641,-44.052
-50.043,-49.606,-52.047,-40.511,-57.862,-49.237,-41.377,-44.533
-47.08,-46.861,-49.644,-39.314,-56.438,-48.303,-41.058,-44.614
-44.616,-43.577,-48.076,-38.913,-56.256,-49.15,-41.113,-44.997
-42.727,-40.7,-47.627,-39.578,-56.945,-51.577,-42.321,-46.113
-41.392,-38.675,-48.087,-40.549,-57.501,-53.429,-43.67,-47.135
-39.487,-36.571,-47.881,-39.985,-56.483,-52.562,-43.153,-46.325
-36.517,-34.266,-45.785,-37.693,-53.719,-49.558,-40.919,-44.01
-34.392,-33.604,-42.942,-35.679,-50.92,-47.035,-39.109,-42.519
-35.644,-36.165,-41.849,-35.441,-50.096,-46.619,-39.168,-42.99
-40.521,-41.159,-43.752,-36.791,-52.111,-47.894,-41.162,-44.86
-46.017,-45.849,-46.924,-38.352,-55.112,-49.165,-43.41,-46.655
-48.883,-48.192,-48.277,-38.61,-55.765,-48.826,-43.427,-46.661
-48.637,-47.923,-46.546,-37.2,-53.048,-46.801,-40.815,-44.419
-46.96,-46.245,-43.629,-35.304,-49.468,-44.599,-38.132,-41.624
-45.584,-45.211,-42.138,-33.959,-47.904,-43.235,-37.447,-40.223
-44.786,-45.434,-41.86,-32.897,-48.075,-42.259,-37.522,-39.735
-44.79,-46.286,-41.564,-32.833,-48.657,-42.121,-37.48,-39.391
-46.175,-47.261,-41.332,-34.405,-49.534,-43.38,-38.168,-39.64
-47.655,-47.301,-40.822,-35.243,-49.842,-44.171,-38.612,-39.777
-47.671,-46.108,-39.576,-34.259,-48.785,-43.726,-37.789,-39.178
-47.316,-45.413,-38.36,-34.012,-47.392,-44.078,-37.186,-38.926
-48.681,-46.926,-38.28,-36.07,-46.894,-46.208,-38.485,-40.199
-50.989,-49.915,-39.105,-39.087,-46.805,-48.939,-41.099,-42.734
-50.924,-51.566,-38.546,-40.589,-45.241,-50.215,-42.294,-44.293
-47.198,-49.985,-34.871,-39.226,-41.506,-48.568,-40.315,-42.953
-42.266,-46.318,-30.085,-36.567,-37.523,-45.291,-36.732,-40.106
-39.734,-43.925,-28.313,-35.784,-36.1,-43.657,-34.745,-39.112
-40.458,-44.446,-30.575,-37.544,-37.806,-44.619,-35.555,-40.64
-41.822,-45.736,-33.9,-39.376,-40.641,-45.811,-37.56,-42.079
-41.66,-45.795,-36.072,-39.598,-43.106,-45.481,-39.275,-42.35
-40.624,-45.197,-37.306,-38.68,-45.116,-44.194,-40.5,-42.767
-41.008,-45.242,-38.32,-37.903,-46.964,-43.348,-41.534,-44.024
-42.72,-45.825,-38.566,-37.687,-47.977,-43.361,-41.81,-45.184
-41.572,-44.665,-35.891,-36.358,-45.865,-42.469,-39.435,-43.783
-36.362,-40.752,-30.444,-33.218,-40.776,-39.599,-35.088,-38.916
-32.484,-37.324,-26.609,-30.933,-37.098,-37.028,-32.762,-34.394
-33.582,-37.416,-27.122,-31.443,-37.444,-36.723,-33.994,-34.061
-35.893,-38.94,-29.001,-32.874,-39.053,-37.198,-36.069,-36.026
-34.822,-38.236,-28.339,-32.88,-38.276,-36.476,-35.845,-36.206
-30.964,-34.545,-24.377,-30.795,-34.266,-33.882,-31.737,-33.084
-26.644,-28.983,-18.153,-26.451,-28.041,-29.067,-24.464,-27.277
-23.056,-24.163,-12.351,-21.584,-22.306,-23.672,-17.785,-21.463
-19.963,-21.767,-8.606,-17.871,-18.568,-19.357,-13.034,-16.955
-16.121,-20.235,-4.794,-13.591,-14.658,-14.539,-6.623,-11.088
-12.799,-19.57,-0.789,-8.73,-10.376,-9.441,1.172,-4.111
-12.268,-21.278,0.241,-6.498,-8.711,-7.242,5.132,-0.224
-13.837,-23.695,-2.152,-7.431,-10.328,-7.946,3.498,-0.249
-17.216,-25.544,-7.002,-10.281,-14.93,-9.983,-2.953,-3.243
-23.798,-28.554,-14.761,-15.294,-23.251,-14.203,-14.215,-10.364
-31.021,-32.052,-23.155,-20.998,-32.464,-19.883,-26.299,-19.624
-33.016,-32.044,-27.029,-23.064,-36.783,-22.483,-31.62,-24.077
-27.986,-26.664,-24.193,-18.855,-34.076,-18.64,-27.306,-19.579
-18.241,-16.729,-15.669,-9.2,-25.533,-9.149,-16.156,-8.513
-6.995,-4.906,-4.475,1.587,-14.031,1.239,-3.822,2.359
0.17,2.478,2.526,6.275,-6.535,5.224,1.367,5.017
0.033,1.861,1.322,2.906,-7.297,0.789,-3.283,-1.377
-2.729,-1.578,-2.714,-1.773,-11.002,-5.254,-9.725,-8.49
-2.704,-2.312,-3.793,-3.256,-11.8,-7.575,-11.569,-11.244
-0.371,-1.169,-3.272,-3.88,-10.877,-7.894,-11.813,-12.608
1.776,-0.202,-3.527,-4.925,-10.726,-8.118,-13.607,-14.37
3.368,0.682,-3.401,-4.683,-10.617,-7.408,-14.718,-14.288
4.68,0.954,-2.25,-3.561,-9.954,-6.156,-13.838,-12.399
5.341,0.069,-1.563,-3.267,-9.679,-5.781,-13.039,-11.361
5.168,-0.825,-1.94,-3.479,-9.925,-5.842,-13.124,-11.595
4.011,-1.894,-2.896,-3.852,-10.452,-5.496,-13.232,-11.864
1.865,-4.352,-4.515,-5.525,-11.645,-5.71,-13.702,-12.503
-0.607,-7.087,-7.038,-8.934,-13.427,-7.756,-15.361,-14.488
-2.593,-8.451,-9.609,-12.341,-14.763,-10.423,-17.169,-16.523
-4.343,-9.099,-11.098,-13.534,-15.096,-11.241,-17.566,-16.646
-6.905,-10.356,-11.838,-12.757,-15.408,-10.507,-17.144,-15.952
-9.648,-11.964,-12.697,-12.342,-16.413,-10.565,-17.205,-16.57
-10.926,-13.011,-13.923,-13.847,-17.431,-12.27,-18.039,-18.312
-11.073,-13.33,-15.478,-16.524,-17.849,-14.643,-19.21,-19.781
-11.118,-12.749,-16.701,-18.049,-17.686,-15.85,-19.69,-20.051
-10.512,-10.765,-16.601,-17.32,-16.907,-14.784,-18.91,-19.075
-8.857,-8.267,-15.363,-15.998,-15.52,-12.856,-17.51,-17.667
-7.313,-7.175,-14.032,-15.853,-14.103,-12.132,-16.401,-16.717
-6.26,-7.184,-12.217,-15.734,-12.73,-12.018,-15.386,-15.792
-4.646,-6.259,-8.781,-13.606,-10.607,-10.406,-13.446,-13.725
-2.859,-4.642,-5.224,-10.575,-8.293,-7.706,-11.095,-11.633
-2.915,-4.874,-4.548,-9.674,-7.769,-6.877,-10.774,-12.346
-5.418,-7.773,-6.747,-11.279,-9.4,-8.609,-13.512,-15.577
-7.948,-10.584,-8.383,-12.444,-10.779,-9.419,-16.16,-17.071
-7.698,-10.683,-7.041,-11.314,-9.686,-7.083,-14.967,-14.683
-5.608,-9.151,-4.345,-9.759,-7.153,-4.38,-11.558,-11.847
-4.839,-8.003,-3.17,-9.725,-5.906,-4.101,-10.574,-12.063
-6.055,-7.061,-3.834,-10.083,-6.982,-4.768,-12.672,-14.109
-7.211,-5.641,-4.739,-8.969,-8.815,-3.83,-14.501,-14.955
-7.336,-4.82,-5.48,-6.923,-9.759,-1.584,-14.536,-14.289
-7.947,-5.978,-7.133,-5.812,-10.46,0.019,-14.388,-13.661
-9.385,-7.636,-9.131,-5.295,-11.247,0.952,-14.087,-12.388
-9.913,-7.513,-9.818,-4.067,-10.875,2.268,-12.239,-9.449
-9.505,-6.635,-10.269,-3.596,-10.109,2.752,-10.478,-7.338
-9.708,-7.279,-12.587,-6.048,-11.078,0.453,-11.484,-8.499
-10.536,-9.142,-15.733,-10.452,-13.18,-3.695,-14.161,-11.362
-10.37,-9.905,-17.043,-13.769,-13.992,-6.762,-15.02,-12.753
-8.937,-8.925,-16.499,-14.751,-13.169,-7.706,-13.567,-12.2
-8.387,-8.682,-16.276,-15.195,-12.331,-8.194,-12.613,-11.891
-10.082,-11.269,-16.915,-17.196,-12.144,-9.658,-13.369,-12.83
-12.712,-15.276,-16.77,-19.982,-11.537,-11.176,-13.852,-13.334
-14.055,-17.117,-14.715,-20.442,-9.187,-10.694,-11.993,-11.621
-13.398,-15.2,-12.244,-17.771,-6.013,-8.128,-8.934,-8.947
-12.138,-12.161,-12.113,-15.213,-5.235,-5.872,-8.068,-8.387
-12.105,-11.595,-14.742,-15.5,-8.228,-5.678,-10.504,-10.329
-12.981,-12.86,-17.138,-17.087,-11.609,-6.18,-13.178,-11.727
-12.117,-12.087,-16.113,-16.764,-10.81,-4.854,-12.62,-10.384
-9.293,-9.003,-12.449,-14.853,-6.49,-2.546,-9.969,-8.227
-7.34,-6.842,-9.304,-13.638,-2.927,-1.904,-8.545,-7.679
-6.657,-6.042,-7.649,-12.723,-1.419,-2.454,-8.233,-7.662
-5.964,-5.058,-7.15,-11.524,-0.969,-2.824,-7.716,-6.995
-5.243,-3.976,-7.93,-11.387,-1.403,-3.336,-7.776,-6.608
-3.945,-3.292,-8.912,-12.078,-2.175,-3.344,-8.682,-6.771
-1.827,-2.925,-8.33,-11.776,-2.02,-1.957,-8.836,-6.532
-0.851,-2.808,-6.936,-10.72,-1.153,-0.832,-7.868,-5.889
-1.834,-2.695,-7.107,-10.431,-1.186,-1.488,-7.583,-5.97
-2.403,-2.494,-8.132,-10.358,-1.96,-2.377,-8.198,-6.576
-0.699,-1.78,-6.845,-8.678,-1.193,-1.598,-7.464,-5.998
2.215,0.889,-3.158,-5.286,1.658,0.536,-4.631,-3.717
3.883,4.85,-0.842,-2.397,3.582,2.414,-2.292,-1.515
3.288,6.731,-2.077,-1.945,2.232,2.667,-2.638,-1.108
2.498,5.793,-4.039,-2.639,0.218,1.897,-3.647,-1.418
3.198,4.242,-3.576,-2.535,0.818,1.611,-2.792,-1.023
3.582,3.013,-2.377,-2.91,2.195,0.895,-1.575,-1.224
2.277,2.189,-3.392,-5.319,1.117,-1.804,-2.488,-3.219
1.46,2.337,-5.064,-7.917,-0.97,-4.659,-4.787,-5.248
3.673,3.748,-3.159,-7.578,-0.04,-4.168,-4.776,-4.191
7.825,5.586,2.263,-4.378,3.749,-0.598,-0.658,0.157
9.938,5.357,5.676,-2.294,5.632,1.321,3.559,3.518
8.11,1.693,3.634,-4.021,3.179,-0.969,3.21,2.653
5.067,-2.628,-0.363,-7.157,-0.377,-4.198,-0.228,-0.145
4.23,-4.014,-1.113,-8.029,-1.036,-4.6,-2.426,-1.261
4.753,-3.022,1.042,-6.645,0.418,-2.73,-2.836,-0.923
4.047,-2.329,2.392,-4.909,0.762,-0.936,-3.361,-1.049
2.998,-2.155,2.884,-3.283,0.106,-0.013,-3.909,-1.432
3.542,-1.549,4.895,-1.856,0.695,-0.015,-3.427,-1.148
4.639,-0.783,7.633,-1.037,2.344,-0.697,-2.649,-0.627
4.434,-0.145,8.399,-0.675,2.878,-0.98,-2.958,-0.376
3.608,1.088,7.785,-0.235,2.194,-0.054,-3.723,0.355
3.803,3.355,8.762,0.868,2.501,1.864,-3.313,2.042
4.291,5.376,11.34,2.622,3.953,3.973,-2.002,3.506
3.892,5.907,13.059,4.347,4.549,5.557,-0.949,4.175
3.58,5.596,12.985,5.486,3.927,6.3,-0.382,5.045
4.387,5.623,11.881,5.949,3.36,6.407,-0.035,6.505
5.712,6.396,10.707,5.8,3.265,6.314,0.428,7.893
6.705,7.707,10.344,5.005,3.078,5.858,1.083,8.659
7.496,9.016,11.37,3.985,2.948,4.677,1.872,8.901
8.062,9.381,12.971,2.882,3.049,2.741,2.237,8.451
8.35,8.982,13.876,1.511,2.878,0.471,1.487,6.989
9.601,10.156,14.602,1.546,3.152,-0.169,0.988,6.141
11.883,13.428,15.896,4.704,4.844,2.692,2.736,7.906
12.631,15.577,16.653,8.74,6.384,7.215,5.545,10.837
9.95,14.478,15.5,9.753,5.36,9.472,6.073,11.672
5.794,12.065,13.626,8.281,3.271,9.189,4.245,10.675
4.578,11.416,14.278,8.691,4.536,9.978,4.117,11.237
7.877,13.361,17.747,12.178,9.036,13.197,7.074,13.954
13.405,16.693,20.826,15.932,12.376,16.652,9.978,16.64
18.464,19.204,22.456,18.255,13.593,19.034,11.452,18.877
21.077,18.64,24.395,19.382,15.026,20.577,13.004,21.149
21.085,15.752,27.35,19.91,17.238,21.445,15.086,22.716
20.527,14.161,29.819,20.707,18.8,22.221,16.831,23.713
20.477,15.365,29.959,22.223,18.769,23.789,18.109,25.768
20.181,17.276,28.307,23.631,17.96,25.733,19.623,28.613
19.109,17.307,26.927,22.876,17.388,25.438,21.037,29.077
16.66,14.417,25.589,18.519,16.003,20.872,20.439,25.272
12.899,10.442,23.624,13.585,13.594,15.653,17.737,20.558
10.771,9.607,23.765,13.942,13.651,16.155,16.77,20.495
12.123,13.046,27.231,18.992,17.378,21.108,19.692,24.409
14.191,16.664,29.825,21.228,20.173,22.77,22.73,25.748
15.039,17.856,28.992,18.408,19.187,19.932,22.258,22.549
15.868,18.481,27.495,15.539,17.025,17.867,19.886,18.76
16.797,20.107,27.579,14.849,16.274,17.427,18.586,16.426
16.746,22.075,27.967,14.425,16.15,16.128,18.115,14.63
15.641,22.959,26.314,13.311,14.357,14.313,16.101,13.013
15.272,22.39,23.104,12.308,11.483,13.374,13.265,12.936
18.089,22.152,22.265,12.513,11.539,13.234,14.066,15.879
22.477,22.995,24.754,13.16,14.777,12.833,18.629,19.95
23.638,22.919,26.525,12.156,16.344,11.531,20.738,21.306
21.342,21.176,26.227,10.423,15.468,10.708,18.744,20.422
19.494,19.728,26.476,10.76,15.985,11.967,17.881,20.737
19.172,19.952,27.371,12.403,17.644,13.939,19.196,21.667
19.379,21.159,27.419,13.035,17.779,14.635,19.07,20.485
20.897,22.783,28.09,13.852,17.95,15.354,18.229,18.688
24.34,25.691,31.267,17.423,20.641,18.645,20.272,20.062
27.821,29.731,35.178,22.724,23.875,23.833,24.173,24.139
28.523,31.848,35.972,25.22,23.727,26.649,25.196,25.892
25.661,29.348,32.365,22.155,19.802,23.894,22.055,22.613
22.008,24.204,27.617,16.586,15.859,18.146,18.582,17.705
21.663,21.732,26.488,14.58,15.824,15.773,18.463,16.267
25.391,24.327,30.252,18.531,20.194,19.556,21.733,19.552
29.606,28.284,34.86,24.242,25.291,25.164,25.31,23.927
31.317,29.016,35.118,25.961,26.409,26.583,25.478,24.697
31.93,27.321,31.318,23.639,23.3,23.761,22.32,22.012
34.299,27.305,29.351,22.273,21.252,22.077,20.851,20.911
37.933,29.981,32.271,24.318,23.866,24.315,23.784,23.518
39.949,32.488,36.133,26.774,27.867,27.167,27.427,26.126
39.529,33.048,37.434,26.942,29.605,27.583,29.259,26.384
38.614,33.6,38.752,27.217,31.251,28.332,32.365,27.5
39.467,36.699,43.495,31.56,35.906,33.459,39.44,33.519
41.147,40.372,48.847,38.233,40.741,40.487,47.699,42.812
39.907,39.703,48.658,40.687,40.144,42.825,51.803,48.861
35.668,34.886,42.442,37.051,33.986,39.333,49.747,48.399
30.873,29.842,33.93,30.953,25.407,33.541,41.918,43.026
24.669,24.909,24.086,24.035,14.923,26.443,29.047,34.489
17.49,19.739,14.287,16.682,4.826,18.744,16.112,25.41
13.706,16.651,9.127,11.441,0.608,13.869,10.023,19.799
14.9,16.369,10.316,10.072,3.285,13.33,11.475,19.246
18.219,16.932,14.091,11.259,8.114,14.7,15.885,21.936
21.437,17.472,16.869,12.847,11.638,15.569,20.432,25.355
24.535,18.863,18.992,14.222,14.452,16.062,24.767,28.027
27.118,20.918,21.516,15.694,17.215,17.034,27.485,29.17
28.111,22.493,24.032,17.491,19.393,18.59,27.885,29.413
27.201,23.172,25.873,19.454,20.923,20.345,27.921,30.148
25.266,23.231,26.722,21.072,21.933,21.803,28.722,30.982
24.207,23.803,27.598,22.725,23.078,23.289,29.568,31.144
23.944,25.081,29.208,24.662,24.586,24.79,29.595,30.905
21.816,25.117,29.575,25.392,24.64,24.829,28.329,30.12
18.46,23.772,27.939,24.466,22.811,23.56,26.871,28.931
18.162,24.013,27.535,24.189,22.14,23.614,27.219,28.559
21.121,26.444,29.846,25.723,23.81,25.529,28.9,29.213
22.532,27.068,31.007,26.747,24.344,26.376,29.051,29.204
21.109,24.488,28.841,26.199,22.148,25.339,27.211,28.063
21.126,23.336,27.01,26.626,20.659,25.561,26.144,27.859
24.269,25.779,27.64,28.548,21.616,27.693,26.781,29.165
27.382,28.327,28.266,29.104,22.618,28.546,27.317,29.955
28.704,28.957,28.087,27.576,22.487,27.236,27.05,29.616
29.853,29.057,29.272,26.341,22.994,26.084,27.155,29.67
31.479,28.888,31.692,26.241,24.775,25.881,27.949,30.329
31.635,27.024,32.245,25.162,25.529,24.858,27.922,29.951
29.876,24.238,30.175,22.218,24.027,22.343,26.537,28.42
28.002,23.1,28.049,19.577,22.261,20.059,25.296,27.603
26.475,23.833,27.197,19.037,21.803,19.56,25.098,28.061
24.406,24.166,26.288,19.816,21.198,20.27,24.901,28.209
21.725,22.808,24.245,20.324,18.751,20.401,23.546,27.071
19.771,21.301,22.452,20.683,16.108,19.862,21.885,25.932
20.376,21.934,23.186,22.404,16.347,20.572,21.982,26.528
23.731,24.671,26.137,25.583,19.423,22.925,24.137,28.701
27.058,26.878,27.851,27.75,21.79,24.538,25.749,30.194
27.186,26.106,25.822,26.794,20.693,23.547,24.47,29.125
23.924,22.504,21.672,23.678,17.219,20.818,21.55,26.342
19.416,18.173,18.589,20.818,14.271,18.333,19.873,24.072
16.957,16.376,18.558,20.122,14.251,17.617,20.827,23.923
18.442,18.789,21.645,21.888,17.749,18.781,24.002,25.996
20.124,20.939,24.424,23.284,21.299,19.491,26.76,27.684
17.205,17.916,22.684,21.41,20.378,17.864,25.568,25.896
12,13.062,17.579,17.898,16.082,15.746,20.653,21.619
10.006,11.829,14.264,16.134,13.604,15.513,16.495,18.712
11.235,13.114,14.189,15.879,14.291,16.309,15.657,18.137
12.305,13.465,14.022,14.961,14.962,16.251,16.191,17.697
12.653,12.992,12.097,13.643,14.312,15.469,16.046,16.706
13.142,13.171,10.495,13.335,14.039,15.058,15.517,16.31
14.264,14.706,11.511,14.347,15.557,15.804,15.937,17.259
16.74,17.947,14.86,16.138,18.521,17.71,17.669,19.097
19.436,21.354,17.596,17.02,20.873,18.73,18.923,19.878
20.631,22.623,17.717,15.91,21.298,17.187,18.464,18.743
20.648,21.798,16.266,14.169,20.406,14.693,17.29,17.337
19.806,20.498,14.519,13.148,18.664,13.258,15.928,16.578
18.035,19.826,12.952,12.745,16.754,12.841,14.221,15.761
16.877,20.043,12.898,13.129,16.626,13.135,13.269,14.981
17.901,21.295,15.17,14.702,18.855,14.351,14.035,15.093
19.483,23.045,17.54,16.303,20.771,15.887,15.069,15.51
18.783,23.667,17.502,16.619,20.22,17.03,14.778,15.146
15.906,22.331,15.856,16.098,18.53,17.963,14.114,14.572
12.485,19.156,13.942,14.7,16.85,17.801,13.856,14.146
9.741,14.946,11.691,11.993,14.696,15.85,13.055,13.02
9.085,12.002,9.537,9.521,12.698,14.167,11.393,11.176
10.016,11.13,7.389,7.916,11.228,13.5,9.202,9.032
10.078,10.081,4.338,5.553,9.264,11.755,6.399,6.427
9.387,8.833,1.71,3.068,7.411,9.609,3.789,4.333
9.233,9.593,0.836,2.42,6.656,9.525,2.819,4.13
7.168,9.885,-0.831,1.861,4.892,9.804,2.468,4.211
2.085,6.183,-4.474,-0.596,0.967,7.912,0.813,2.443
-1.293,1.402,-6.557,-3.059,-2.205,5.208,-1.031,-0.14
-0.673,-0.722,-5.569,-3.75,-2.781,3.76,-1.184,-1.368
0.669,-0.974,-3.874,-3.086,-1.805,4.025,0.13,-0.233
1.726,-0.442,-2.373,-1.856,0.097,5.37,1.97,2.31
4.346,0.882,-0.231,-0.785,2.843,6.457,3.983,4.529
6.96,1.835,1.529,-0.933,5.112,5.84,5.583,5.245
6.656,1.5,1.599,-2.798,5.634,3.028,6.019,3.776
5.214,0.864,2.152,-4.504,5.82,0.212,6.42,1.927
5.096,0.36,4.692,-4.688,7.083,-0.926,7.874,1.667
4.42,-1.06,6.178,-5.273,7.701,-2.405,8.71,1.657
1.825,-3.069,5.016,-6.769,6.615,-4.639,7.789,1.546
-0.44,-4.186,3.952,-6.958,5.645,-4.992,6.403,2.521
-0.638,-4.302,4.707,-5.769,5.936,-3.668,5.689,3.034
-0.13,-4.284,5.839,-5.037,6.408,-3.278,5.653,1.632
-0.918,-4.783,6.014,-4.872,6.05,-3.902,5.816,0.284
-2.877,-6.121,5.508,-4.546,5.167,-4.035,5.168,0.129
-4.426,-7.602,4.903,-4.298,4.504,-3.853,3.287,-0.432
-4.399,-7.97,4.231,-4.413,4.348,-4.483,1.349,-2.122
-3.021,-7.508,2.858,-5.194,3.854,-6.284,0.007,-4.517
-1.198,-7.13,0.737,-6.491,2.336,-7.942,-0.957,-6.55
0.584,-6.571,-1.15,-7.026,0.647,-7.92,-1.289,-6.948
1.311,-6.045,-3.062,-7.005,-1.091,-7.699,-2.127,-7.512
-1.312,-7.355,-6.995,-8.995,-4.89,-10.215,-6.048,-11.46
-8.681,-12.404,-14.012,-15.05,-12.398,-16.324,-13.655,-18.897
-18.798,-21.128,-22.528,-24.517,-22.32,-24.946,-22.605,-27.778
-27.957,-30.622,-29.938,-34.015,-31.025,-33.475,-30.134,-36.03
-34.225,-37.159,-34.803,-39.761,-35.721,-38.676,-35.258,-41.569
-37.878,-39.774,-37.081,-41.154,-36.804,-40.033,-38.495,-43.866
-39.823,-40.641,-37.473,-40.888,-36.463,-40.026,-40.346,-44.921
-39.936,-40.893,-35.825,-39.953,-34.881,-39.538,-40.006,-45.518
-38.095,-39.769,-31.826,-37.076,-31.203,-37.373,-37.213,-44.112
-36.657,-38.634,-28.222,-34.201,-27.761,-34.966,-34.797,-41.645
-37.992,-40.027,-28.545,-34.876,-27.628,-35.5,-35.408,-41.454
-40.47,-42.85,-31.741,-37.572,-29.619,-38.145,-37.69,-43.555
-40.633,-43.532,-33.701,-37.759,-30.155,-38.758,-38.747,-44.613
-39.35,-42.521,-34.01,-36.334,-29.27,-37.734,-38.876,-44.767
-40.709,-43.886,-35.824,-38.394,-30.234,-40.125,-40.498,-47.269
-43.535,-46.703,-38.477,-42.842,-32.596,-45.157,-42.48,-50.186
-42.913,-46.028,-38.501,-43.848,-32.892,-46.722,-41.846,-49.198
-39.336,-42.318,-36.686,-41.224,-31.324,-44.532,-39.402,-46.004
-37.206,-40.089,-35.832,-38.711,-30.432,-42.737,-37.563,-44.318
-37.362,-40.118,-35.49,-37.062,-30.463,-41.79,-36.679,-43.845
-36.675,-39.663,-33.933,-35.591,-29.984,-40.252,-36.032,-43.035
-34.133,-38.206,-32.027,-35.248,-28.986,-39.236,-35.577,-42.313
-33,-37.713,-32.17,-36.57,-29.24,-39.974,-35.801,-42.326
-34.725,-38.025,-34.425,-38.003,-31.224,-41.035,-36.316,-42.156
-36.344,-37.427,-36.485,-38.248,-33.239,-41.026,-36.219,-41.289
-35.892,-36.076,-36.936,-37.408,-33.969,-40.241,-35.607,-40.422
-34.754,-34.927,-36.161,-35.446,-33.306,-38.784,-34.823,-39.608
-33.504,-33.154,-34.413,-32.367,-31.122,-36.453,-33.215,-38.421
-30.602,-29.336,-31.38,-29.343,-27.755,-33.771,-30.279,-36.843
-26.564,-24.84,-28.169,-27.628,-25.097,-31.572,-27.006,-34.856
-24.203,-22.988,-26.592,-26.732,-24.553,-29.969,-24.596,-32.474
-24.092,-24.342,-26.215,-25.269,-24.659,-28.258,-23.038,-29.925
-23.733,-25.522,-24.782,-22.794,-22.831,-25.812,-21.664,-27.236
-22.063,-24.469,-21.95,-20.497,-19.504,-23.555,-20.656,-25.332
-21.639,-23.809,-20.013,-20.507,-17.919,-23.766,-21.115,-26.36
-23.085,-25.03,-18.796,-21.816,-17.708,-25.337,-21.598,-28.576
-22.993,-25.297,-15.516,-20.502,-14.967,-23.937,-18.68,-26.778
-20.803,-23.548,-11.775,-17.088,-10.693,-20.127,-13.516,-21.653
-19.575,-22.051,-11.861,-15.799,-9.821,-18.495,-11.296,-19.046
-19.269,-21.358,-14.548,-16.811,-12.135,-19.381,-13.116,-20.532
-16.595,-19.244,-14.733,-16.713,-12.634,-19.548,-14.52,-22.806
-11.521,-15.023,-11.572,-14.166,-10.013,-17.798,-13.166,-23.334
-8.693,-12.27,-9.307,-11.183,-8.296,-15.778,-11.864,-22.277
-11.032,-14.366,-11.285,-10.382,-10.572,-15.608,-12.823,-21.547
-15.645,-19.078,-16.471,-11.851,-15.454,-17.358,-14.833,-22.821
-17.62,-21.167,-20.528,-12.468,-18.916,-18.093,-15.502,-24.605
-15.852,-19.297,-20.19,-9.957,-18.523,-15.656,-13.944,-24.188
-12.905,-16.864,-16.777,-6.451,-15.736,-12.435,-11.89,-22.405
-10.032,-15.61,-13.207,-4.809,-12.63,-11.157,-10.816,-21.498
-6.508,-13.605,-9.955,-4.336,-9.006,-10.425,-9.264,-20.594
-2.71,-10.37,-6.414,-3.146,-4.551,-8.399,-5.463,-17.683
-0.278,-8.135,-3.463,-1.748,-0.859,-6.47,-1.164,-14.088
0.71,-7.175,-1.924,-1.203,0.94,-5.799,0.977,-12.46
2.552,-4.764,-0.327,-0.229,2.545,-4.589,2.063,-12.144
6.208,0.126,2.754,2.709,5.649,-1.574,4.055,-10.783
9.82,5.011,6.391,7.011,9.108,2.212,6.507,-7.435
11.716,7.422,8.871,10.244,10.891,4.812,8.784,-3.537
12.868,8.603,10.598,11.165,11.769,5.432,11.961,-1.161
16.106,12.09,14.293,13.086,15.276,6.986,17.778,1.408
21.618,17.658,20.282,18.974,22.209,12.142,25.66,7.316
25.677,21.197,24.585,25.289,28.19,17.76,32.702,14.895
25.764,21.13,24.226,26.851,29.138,19.148,36.59,19.507
23.732,20.013,21.21,24.438,26.417,16.999,36.778,19.944
21.975,19.689,18.744,22.232,23.276,14.932,33.693,18.621
19.064,18.214,15.66,20.069,18.529,12.62,26.752,15.826
13.35,14.119,9.673,15.19,10.441,7.742,16.186,9.804
7.42,9.708,3.6,9.27,3.318,2.098,6.748,2.356
4.791,7.185,2.557,7.108,2.704,0.328,4.045,-1.15
5.897,6.525,7.311,10.435,7.914,4.317,8.361,2.018
8.449,7.376,13.478,15.998,13.893,10.631,15.231,7.966
10.125,9.673,16.997,20.538,17.831,15.598,20.91,12.177
10.103,11.955,17.443,23.657,19.664,19.116,23.553,14.312
9.045,12.03,15.794,24.326,18.868,20.153,21.563,13.24
8.881,11.098,13.65,22.526,16.467,17.93,17.295,8.94
9.535,11.205,12.795,21.35,15.425,15.805,16.217,6.498
8.457,10.542,12.896,21.733,16.025,16.028,18.375,8.158
5.866,8.207,11.963,21.294,15.461,16.458,18.506,9.614
4.655,7.057,9.085,19.139,12.348,15.099,14.843,7.931
5.867,8.437,6.202,17.387,9.377,13.48,11.731,5.849
8.335,10.72,6.154,17.797,9.742,13.818,12.638,6.514
10.871,12.985,8.527,19.166,12.328,15.355,15.334,8.616
13.232,15.591,10.472,19.646,13.916,16.169,16.24,9.277
15.561,18.343,11.255,19.839,14.066,16.499,15.467,8.917
17.155,20.262,12.205,21.393,14.255,17.901,15.291,10.162
17.193,20.656,13.753,24.059,14.841,20.463,16.569,13.2
16.394,19.95,15.317,26.02,15.649,22.393,18.535,15.406
15.224,18.614,16.069,25.946,16.648,21.993,19.809,15.047
12.801,16.668,15.676,24.636,17.422,19.923,19.426,13.365
9.198,14.554,14.499,24.104,17.312,18.587,18.091,12.57
6.443,13.073,13.271,25.163,16.494,19.587,17.462,13.491
7.058,13.456,13.579,27.548,16.627,22.865,17.982,15.954
9.923,15.239,15.128,29.484,17.471,25.857,17.458,18.035
10.107,15.44,14.759,28.202,16.316,25.204,14.614,17.216
6.351,13.114,11.914,24.334,13.414,21.778,12.939,14.996
2.812,10.383,9.256,21.658,11.57,19.671,15.338,15.038
2.23,9.248,8.057,21.682,11.396,20.231,19.169,17.374
3.038,9.63,7.738,22.208,11.557,20.826,20.552,18.914
2.863,9.288,7.68,21.236,10.969,19.284,19.176,18.361
1.627,7.087,7.034,19.38,9.111,16.724,16.835,17.204
1.043,5.316,5.163,17.941,6.593,15.072,14.201,16.375
2.605,6.431,4.026,17.952,6.09,15.062,12.532,16.425
6.021,9.542,6.11,20.155,9.17,16.923,14.263,18.824
9.633,12.348,9.614,23.198,12.695,19.733,17.573,22.382
11.877,14.002,10.448,23.907,12.662,20.933,16.553,22.373
11.403,14.026,7.837,20.854,9.516,18.934,10.286,17.359
7.87,12.068,4.272,16.166,6.086,15.372,5.586,12.451
3.021,9.358,1.214,12.805,2.986,13.033,7.121,12.009
-0.104,7.889,-1.007,12.101,0.543,13.186,11.825,14.903
0.46,8.731,-1.071,13.601,1.01,15.115,15.046,18.183
3.538,11.155,0.715,15.064,3.919,16.403,14.82,19.539
6.847,13.329,1.794,14.959,5.727,15.969,12.014,18.5
9.338,14.051,1.223,14.34,5.527,15.841,9.677,16.913
10.578,13.93,0.38,14.358,5.464,17.429,9.592,16.409
11.179,14.514,0.827,14.734,6.912,19.429,10.854,17.24
12.068,15.48,2.564,14.713,8.985,20.031,11.909,18.554
12.703,15.439,4.201,14.119,10.464,19.031,12.15,18.987
11.84,14.492,4.221,12.939,10.737,17.208,11.579,18.037
9.452,13.192,2.076,10.803,9.294,14.94,10.298,16.448
7.399,12.02,-0.622,8.715,7.086,13.341,9.208,15.494
6.766,11.633,-1.891,8.463,5.65,14.032,8.726,15.33
6.592,12.367,-1.73,9.756,4.897,16.326,7.806,14.785
6.329,14.389,-0.973,10.991,4.249,17.924,6.074,13.52
6.065,17.11,-0.176,11.855,3.874,18.555,4.718,12.892
5.692,19.137,0.227,12.894,3.941,19.555,5.004,13.973
6.009,20.177,0.076,13.622,3.787,20.392,6.409,15.711
8.608,21.857,-0.101,13.743,3.287,20.165,7.016,16.629
13.439,25.212,0.538,14.262,3.775,20.417,6.3,16.862
18.06,28.666,1.422,14.882,5.38,21.785,5.613,16.775
20.189,29.88,0.494,13.261,5.849,21.493,5.367,15.41
20.024,28.549,-2.355,8.777,4.36,17.938,4.499,12.354
20.074,26.95,-3.714,4.509,3.934,14.016,3.623,9.859
21.659,26.677,-1.819,3.009,6.531,12.538,4.288,9.541
22.751,26.115,0.166,2.925,9.042,12.326,5.339,9.631
21.601,23.749,-0.233,2.467,8.579,11.654,5.04,9.053
19.477,21.13,-0.861,2.553,7.296,11.524,4.528,9.365
17.913,20.342,0.224,4.198,7.902,13.084,5.26,10.795
15.549,20.347,0.669,5.65,8.463,14.56,5.76,11.194
10.552,18.846,-1.67,5.15,6.523,14.136,4.753,10.179
4.619,16.231,-4.908,3.671,3.878,13.106,4.098,9.853
0.985,14.096,-6.87,2.181,2.569,12.656,4.737,10.555
1.25,13.603,-6.646,1.27,2.642,12.688,5.584,11.273
4.462,15.151,-3.724,2.309,4.284,13.781,6.458,12.122
7.548,16.723,0.557,4.611,7.287,15.564,7.226,12.781
9.295,16.996,4.719,6.37,11.283,16.99,7.803,13.104
10.775,17.338,8.189,7.723,15.458,18.304,8.664,14.077
11.263,17.417,9.046,8.266,16.811,18.744,9.106,14.732
9.657,15.306,5.987,5.619,13.18,15.914,7.698,12.217
8.118,12.423,2.127,0.831,7.726,11.064,4.893,7.612
9.624,12.519,2.321,-0.227,6.297,9.858,3.648,6.383
12.987,15.413,5.964,3.681,9.315,13.342,5.102,9.507
14.264,17.24,7.635,6.838,11.367,15.982,6.17,11.985
12.983,17.306,5.895,7.139,10.202,15.784,4.941,11.792
12.992,19.1,5.254,8.924,9.642,16.996,4.505,12.139
16.528,24.071,8.583,14.212,12.209,21.559,7.549,14.762
20.792,28.763,12.761,18.743,14.862,25.337,10.834,16.599
22.401,30.267,14.022,19.369,14.791,25.416,10.651,15.791
21.58,29.876,13.224,19.3,13.872,25.026,9.115,15.561
20.284,28.998,13.284,21.535,14.758,26.845,9.674,17.936
19.38,27.14,14.686,23.268,16.788,28.042,11.535,19.975
17.891,24.306,15.181,21.111,17.061,25.88,11.622,18.801
15.4,21.805,13.944,17.209,15.198,22.652,9.892,16.081
13.958,20.946,13.514,15.823,14.505,21.886,9.548,15.348
15.043,21.652,15.371,17.02,16.477,23.195,11.424,16.656
17.081,22.62,17.057,18.011,18.411,23.821,12.662,17.131
17.635,22.513,16.033,17.59,17.979,22.762,11.824,15.643
16.748,21.383,13.864,16.72,16.837,21.449,11.074,14.101
15.946,20.231,13.076,16.261,17.195,21.14,11.661,14.223
15.041,19.21,12.494,15.507,17.503,20.862,11.613,14.973
13.342,18.199,10.649,14.03,15.897,19.458,10.146,14.633
11.229,17.284,9.413,12.979,14.202,17.792,9.191,13.548
9.355,16.525,10.727,13.371,15.103,17.368,9.861,13.381
8.122,16.306,13.344,14.609,17.877,18.332,10.889,14.542
7.106,16.501,14.477,15.291,19.099,19.358,10.783,15.738
5.944,16.813,13.534,15.377,17.616,19.586,10.113,16.067
5.555,18.105,12.512,16.083,15.929,19.869,10.085,15.679
6.566,20.535,12.394,17.502,15.64,21.03,10.302,15.068
7.671,21.615,11.261,17.907,14.879,21.769,9.334,14.337
8.097,20.093,8.437,16.611,12.672,20.85,7.552,13.665
9.572,19.061,7.082,15.739,11.665,19.872,7.596,14.237
12.649,20.612,8.428,16.332,12.782,19.96,9.395,15.78
15.529,22.723,9.894,16.857,14.058,19.823,10.08,16.493
17.415,23.688,10.883,16.614,15.651,18.975,9.713,16.494
18.524,23.932,12.702,15.809,18.453,18,10.368,16.915
18.778,24.022,14.131,14.668,20.692,17.141,11.858,17.773
18.05,23.593,12.845,14.19,20.463,16.784,12.25,18.439
16.5,21.968,9.873,14.91,18.755,17.091,11.225,18.613
15.315,19.993,9.138,16.142,18.394,17.798,10.976,18.903
16.119,19.642,12.031,17.543,20.614,19.023,12.962,19.88
18.221,20.84,15.203,19.007,23.277,20.589,15.377,20.647
19.345,21.478,15.826,19.713,23.904,21.561,15.482,19.909
19.954,21.163,15.623,19.353,23.25,21.589,13.499,18.305
21.811,21.337,16.224,18.452,22.721,20.847,11.644,17.188
23.769,22.213,15.799,17.449,21.602,19.432,10.356,16.156
23.627,22.303,13.372,16.342,19.606,17.839,8.428,14.341
21.616,20.526,11.158,14.796,18.097,16.642,5.961,12.462
19.909,18.116,11.322,13.657,18.195,16.422,4.924,12.097
18.713,16.528,12.554,13.741,18.83,16.957,5.255,12.657
15.969,14.908,11.894,13.184,17.799,16.081,4.137,11.597
12.07,12.453,9.519,10.308,15.403,12.42,1.25,8.849
9.362,10.088,7.776,6.449,13.657,7.675,-1.079,6.527
8.531,9.309,7.13,3.75,13.007,4.108,-2.107,5.283
9.222,10.551,6.377,2.705,12.618,2.237,-2.61,4.608
11.555,12.805,5.586,3.23,12.53,2.384,-2.601,4.769
15.071,15.106,6.158,5.756,13.665,5.11,-1.648,6.209
17.644,16.536,7.796,9.303,15.502,8.811,-0.294,7.962
18.262,16.624,8.743,11.906,16.555,11.235,1.17,9.231
17.96,16.187,7.85,12.639,16.031,11.852,2.36,10.033
17.024,15.974,5.341,11.611,13.849,10.64,1.765,9.543
15.335,16.163,2.976,10.02,10.953,8.407,-0.531,7.598
13.534,16.703,1.544,9.019,8.095,6.902,-3.058,5.502
12.931,17.778,0.326,8.762,5.505,6.893,-5.134,4.16
14.55,19.599,-0.133,9.365,4.363,7.978,-6.226,3.614
17.582,21.407,1.762,11.123,6.205,9.71,-5.649,4.069
20.57,22.619,6.534,13.785,11.452,11.915,-2.774,6.383
23.044,23.749,12.805,16.374,18.626,14.112,2.663,10.586
25.392,25.369,18.509,18.668,25.466,16.13,10.018,15.436
27.5,26.716,22.237,21.199,30.189,18.383,17.389,19.985
27.715,25.949,22.812,23.083,31.067,20.186,22.385,23.917
25.121,22.94,19.449,22.596,27.388,20.083,23.536,26.357
20.113,18.269,11.985,18.2,19.465,16.479,19.055,24.509
11.94,9.863,0.512,8.592,7.054,7.586,7.246,15.982
1.046,-2.459,-12.551,-4.189,-7.855,-4.609,-8.63,3.561
-7.785,-12.391,-21.522,-13.675,-18.668,-13.356,-20.546,-5.838
-10.338,-14.591,-23.168,-15.859,-21.015,-15.165,-24.095,-8.475
-8.047,-11.576,-20.694,-13.707,-18.28,-13.465,-22.163,-7.069
-4.16,-7.827,-17.871,-10.932,-14.755,-11.44,-18.151,-4.978
-0.063,-4.249,-14.94,-7.918,-10.771,-8.99,-13.204,-2.627
3.401,-0.734,-12.108,-5.109,-7.109,-6.592,-9.771,-0.749
5.487,1.846,-10.67,-3.466,-5.69,-5.23,-9.55,-0.521
5.633,2.455,-10.562,-2.568,-6.035,-4.595,-10.623,-1.155
4.536,1.809,-9.494,-0.471,-5.098,-3.104,-9.728,-0.355
4.123,1.795,-6.037,3.986,-1.418,0.489,-6.412,2.569
4.289,1.823,-2.337,8.353,2.422,4.41,-3.793,5.122
2.959,-0.279,-1.086,9.084,3.721,5.484,-3.839,4.885
-0.994,-4.484,-2.57,5.825,2.566,2.979,-5.549,2.215
-5.731,-8.068,-4.486,1.696,1.147,-0.831,-6.775,-0.136
-7.422,-8.679,-3.853,-0.322,1.984,-3.291,-5.866,0.189
-5.178,-7.571,-1.501,-1.26,4.459,-4.738,-4.093,1.647
-2.32,-7.177,-1.134,-3.631,5.508,-7.085,-3.873,1.302
-1.387,-7.167,-2.924,-6.173,4.596,-9.475,-4.75,-0.281
-0.936,-6.022,-3.044,-5.678,4.233,-9.259,-4.405,-0.266
0.466,-4.572,-0.621,-3.257,5.054,-7.18,-2.909,1.327
0.508,-5.455,-0.042,-3.426,4.143,-7.104,-2.978,1.384
-2.24,-8.658,-3.756,-6.802,0.159,-9.877,-5.407,-0.957
-5.044,-11.048,-8.572,-9.992,-4.453,-12.682,-8.495,-3.675
-5.268,-10.857,-10.887,-11.243,-7.254,-13.964,-10.962,-5.593
-3.635,-9.133,-10.885,-11.258,-8.106,-14.431,-12.449,-7.021
-2.424,-7.372,-10.324,-10.594,-7.731,-14.358,-12.987,-8.184
-2.523,-6.18,-8.877,-8.501,-6.06,-12.414,-12.193,-7.977
-3.571,-6.075,-5.679,-4.802,-3.26,-8.086,-9.694,-5.403
-5.317,-7.385,-2.49,-1.456,-0.726,-3.871,-6.537,-1.967
-7.841,-9.689,-2.01,-0.551,-0.135,-2.738,-4.806,-0.645
-11.299,-12.759,-4.455,-2.132,-2.214,-4.598,-5.836,-2.456
-14.507,-16.296,-7.536,-4.557,-5.687,-7.017,-8.53,-5.177
-15.669,-18.935,-9.736,-6.355,-8.692,-8.429,-10.677,-6.698
-15.54,-19.402,-11.926,-7.387,-11.027,-9.037,-11.771,-7.496
-16.282,-18.25,-14.799,-8.505,-13.263,-9.788,-12.713,-8.513
-17.593,-16.985,-16.813,-10.139,-15.058,-11.429,-13.672,-9.476
-17.761,-16.346,-16.249,-11.182,-15.532,-13.16,-13.797,-9.787
-17.031,-16.699,-13.852,-10.421,-14.628,-13.024,-12.856,-9.43
-16.279,-17.76,-11.548,-8.121,-13.263,-10.488,-11.366,-8.311
-15.487,-18.13,-10.134,-5.064,-12.549,-6.821,-9.696,-6.128
-14.375,-16.587,-8.715,-0.887,-11.979,-2.391,-7.758,-3.105
-11.904,-12.913,-5.658,4.714,-9.293,3.043,-5.069,0.048
-9.569,-9.913,-3.169,7.738,-6.416,5.878,-3.402,1.091
-12.699,-12.568,-7.302,2.477,-9.783,1.09,-6.701,-2.634
-21.27,-20.025,-17.379,-8.171,-18.751,-8.365,-14.11,-9.328
-27.017,-24.362,-23.688,-13.998,-23.846,-13.313,-18.967,-13.469
-25.215,-21.767,-21.563,-11.889,-20.909,-11.198,-18.279,-12.877
-20.297,-17.067,-16.836,-8.667,-15.619,-8.037,-15.951,-10.768
-17.047,-14.607,-14.411,-8.674,-12.614,-7.619,-14.915,-10.271
-15.487,-13.409,-13.411,-9.552,-11.386,-8.001,-14.381,-11.169
-14.834,-12.4,-13.177,-9.804,-11.409,-7.718,-14.185,-12.25
-14.74,-12.483,-14.433,-10.853,-12.624,-7.969,-14.856,-12.96
-14.219,-13.264,-16.217,-12.33,-13.584,-9.088,-15.448,-12.749
-13.093,-12.947,-16.62,-11.922,-13.015,-9.248,-14.522,-11.137
-13.04,-11.986,-16.454,-10.831,-12.255,-8.545,-12.807,-9.575
-15.318,-12.936,-18.73,-13.498,-14.077,-10.606,-13.074,-10.896
-18.238,-15.968,-23.619,-20.326,-18.435,-16.675,-16.192,-15.241
-19.317,-18.31,-27.788,-26.546,-22.242,-22.579,-19.829,-19.371
-18.011,-17.912,-28.372,-28.192,-22.797,-24.086,-20.982,-20.148
-15.708,-16.016,-25.625,-26.055,-20.037,-22.052,-18.908,-17.59
-14.547,-15.7,-22.08,-23.541,-16.387,-20.099,-15.633,-14.277
-15.145,-17.706,-19.345,-21.689,-14.081,-19.079,-13.265,-12.033
-16.505,-20.06,-17.182,-19.274,-13.23,-17.391,-12.709,-11.356
-17.451,-20.951,-15.053,-16.28,-12.395,-14.805,-13.387,-12.013
-17.103,-20.396,-13.047,-14.249,-10.813,-12.994,-13.726,-13.123
-16.145,-20.189,-11.762,-14.229,-9.716,-13.424,-13.873,-14.43
-16.863,-21.949,-11.748,-15.698,-10.178,-15.731,-15.127,-16.095
-19.887,-25.114,-12.839,-17.656,-11.369,-18.366,-16.763,-17.566
-22.033,-26.969,-13.509,-19.14,-11.809,-19.963,-16.666,-17.714
-21.448,-26.413,-13.35,-19.94,-11.858,-20.595,-15.298,-16.856
-22,-26.486,-14.873,-21.392,-13.496,-21.691,-15.357,-17.066
-26.419,-28.998,-18.79,-23.734,-16.672,-23.306,-16.801,-18.415
-31.055,-31.178,-22.232,-25.539,-19.38,-24.269,-17.818,-19.189
-31.424,-30.673,-23.109,-26.033,-20.389,-24.407,-18.174,-18.946
-28.086,-28.782,-22.394,-25.455,-20.028,-23.887,-18.146,-18.265
-25.312,-27.623,-22.725,-24.785,-20.316,-22.865,-18.309,-18.001
-25.204,-27.159,-24.849,-24.644,-22.529,-21.887,-19.044,-18.236
-25.833,-26.377,-26.763,-24.517,-25.12,-21.331,-19.498,-18.197
-25.028,-25.074,-26.934,-23.487,-25.91,-20.842,-19.197,-17.691
-23.526,-23.976,-25.786,-21.414,-24.777,-19.937,-18.909,-17.237
-23.305,-24.391,-24.215,-19.492,-23.257,-19.095,-18.707,-17.149
-24.019,-26.401,-22.78,-18.61,-22.396,-18.883,-17.592,-17.027
-24.683,-28.584,-22.529,-18.736,-22.722,-19.246,-16.588,-17.214
-25.752,-29.815,-23.512,-19.346,-23.999,-19.671,-17.693,-18.413
-26.532,-29.899,-23.312,-19.323,-24.345,-19.262,-19.884,-19.544
-25.156,-29.368,-20.578,-18.73,-22.675,-18.387,-20.79,-19.44
-21.839,-28.807,-17.315,-19.002,-20.261,-18.625,-20.006,-18.71
-19.39,-28.653,-16.003,-20.321,-18.793,-20.058,-19.094,-18.601
-19.32,-28.737,-15.982,-21.1,-18.073,-20.941,-18.646,-18.823
-19.947,-28.249,-14.976,-20.737,-16.813,-20.576,-17.507,-18.18
-20.161,-27.352,-14.152,-21.066,-15.938,-20.884,-16.767,-18.109
-20.589,-26.646,-15.867,-23.187,-16.989,-23.373,-18.542,-20.599
-21.351,-26.291,-18.372,-25.932,-18.468,-26.746,-21.405,-24.009
-22.154,-26.768,-19.049,-28.248,-18.282,-29.115,-22.819,-25.691
-22.98,-27.986,-18.671,-29.651,-17.175,-29.967,-22.803,-25.453
-24.002,-29.048,-18.986,-29.735,-17.07,-29.715,-22.532,-24.541
-25.375,-29.731,-19.951,-28.792,-18.083,-28.8,-22.113,-23.568
-27.054,-30.547,-21.129,-27.947,-19.352,-27.802,-21.513,-22.682
-28.319,-31.568,-22.339,-28.019,-20.538,-27.539,-21.175,-22.025
-28.387,-32.729,-22.518,-28.566,-21.068,-28.099,-20.798,-21.286
-28.064,-34.248,-21.052,-28.686,-20.37,-28.727,-19.907,-20.302
-28.325,-35.083,-18.923,-27.849,-18.596,-28.567,-18.628,-19.249
-28.791,-34.186,-17.611,-26.251,-16.857,-27.411,-17.52,-18.362
-29.333,-33.234,-17.833,-24.808,-16.653,-25.97,-17.248,-17.935
-29.882,-33.862,-18.557,-24.054,-17.735,-24.946,-17.444,-17.647
-28.613,-34.015,-17.712,-23.301,-17.883,-24.067,-16.624,-16.459
-24.599,-31.525,-15.216,-21.964,-16.271,-22.979,-14.475,-14.348
-21.404,-29.241,-14.161,-21.825,-15.524,-23.181,-13.407,-13.809
-22.639,-30.697,-16.395,-24.583,-17.77,-26.141,-15.13,-16.406
-26.608,-34.001,-19.7,-28.01,-21.282,-29.912,-17.768,-19.573
-29.538,-35.502,-21.468,-28.852,-23.41,-31.396,-19.196,-20.679
-29.992,-34.61,-21.296,-27.269,-23.61,-30.379,-19.756,-20.32
-28.944,-32.98,-20.385,-26.105,-23.356,-29.423,-20.653,-20.185
-27.682,-32.217,-20.11,-27.105,-23.792,-30.623,-21.686,-20.828
-26.628,-32.54,-20.493,-28.972,-24.141,-32.897,-21.851,-21.719
-25.942,-33.002,-20.524,-29.278,-23.658,-33.173,-21.259,-22.048
-24.922,-32.252,-19.122,-26.897,-22.404,-29.935,-20.001,-20.777
-22.358,-29.756,-16.197,-22.748,-20.39,-24.819,-17.735,-17.734
-19.035,-26.802,-13.287,-19.005,-18.346,-20.77,-15.416,-14.782
-17.545,-25.267,-12.42,-17.846,-18.228,-19.648,-14.961,-14.538
-19.029,-25.39,-14.475,-19.968,-21.269,-21.426,-17.268,-17.607
-21.116,-25.382,-17.603,-23.076,-25.273,-23.948,-20.386,-21.035
-20.512,-23.822,-18.463,-24.143,-26.468,-24.84,-21.232,-21.505
-16.778,-20.793,-15.921,-22.511,-23.858,-23.591,-19.125,-18.941
-12.66,-17.079,-12.061,-19.471,-19.822,-21.006,-16.229,-15.925
-11.445,-14.697,-10.088,-17.455,-17.751,-19.062,-15.525,-15.324
-13.06,-15.282,-10.58,-17.915,-18.379,-19.352,-17.064,-16.98
-14.615,-17.389,-10.83,-19.112,-19.164,-20.488,-17.998,-18.144
-15.162,-18.643,-9.602,-18.779,-18.654,-20.403,-17.646,-17.964
-16.053,-18.858,-8.528,-17.584,-17.896,-19.957,-17.709,-17.827
-17.152,-18.772,-7.731,-17.344,-17.146,-20.757,-17.889,-17.937
-16.724,-18.488,-5.989,-17.818,-15.885,-21.939,-16.85,-17.415
-15.377,-18.652,-4.97,-17.988,-15.74,-22.446,-16.192,-17.356
-15.325,-19.419,-6.426,-17.71,-17.906,-22.618,-17.307,-18.839
-16.024,-19.187,-8.332,-17.068,-20.143,-22.258,-18.126,-20.03
-15.159,-17.353,-8.526,-16.175,-20.221,-20.973,-17.341,-19.227
-12.81,-15.669,-7.541,-15.122,-18.716,-19.547,-16.224,-17.101
-12.024,-16.343,-7.143,-14.427,-17.953,-19.178,-16.085,-15.704
-14.061,-19.242,-7.951,-14.501,-19.312,-19.635,-16.793,-16.238
-16.242,-21.692,-9.351,-14.925,-22.338,-19.879,-18.021,-17.99
-16.747,-22.005,-11.521,-15.532,-26.189,-20.283,-20.561,-20.258
-16.438,-20.395,-13.944,-15.872,-28.972,-21.145,-23.446,-22.379
-15.861,-17.659,-14.407,-15.222,-28.568,-21.463,-24.07,-23.315
-13.972,-14.68,-12.052,-13.786,-25.46,-20.67,-22.091,-22.773
-10.282,-11.919,-8.407,-11.587,-21.732,-18.733,-18.478,-20.631
-6.541,-9.752,-4.805,-7.864,-18.044,-15.443,-13.104,-16.465
-4.177,-8.31,-0.492,-2.483,-13.242,-10.874,-5.578,-10.384
-3.069,-7.555,4.901,2.47,-7.514,-6.308,2.727,-3.869
-2.894,-7.686,9.275,4.309,-3.191,-3.58,9.377,1.342
-2.954,-8.429,10.664,3.101,-1.701,-3.405,12.854,4.519
-3.302,-9.99,8.846,0.034,-3.328,-6.014,11.601,4.407
-6.438,-14.057,3.463,-5.851,-9.095,-12.207,3.703,-0.901
-14.422,-21.374,-5.864,-15.275,-19.415,-21.655,-10.107,-11.177
-23.168,-28.208,-15.507,-23.759,-29.839,-30.037,-23.699,-21.643
-25.119,-28.95,-19.305,-24.967,-33.291,-31.595,-29.318,-25.806
-19.438,-23.734,-16.434,-19.812,-28.987,-26.52,-25.796,-22.834
-12.47,-17.984,-11.474,-14.806,-22.669,-20.68,-18.899,-18.219
-9.247,-15.108,-7.741,-12.893,-18.689,-17.908,-14.204,-16.447
-9.714,-14.567,-5.287,-12.28,-16.844,-17.331,-12.836,-16.877
-11.643,-15.279,-3.493,-11.693,-15.498,-17.323,-13.26,-17.411
-13.431,-16.538,-2.345,-11.471,-14.242,-17.59,-13.964,-17.761
