EEG 1,EEG 2,EEG 3,EEG 4,EEG 5,EEG 6,EEG 7,EEG 8
22.684,21.053,11.935,20.204,12.846,20.642,26.678,23.322
11.768,11.285,2.574,11.443,3.24,12.56,16.028,15.735
1.432,2.125,-6.985,4.092,-7.33,5.425,1.449,5.464
-6.182,-4.984,-14.638,-2.03,-15.387,-0.642,-10.987,-4.716
-7.405,-6.844,-15.599,-4.146,-15.688,-2.776,-15.25,-9.946
-3.041,-4.286,-10.44,-2.218,-9.281,-0.694,-12.157,-8.948
1.851,-1.649,-4.695,0.023,-2.499,2.097,-6.945,-5.305
4.028,-1.097,-1.905,0.737,0.664,3.125,-3.688,-3.047
3.513,-1.859,-2.304,0.764,0.182,2.887,-3.595,-3.258
1.829,-2.728,-4.593,1.068,-1.988,3.016,-5.125,-4.161
0.423,-3.507,-7.286,1.675,-4.005,3.79,-6.011,-3.96
-0.644,-4.651,-9.863,1.411,-5.759,3.607,-5.91,-3.271
-1.6,-5.498,-11.938,-0.472,-7.38,1.694,-5.835,-3.538
-1.887,-5.042,-13.095,-3.173,-8.757,-0.907,-6.882,-4.958
-0.693,-3.542,-13.234,-4.953,-9.882,-2.836,-8.739,-5.971
1.498,-2.179,-12.306,-4.52,-10.044,-3.283,-9.164,-4.792
2.939,-1.834,-10.843,-2.559,-8.816,-2.452,-6.862,-1.883
3.865,-1.552,-9.231,-0.402,-6.663,-0.878,-3.161,1.177
5.529,-0.252,-7.343,1.809,-4.605,1.193,-0.665,3.283
6.554,0.718,-5.723,4.046,-3.843,3.149,-0.494,3.803
5.084,-0.458,-5.31,4.763,-4.721,3.678,-1.412,2.764
2.426,-3.03,-5.964,2.666,-6.44,1.961,-2.291,0.749
1.434,-4.385,-6.169,0.035,-7.413,-0.528,-2.746,-0.654
2.248,-3.636,-4.993,0.223,-6.714,-1.29,-2.471,-0.126
3.108,-1.883,-3.015,3.125,-5.036,0.462,-1.523,1.665
3.883,0.349,-0.956,5.965,-3.417,3.091,-0.446,3.161
5.058,2.527,0.701,6.58,-2.168,3.883,0.291,3.566
6.266,3.579,1.692,5.558,-1.119,2.584,1.126,3.553
6.682,3.419,1.879,4.459,-0.851,1.588,1.646,3.645
5.774,2.917,1.184,3.324,-1.785,1.851,0.657,3.277
4.563,2.48,0.676,2.309,-2.003,2.572,-0.452,2.772
4.632,1.922,1.914,2.348,0.373,3.448,0.708,3.206
5.938,1.616,4.698,2.951,4.11,4.176,3.553,4.553
7.135,2.015,7.423,2.581,6.815,3.989,5.633,5.707
8.159,3.198,9.553,1.813,8.361,3.579,6.625,6.409
9.774,4.854,11.233,2.408,9.596,4.294,7.821,7.421
10.921,5.503,11.671,3.624,9.864,5.204,8.847,8.531
10.696,4.342,11.003,3.687,9.392,4.767,9.051,9.239
10.427,2.854,10.936,2.795,9.832,3.493,9.323,9.914
11.454,2.671,12.032,2.1,11.052,2.425,10.189,10.366
12.537,2.92,12.509,0.956,10.897,0.787,10.061,8.913
11.416,1.681,10.844,-1.928,8.429,-2.408,7.249,5.002
9.021,0.033,8.333,-4.811,5.635,-5.404,3.353,1.499
7.28,-0.052,6.592,-5.35,4.085,-6.266,1.161,0.69
5.77,0.61,5.842,-3.97,3.459,-5.506,1.341,1.743
4.26,0.807,6.232,-2.063,3.901,-3.964,3.421,3.656
3.439,0.78,6.761,-0.916,5.015,-2.41,5.839,5.432
4.075,1.38,6.255,-0.828,5.598,-1.829,6.622,5.946
6.642,2.697,5.855,-0.672,5.933,-2.104,6.485,5.999
9.589,3.162,6.22,-0.62,6.554,-3.038,7.362,6.691
10.496,1.689,5.595,-1.981,6.452,-4.86,8.353,7.103
9.354,-0.262,3.573,-3.541,5.285,-6.036,8.13,6.778
7.866,-0.955,2.506,-3.004,4.681,-4.987,8.298,6.882
6.616,-0.945,3.786,-0.924,5.676,-3.067,9.724,7.366
5.163,-1.521,5.726,1.029,7.046,-1.824,10.567,7.462
2.199,-3.452,4.551,1.215,5.53,-2.051,8.74,6.603
-2.564,-6.425,-0.986,-1.59,-0.28,-4.548,4.051,4.021
-5.514,-8.07,-6.093,-4.654,-5.83,-7.11,-0.282,1.186
-5.027,-7.993,-7.048,-5.131,-7.219,-7.439,-1.651,-0.037
-4.762,-8.622,-6.217,-4.953,-6.642,-7.49,-1.411,-0.495
-5.922,-9.268,-5.612,-5.444,-6.22,-8.44,-0.825,-0.666
-5.333,-6.964,-4.008,-4.296,-4.875,-7.691,1.063,0.962
-1.74,-2.07,-1.012,-0.132,-2.124,-3.545,4.886,5.041
1.552,1.57,0.719,4.371,-0.499,1.349,7.964,8.643
1.479,1.626,-1.144,5.559,-2.389,3.029,6.848,8.333
0.377,0.581,-3.923,3.928,-5.434,1.73,3.173,5.532
2.198,1.764,-3.001,3.155,-5.361,1.102,1.221,4.146
5.299,4.042,0.908,4.328,-2.599,2.121,1.715,4.962
4.272,3.688,2.771,4.647,-1.715,1.902,1.977,5.36
-0.678,1.059,1.522,3.296,-3.622,-0.257,0.87,3.984
-3.027,0.655,1.216,3.632,-4.06,-0.766,0.711,3.211
-0.363,3.497,3.218,6.702,-1.774,1.814,2.638,4.806
2.344,5.196,3.831,8.21,-0.807,3.464,3.995,6.418
1.142,2.583,0.9,4.975,-3.218,0.718,2.678,5.321
-0.769,-1.078,-1.819,1.128,-5.272,-2.958,1.227,3.826
0.885,-0.923,-0.434,2.492,-3.705,-1.936,3.097,5.795
2.929,1.08,2.158,6.751,-1.802,1.992,6.023,8.521
-0.27,-0.764,0.417,7.097,-4.487,2.446,4.882,6.388
-7.472,-6.714,-5.59,2.668,-10.954,-1.392,0.117,0.744
-12.359,-11.272,-10.045,-1.012,-15.616,-4.447,-2.809,-2.094
-12.298,-10.91,-9.272,-0.473,-15.163,-4.092,-2.104,-0.898
-10.878,-8.323,-6.226,1.627,-12.07,-2.96,-1.169,0.039
-11.066,-7.468,-5.149,1.758,-10.29,-3.486,-1.534,-0.764
-11.719,-8.614,-6.808,-0.499,-11.172,-5.382,-2.108,-1.574
-11.438,-9.824,-9.459,-3.644,-13.109,-7.606,-2.695,-1.981
-11.164,-10.56,-11.283,-6.152,-13.804,-9.533,-3.212,-2.486
-12.629,-12.172,-12.326,-7.819,-13.658,-11.209,-3.47,-3.443
-15.104,-14.425,-13.069,-8.505,-13.985,-12.143,-3.489,-4.438
-16.628,-15.569,-13.049,-8.068,-14.308,-11.92,-3.39,-4.634
-17.39,-15.756,-12.26,-7.994,-13.819,-11.852,-3.445,-4.16
-18.207,-15.992,-10.983,-9.282,-12.206,-12.786,-2.828,-3.366
-18.999,-16.283,-9.561,-11.311,-10.038,-14.323,-1.369,-3.204
-19.63,-16.168,-8.833,-13.381,-8.756,-16.24,-1.04,-4.906
-19.571,-14.8,-8.864,-14.506,-8.706,-17.592,-2.103,-7.078
-17.846,-11.795,-8.731,-13.77,-8.725,-17.291,-2.474,-7.358
-15.248,-9.029,-8.727,-12.323,-8.724,-16.537,-2.484,-6.821
-14.41,-9.082,-10.01,-12.431,-9.921,-17.42,-4.298,-7.951
-15.255,-10.985,-10.972,-13.774,-11.049,-19.285,-6.548,-9.586
-14.644,-11.362,-9.157,-13.754,-9.575,-19.258,-6.03,-9.097
-12.019,-10.112,-6.571,-11.887,-7.024,-16.708,-3.527,-7.427
-10.552,-10.559,-6.99,-10.844,-7.246,-14.922,-2.77,-7.384
-11.488,-13.061,-9.441,-11.611,-9.951,-16.029,-4.404,-8.565
-11.641,-13.226,-9.499,-11.043,-10.78,-16.866,-4.91,-7.744
-9.344,-9.625,-6.564,-8.094,-8.487,-14.676,-3.012,-5.021
-7.239,-6.612,-4.44,-6.465,-6.437,-12.257,-1.655,-4.06
-7.1,-7.099,-4.918,-7.971,-6.636,-12.897,-2.429,-5.742
-7.908,-9.519,-6.625,-10.819,-8.224,-15.921,-4.333,-8.146
-8.392,-11.514,-8.449,-13.72,-10.008,-19.008,-6.408,-10.289
-8.431,-12.379,-9.977,-16.131,-11.113,-20.827,-8.001,-11.845
-8.875,-12.617,-10.983,-17.329,-11.55,-21.494,-8.736,-12.573
-11.266,-13.674,-12.675,-18.517,-13.125,-22.818,-9.645,-13.636
-15.744,-16.578,-15.698,-21.284,-16.528,-25.926,-12.032,-16.162
-18.289,-18.489,-16.424,-22.558,-17.856,-27.49,-13.701,-17.428
-16.287,-16.489,-12.609,-19.478,-14.73,-24.704,-11.831,-14.979
-14.029,-13.93,-9.46,-16.432,-12.148,-21.592,-9.405,-12.873
-15.16,-15.05,-11.314,-17.476,-14.146,-21.736,-10.385,-14.607
-16.753,-17.891,-14.434,-19.383,-16.773,-22.114,-12.263,-16.242
-15.509,-18.325,-14.277,-18.845,-15.427,-20.533,-10.974,-14.109
-13.01,-16.482,-12.434,-17.96,-12.383,-19.967,-8.026,-11.049
-11.377,-14.477,-11.758,-18.359,-11.422,-21.61,-6.399,-9.952
-9.885,-12.304,-11.297,-18.265,-11.258,-22.522,-5.364,-9.301
-8.946,-10.397,-10.164,-18.041,-10.087,-22.372,-4.358,-8.35
-10.236,-10.591,-9.694,-19.934,-9.334,-23.636,-4.795,-8.593
-12.891,-12.789,-10.102,-22.95,-9.787,-25.834,-6.512,-10.244
-14.173,-14.059,-9.729,-23.808,-9.664,-26.044,-7.474,-11.902
-12.976,-12.03,-8.063,-21.133,-8.116,-23.1,-6.426,-11.593
-11.441,-8.696,-7.152,-17.205,-7.2,-19.153,-4.556,-9.083
-11.696,-7.452,-8.437,-15.341,-8.096,-17.489,-4.429,-7.812
-13.411,-8.543,-11.098,-16.601,-9.847,-19.217,-7.187,-10.609
-15.538,-10.534,-14.311,-19.979,-12.223,-22.93,-11.308,-15.006
-16.858,-12.102,-17.406,-23.557,-15.135,-26.517,-14.557,-17.304
-16.03,-12.175,-18.556,-24.907,-16.801,-27.991,-15.617,-17.351
-13.345,-10.978,-16.459,-22.531,-15.399,-26.133,-13.884,-15.945
-10.703,-9.607,-12.228,-17.55,-11.448,-21.701,-10.207,-12.837
-8.817,-8.148,-7.672,-12.626,-6.68,-16.787,-6.251,-8.727
-7.398,-6.761,-4.574,-10.367,-2.901,-13.883,-3.561,-6.918
-6.31,-5.968,-4.187,-11.202,-1.6,-14.211,-3.209,-9.842
-3.67,-3.688,-4.026,-10.928,-1.059,-14.484,-3.119,-13.157
1.3,1.614,-0.753,-6.293,1.83,-11.021,-0.245,-11.332
5.345,6.57,4.136,-1.003,6.235,-6.619,3.583,-6.952
6.33,7.737,6.897,0.304,8.803,-5.806,4.111,-5.592
6.001,6.263,6.662,-1.355,8.596,-7.43,2.067,-6.962
6.376,5.226,5.158,-2.534,7.444,-8.101,1.952,-7.413
7.811,5.959,3.847,-2.398,6.662,-7.995,3.853,-6.747
11.793,9.185,4.956,-0.942,8.029,-7.686,6.027,-5.934
20.826,16.405,11.647,3.401,14.676,-4.577,10.93,-3.006
32.091,25.836,21.577,9.588,24.493,1.68,18.281,1.867
38.468,31.847,27.132,12.843,30.25,6.315,23.162,5.124
37.763,31.669,25.81,11.115,29.787,6.092,24.773,6.261
33.935,27.876,22.872,7.961,27.817,3.564,26.566,8.125
30.529,24.27,22.741,7.349,27.824,2.87,29.5,11.823
27.243,21.808,23.065,7.99,27.532,3.788,30.278,14.746
21.429,17.784,18.191,4.818,22.066,1.678,24.607,12.538
12.452,10.189,7.324,-3.698,10.688,-5.697,12.328,3.739
4.624,2.659,-2.561,-12.374,-0.155,-13.767,0.101,-6.429
2.341,0.524,-4.976,-15.458,-3.985,-16.699,-4.778,-10.513
5.081,4.424,-0.737,-11.944,-1.209,-13.422,-1.603,-6.558
10.528,11.242,6.5,-3.888,5.085,-6.155,5.583,1.87
15.937,16.243,13.265,4.565,11.956,1.372,11.801,9.667
17.677,16.303,16,9.166,15.161,5.507,14.353,13.79
15.395,13.827,14.811,10.054,13.656,6.108,14.876,15.048
12.649,12.756,13.427,10.275,11.673,5.663,15.646,15.737
12.633,13.924,14.399,11.836,12.866,6.378,17.004,17.405
14.957,15.899,16.773,14.322,15.829,8.263,17.689,19.045
15.953,16.159,17.181,14.525,16.16,7.836,15.683,17.073
13.831,13.726,14.452,10.617,12.727,3.215,11.503,11.448
11.464,11.019,11.977,6.231,9.606,-1.23,8.144,7
11.89,10.639,12.886,5.406,10.289,-1.382,7.425,6.064
14.559,12.703,16.077,7.344,13.57,1.323,9.235,7.03
16.872,15.227,17.981,9.414,15.918,3.999,11.683,8.574
16.452,14.932,16.042,10.123,15.172,5.162,11.851,9.584
13.638,11.22,12.406,9.82,13.073,5.232,10.399,9.854
12.441,8.86,12.859,11.112,14.013,6.983,12.106,11.885
14.785,11.133,18.533,14.881,18.934,11.403,17.845,16.393
17.171,14.668,24.094,18.499,24.166,15.822,22.747,20.542
16.103,15.096,25.49,20.122,26.392,18.403,23.624,22.569
11.97,12.344,23.148,19.575,24.712,18.758,21.466,22.405
8.299,9.896,19.958,17.587,21.363,16.836,19.071,21.017
7.698,10.281,18.153,16.21,19.448,14.805,17.884,20.071
7.565,11.055,16.436,15.857,17.999,14.64,15.699,18.762
5.212,9.551,13.914,15.326,15.769,15.527,11.936,16.138
3.345,8.259,12.721,14.567,14.936,15.776,10.329,13.95
3.486,8.679,12.172,12.486,15.074,13.485,11.364,11.948
2.839,7.724,9.447,7.803,13.163,8.654,11.257,8.6
1.544,5.264,6.475,3.589,10.586,5.163,9.24,6.226
2.488,5.055,6.955,3.455,11.155,5.476,8.269,7.326
4.721,7.156,10.09,5.811,14.763,7.065,10.317,10.302
4.448,7.213,11.654,6.105,17.09,6.164,13.053,11.696
-0.56,1.68,7.756,1.291,13.429,0.865,11.159,9.061
-6.54,-5.756,0.841,-5.573,6.036,-6.026,5.274,4.416
-5.603,-6.037,-0.34,-6.56,3.959,-7.54,3.549,2.937
1.435,0.397,5.935,-0.625,8.868,-2.276,8.01,5.248
6.265,4.634,12.288,5.467,13.706,4.038,13.024,9.001
8.064,6.252,15.792,9.295,16.399,8.733,17.27,14.241
10.188,9.389,18.343,12.41,18.887,12.277,21.432,18.999
9.843,10.41,18.237,12.586,18.61,12.266,21.464,18.462
4.164,5.142,13.314,7.845,13.036,7.67,15.557,12.667
-2.586,-1.996,7.566,2.787,6.625,3.619,9.789,7.99
-4.668,-4.116,7.225,2.808,5.898,4.685,10.163,8.716
-2.648,-1.413,11.372,5.654,9.847,7.51,14.227,11.627
-2.43,-1.104,12.188,4.411,10.819,5.448,15.031,11.601
-5.919,-6.377,7.112,-1.695,6.466,-0.985,11.565,9.225
-7.973,-10.841,2.884,-5.965,3.136,-4.939,9.289,8.278
-7.639,-11.047,2.438,-6.594,3.176,-5.592,8.874,7.27
-10.165,-12.306,1.131,-8.574,2.117,-7.975,6.083,2.874
-14.657,-16.097,-1.19,-11.568,0.132,-10.916,2.77,-0.943
-15.157,-16.881,-0.488,-10.998,0.544,-9.8,3.532,0.592
-11.721,-12.966,2.138,-7.505,1.765,-6.029,6.721,4.661
-9.272,-9.298,3.011,-4.711,1.463,-3.491,8.571,7.038
-9.985,-9.527,1.534,-4.024,0.442,-3.26,8.726,7.554
-12.301,-12.025,-1.384,-5.38,-1.271,-4.867,7.213,6.38
-14.143,-14.14,-5.233,-8.289,-4.849,-7.644,2.49,2.074
-14.832,-15.453,-8.923,-11.128,-9.168,-10.276,-3.971,-4.035
-15.055,-16.151,-10.865,-12.065,-11.847,-11.053,-7.317,-7.181
-14.965,-15.727,-10.345,-11.142,-12.158,-9.733,-5.998,-5.514
-13.709,-14.152,-8.199,-9.809,-10.604,-7.871,-3.137,-1.767
-12.247,-12.784,-6.682,-9.471,-8.544,-7.134,-2.027,0.535
-13.464,-13.397,-8.05,-11.391,-8.618,-8.725,-4.788,-1.818
-17.263,-15.506,-11.545,-14.993,-11.677,-11.871,-11.054,-8.718
-18.562,-15.204,-12.55,-16.275,-13.234,-12.438,-15.109,-13.321
-14.897,-10.825,-9.065,-12.963,-9.792,-8.31,-12.217,-10.57
-11.336,-6.553,-6.07,-8.877,-6.233,-3.975,-7.033,-5.674
-11.586,-5.719,-7.319,-7.791,-7.187,-3.814,-6.605,-5.071
-13.217,-7.8,-10.301,-9.133,-9.847,-6.517,-10.602,-7.703
-13.574,-11.057,-12.166,-11.501,-11.273,-9.395,-14.59,-10.613
-11.893,-12.395,-12.195,-13.34,-11.403,-10.97,-16.214,-12.858
-9.301,-10.855,-10.8,-12.826,-10.21,-10.326,-15.919,-13.313
-8.128,-9.384,-9.52,-10.053,-8.284,-8.034,-14.971,-11.472
-8.451,-9.156,-9.317,-6.858,-6.999,-5.575,-13.829,-8.75
-8.852,-8.764,-10.106,-5.483,-7.341,-4.115,-12.945,-7.403
-9.432,-8.507,-11.964,-7.171,-9.536,-4.554,-13.785,-9.161
-10.621,-9.423,-14.16,-10.478,-12.342,-6.629,-16.281,-12.73
-10.836,-9.765,-14.092,-11.916,-12.916,-7.956,-17.251,-13.88
-9.312,-8.56,-10.97,-10.333,-10.479,-7.03,-15.458,-11.692
-8.908,-9.253,-8.26,-8.49,-8.416,-5.57,-13.745,-9.644
-11.281,-13.006,-8.769,-8.011,-9.592,-5.017,-13.605,-8.785
-13.715,-15.486,-11.232,-7.835,-12.579,-4.885,-14.142,-7.702
-13.654,-14.514,-13.088,-7.717,-14.06,-4.705,-14.906,-7.446
-12.252,-13.033,-13.719,-8.066,-13.69,-4.235,-15.997,-9.494
-11.829,-13.238,-13.889,-8.032,-13.601,-3.306,-17.324,-11.972
-12.388,-13.419,-13.35,-6.861,-13.473,-2.299,-18.053,-12.744
-12.751,-12.092,-11.771,-5.762,-11.847,-1.854,-17.687,-12.472
-12.943,-10.884,-10.576,-6.129,-10.313,-1.945,-17.072,-11.843
-14.083,-11.415,-11.674,-8,-11.642,-2.803,-17.435,-11.488
-15.965,-12.034,-14.625,-10.605,-15.163,-5.182,-18.811,-13.256
-15.703,-9.823,-15.947,-11.67,-16.434,-7.195,-19.26,-15.902
-12.855,-6.142,-14.114,-9.763,-13.782,-6.198,-18.267,-15.606
-12.061,-5.62,-12.739,-7.618,-11.815,-4.07,-18.687,-13.023
-14.401,-7.466,-14.158,-7.448,-13.64,-3.379,-20.947,-11.822
-14.348,-5.851,-15.33,-6.67,-15.468,-2.181,-21.211,-11.598
-11.141,-1.473,-14.586,-4.246,-14.253,0.403,-19.042,-10.735
-11.315,-1.41,-14.785,-4.157,-13.093,0.667,-18.718,-11.598
-15.841,-5.765,-16.766,-7.28,-14.686,-2.095,-20.575,-14.674
-18.444,-7.856,-17.847,-9.014,-16.854,-3.448,-20.44,-15.424
-16.89,-6.347,-17.182,-7.395,-16.836,-1.585,-17.722,-12.096
-14.603,-5.139,-16.396,-5.264,-15.152,0.755,-15.933,-8.686
-13.516,-5.261,-15.637,-4.595,-13.392,1.508,-16.206,-8.102
-12.155,-4.583,-12.789,-3.922,-10.618,1.714,-15.444,-7.805
-10.292,-3.017,-8.369,-2.583,-6.502,2.415,-12.663,-6.007
-10.552,-3.192,-7.33,-3.234,-5.117,1.937,-12.356,-6.668
-13.775,-5.68,-11.793,-6.498,-9.25,-0.659,-16.574,-11.374
-17.598,-8.138,-17.572,-8.967,-15.692,-3.065,-20.815,-15.013
-20.001,-9.131,-20.846,-9.327,-20.273,-3.711,-22.127,-15.024
-21.247,-9.333,-22.327,-9.936,-22.619,-3.824,-23.01,-14.79
-22.573,-9.677,-23.179,-11.266,-23.72,-4.072,-24.739,-15.801
-24.481,-10.063,-22.7,-11.103,-23.627,-3.513,-24.99,-15.872
-27.057,-10.617,-22.184,-10.076,-23.774,-2.882,-24.055,-15.588
-29.763,-11.835,-24.006,-10.765,-25.608,-3.869,-24.798,-17.385
-31.488,-13.244,-26.594,-12.187,-27.406,-5.48,-26.724,-19.745
-32.473,-14.311,-27.089,-11.881,-27.631,-5.914,-27.389,-19.793
-33.235,-14.714,-25.96,-10.639,-27.263,-5.794,-26.791,-18.408
-32.657,-13.694,-24.978,-10.818,-27.049,-6.631,-26.336,-18.102
-29.94,-11.134,-24.15,-12.137,-26.302,-7.949,-25.971,-18.637
-27.129,-8.905,-22.996,-12.649,-24.805,-8.421,-24.906,-18.317
-26.799,-9.001,-21.825,-11.608,-23.434,-7.937,-23.379,-16.814
-27.981,-10.241,-20.363,-9.047,-22.347,-6.492,-21.954,-14.554
-28.23,-10.5,-18.232,-5.995,-20.982,-4.452,-20.868,-12.479
-27.159,-9.909,-15.814,-3.701,-18.859,-2.799,-19.433,-11.278
-25.77,-9.487,-13.745,-2.085,-16.093,-1.708,-17.169,-10.478
-25.042,-9.963,-13.166,-1.941,-14.466,-1.994,-15.995,-10.353
-24.296,-10.73,-14.209,-3.963,-15.179,-4.127,-16.807,-11.218
-21.901,-10.167,-14.976,-5.953,-16.5,-5.81,-17.36,-11.761
-19.187,-9.25,-14.96,-6.851,-16.987,-6.392,-17.431,-12.112
-19.148,-10.504,-15.822,-8.584,-17.527,-8.28,-19.184,-14.091
-20.666,-12.677,-17.025,-10.599,-17.975,-10.551,-21.439,-16.344
-20.241,-12.737,-16.123,-10.268,-16.966,-9.959,-21.294,-16.052
-18.231,-11.426,-13.524,-8.821,-15.449,-8.014,-19.846,-14.723
-16.747,-10.482,-11.26,-8.868,-14.474,-7.907,-19.194,-14.812
-15.022,-8.482,-9.093,-8.808,-12.363,-7.962,-17.84,-14.377
-11.284,-3.631,-5.803,-5.731,-8.274,-5.13,-14.239,-11.067
-6.275,2.318,-2.365,-1.111,-4.704,-1.054,-10.759,-7.46
-2.884,5.375,-1.282,0.887,-4.184,0.473,-10.542,-7.674
-1.649,5.417,-1.87,0.587,-4.841,0.417,-11.93,-9.963
-0.109,6.333,-0.23,2.428,-2.769,2.948,-10.725,-9.073
2.253,8.898,4.392,7.364,2.093,8.456,-6.888,-4.682
3.21,10.087,8.154,12.094,6.643,14.042,-3.576,-0.505
2.228,9.147,8.636,14.762,9.233,18.058,-1.774,1.904
3.04,9.7,9.229,17.717,11.728,21.609,1.216,4.707
8.481,14.142,13.944,23.07,16.461,26.151,8.129,10.49
14.281,18.855,20.024,27.454,21.861,29.777,17.146,18.089
14.474,19.286,22.117,26.814,24.667,29.808,23.813,23.867
9.997,16.109,20.597,23.175,24.793,27.704,26.503,26.365
5.015,11.529,18.025,19.287,22.952,25.007,24.861,25.244
-1.249,4.198,11.703,11.95,16.202,18.212,15.776,18.025
-10.558,-6.007,-0.176,-0.434,3.841,5.905,-0.126,5.276
-18.389,-13.889,-10.99,-11.03,-6.863,-5.04,-13.494,-5.503
-20.343,-15.988,-14.648,-14.086,-10.062,-8.67,-17.546,-9.05
-18.95,-14.604,-13.535,-12.02,-8.452,-6.849,-15.194,-7.886
-18.111,-12.514,-12.022,-9.066,-6.388,-3.438,-11.102,-5.696
-17.754,-10.289,-10.544,-6.504,-4.66,-0.173,-7.135,-3.417
-16.022,-8.1,-8.234,-4.291,-2.751,2.317,-4.497,-1.372
-13.477,-6.858,-6.637,-3.202,-1.501,3.394,-3.984,-0.55
-12.026,-6.546,-7.188,-3.398,-1.723,3.328,-4.639,-0.855
-10.792,-5.384,-7.827,-2.563,-1.91,4.322,-4.391,-0.432
-7.863,-2.916,-6.568,0.574,-0.456,7.258,-2.424,1.384
-4.354,-1.014,-5.048,3.547,1.317,9.659,-0.349,2.672
-2.496,-0.504,-5.166,4.202,1.533,9.746,-0.374,1.904
-0.658,1.18,-4.539,5.036,2.346,10.09,-0.685,1.631
5.472,6.981,0.845,10.085,7.728,14.506,3.564,5.927
16.273,15.589,10.534,18.76,17.26,22.495,12.44,13.83
26.845,22.945,20.136,26.636,26.616,29.964,20.983,20.648
33.105,27.497,26.646,31.216,32.978,34.67,26.717,25.019
36.828,31.554,31.092,34.19,37.593,38.279,31.697,29.472
41.476,36.559,35.284,37.332,42.224,42.027,37.022,34.221
45.654,40.005,37.787,38.832,44.999,43.555,39.847,35.382
47.052,40.583,37.332,37.831,44.394,42.283,38.85,32.068
47.782,40.95,36.683,37.911,43.354,42.29,37.622,29.562
49.929,42.703,38.019,40.878,44.342,45.208,38.89,30.944
52.241,45.017,39.92,44.113,46.171,48.2,41.35,33.197
54.023,47.958,41.485,46.638,48.017,50.44,43.556,34.964
56.682,52.163,43.71,49.929,50.589,53.649,45.703,38.396
61.521,57.495,47.55,54.576,54.473,58.624,48.882,43.949
68.214,63.23,53.321,60.719,60.244,65.242,54.122,51.062
72.814,66.239,58.342,65.963,65.737,70.801,59.214,58.171
70.82,63.379,58.084,65.456,66.107,70.721,59.863,60.986
65.529,58.644,54.515,60.769,62.6,66.339,57.193,58.709
65.109,59.364,55.248,59.816,62.809,64.785,57.364,56.947
70.535,65.17,61.076,64.113,68.171,68.004,61.55,58.887
74.967,69.189,64.498,66.752,71.525,70.092,64.085,60.527
74.353,68.61,62.496,64.589,69.426,67.435,62.37,58.441
71.964,67.339,61.035,62.619,67.442,64.336,61.158,56.033
71.108,67.739,63.74,63.767,69.626,64.492,63.419,56.712
70.455,67.454,65.996,64.18,71.99,64.707,65.209,57.602
69.548,66.053,64.644,61.85,71.082,62.504,63.956,56.259
71.292,66.427,63.86,60.83,70.251,61.352,63.514,56.342
76.391,69.505,67.16,64.127,72.97,64.11,66.972,60.739
79.678,71.549,69.587,67.216,75.027,66.695,69.457,63.974
76.018,67.852,64.958,63.956,70.449,63.637,64.936,60.052
68.992,60.651,58.017,57.508,63.191,58.026,57.61,53.931
66.711,57.797,57.829,55.875,62.065,57.1,55.989,53.556
70.263,61.395,63.229,59.323,67.178,60.798,60.116,57.485
73.536,65.429,66.21,61.891,71.343,63.375,63.451,59.478
72.751,65.735,64.617,61.804,71.098,62.957,62.611,58.513
71.152,65.545,63.88,63.336,70.238,63.883,61.114,59.475
73.152,68.353,67.451,68.37,72.538,68.869,63.306,64.639
76.411,70.613,70.518,71.526,74.678,72.754,66.387,68.583
75.603,67.952,68.246,68.838,72.184,70.517,65.335,66.949
72.63,64.178,65.306,65.609,69.194,66.924,63.42,64.499
71.806,63.573,66.209,65.996,70.471,66.837,65.054,65.179
69.734,61.835,65.06,64.242,70.313,64.942,64.969,63.892
63.606,56.307,58.128,57.128,63.927,57.772,59.085,58.282
57.892,51.307,51.823,50.509,56.922,50.941,52.771,53.952
53.957,46.946,49.167,46.735,53.123,46.552,48.898,51.707
48.003,39.307,45.493,41.55,48.942,40.588,43.328,45.809
40.98,30.946,40.336,35.066,43.812,34.02,35.549,36.471
36.769,26.316,37.768,31.295,41.264,30.833,29.876,29.452
32.701,21.695,35.626,28.171,39.08,27.877,25.535,24.263
23.896,12.241,28.196,21.083,31.545,20.385,17.971,16.212
12.663,1.697,16.91,12.024,19.875,11.315,7.991,6.433
4.386,-4.627,8.264,5.493,10.565,5.293,0.383,-0.193
-0.209,-7.954,4.757,1.704,6.514,1.884,-2.637,-2.114
-2.903,-10.967,3.73,-1.052,5.488,-0.677,-2.696,-2.006
-3.708,-12.794,2.501,-3.001,4.777,-2.753,-2.725,-3.38
-3.677,-14.048,-0.267,-5.089,2.659,-5.5,-5.323,-8.173
-6.26,-18.751,-5.899,-9.439,-2.563,-10.288,-11.829,-15.97
-11.207,-26.318,-12.753,-14.419,-9.424,-15.015,-19.148,-22.417
-14.149,-30.939,-16.178,-15.853,-13.322,-16.297,-21.794,-22.867
-14.294,-31.408,-15.628,-14.716,-13.726,-15.65,-20.2,-19.756
-14.886,-31.427,-15.555,-15.605,-14.656,-16.99,-19.748,-19.425
-16.492,-31.534,-17.623,-18.364,-17.11,-19.606,-21.784,-22.455
-16.686,-29.828,-19.347,-19.453,-18.737,-20.658,-23.39,-24.474
-15.035,-27.283,-19.971,-19.234,-19.574,-20.805,-23.795,-24.197
-13.358,-26.372,-21.03,-20.411,-21.431,-21.69,-24.393,-23.874
-13.051,-27.88,-23.124,-23.045,-24.101,-23.291,-25.4,-24.81
-15.173,-31.302,-26.264,-26.335,-26.714,-26.135,-27.178,-27.466
-20.175,-35.455,-30.501,-30.062,-29.866,-30.246,-30.865,-31.883
-26.164,-38.711,-34.535,-32.494,-33.602,-33.133,-35.18,-35.852
-30.415,-40.178,-36.383,-32.072,-36.205,-33.051,-36.95,-36.54
-33.696,-40.621,-37.086,-31.231,-37.777,-32.325,-36.575,-35.101
-39.562,-42.451,-40.727,-34.32,-41.509,-35.024,-38.401,-36.256
-47.849,-47.608,-47.678,-41.115,-47.852,-41.19,-43.425,-41.294
-54.366,-54.486,-53.17,-47.105,-52.902,-46.532,-47.985,-46.44
-57.008,-58.226,-54.462,-49.589,-54.426,-48.226,-50.163,-48.929
-57.19,-56.474,-53.289,-48.965,-53.908,-47.27,-51.036,-49.208
-57.272,-53.813,-52.384,-47.39,-53.78,-46.626,-51.882,-49.012
-58.107,-55.178,-52.936,-47.556,-55.029,-48.297,-52.981,-49.795
-58.765,-58.443,-54.574,-49.923,-56.954,-51.312,-53.986,-51.776
-59.56,-60.433,-57.406,-53.058,-59.664,-54.132,-55.831,-54.8
-61.953,-62.626,-61.238,-55.987,-63.598,-56.668,-59.324,-58.292
-64.184,-64.802,-62.89,-57.289,-65.978,-57.694,-61.659,-60
-63.323,-63.953,-60.722,-55.997,-64.476,-55.847,-60.303,-58.943
-61.715,-62.153,-59.409,-55.041,-62.824,-54.149,-58.393,-58.217
-63.012,-63.269,-62.252,-57.483,-64.478,-56.269,-59.457,-59.978
-65.41,-65.805,-65.549,-61.349,-66.509,-60.468,-61.563,-61.867
-66.345,-67.894,-66.448,-63.603,-66.391,-63.11,-61.875,-61.785
-67.292,-70.696,-67.328,-64.826,-66.598,-64.155,-61.482,-61.117
-69.97,-73.972,-70.292,-67.102,-69.383,-65.896,-63.194,-62.308
-72.512,-75.353,-73.449,-69.843,-72.726,-68.511,-66.694,-65.479
-72.344,-74.48,-74.103,-70.878,-73.726,-70.153,-68.943,-68.8
-70.707,-74.058,-72.872,-70.559,-73.044,-70.569,-69.412,-71.121
-70.078,-74.85,-71.558,-69.677,-72.22,-70.066,-68.842,-70.912
-70.421,-74.513,-70.088,-67.307,-70.803,-68.074,-66.045,-66.881
-71.369,-73.525,-68.866,-65.011,-69.58,-66.169,-62.25,-62.217
-73.252,-75.174,-69.699,-65.975,-70.894,-67.016,-61.469,-61.412
-74.854,-78.687,-72.313,-68.659,-74.245,-69.379,-63.683,-63.428
-74.655,-79.624,-74.608,-69.066,-77.066,-69.882,-65.704,-64.675
-74.254,-77.912,-76.477,-68.048,-79.253,-69.161,-67.445,-65.647
-75.518,-77.378,-78.188,-68.616,-81.352,-69.811,-69.596,-67.626
-75.929,-77.379,-77.719,-69.31,-81.359,-70.277,-69.544,-67.745
-73.317,-74.875,-74.968,-68.006,-79.089,-68.568,-66.546,-64.846
-70.905,-72.081,-73.571,-67.154,-78.388,-67.427,-64.762,-63.359
-71.184,-72.311,-74.567,-68.692,-80.576,-68.758,-66.338,-65.306
-70.697,-72.711,-74.024,-69.396,-81.348,-68.98,-67.68,-66.211
-66.6,-69.33,-70.154,-66.717,-77.638,-65.499,-65.772,-63.36
-62.177,-64.598,-66.63,-63.545,-72.507,-61.653,-62.722,-60.402
-60.544,-62.288,-65.602,-62.247,-69.524,-60.192,-60.831,-59.798
-59.615,-60.852,-64.552,-60.779,-67.692,-58.763,-58.969,-59.1
-57.167,-57.759,-62.01,-57.763,-65.078,-55.459,-56.406,-56.863
-54.886,-54.772,-59.638,-55.031,-62.5,-52.255,-54.535,-54.279
-55.28,-54.796,-58.805,-54.549,-61.791,-51.567,-54.334,-52.321
-57.568,-56.581,-59.196,-56.147,-62.798,-53.008,-55.63,-52.022
-59.332,-57.156,-60.444,-58.81,-64.2,-55.004,-58.038,-54.309
-59.936,-56.664,-62.584,-61.595,-65.723,-56.918,-60.483,-57.599
-59.241,-56.157,-64.403,-62.407,-67.025,-57.497,-61.084,-58.881
-57.314,-55.749,-64.438,-60.674,-67.364,-56.139,-60.23,-58.481
-55.621,-55.584,-63.09,-59.023,-66.872,-54.975,-60.689,-59.326
-54.414,-54.567,-60.742,-58.005,-65.237,-54.777,-62.236,-60.773
-52.048,-51.447,-56.494,-55.229,-61.504,-53.337,-60.985,-59.216
-49.28,-48.263,-51.475,-51.144,-57.072,-50.385,-56.286,-55.047
-48.741,-47.746,-48.63,-48.731,-54.543,-48.387,-52.571,-52.577
-48.68,-47.695,-47.019,-47.683,-52.594,-47.479,-51.762,-52.762
-45.703,-45.039,-43.688,-45.81,-48.688,-45.842,-51.398,-52.898
-42.695,-43.008,-40.44,-44.618,-45.091,-44.791,-50.759,-52.715
-44.008,-45.509,-40.538,-46.477,-45.034,-46.456,-50.916,-53.478
-46.736,-49.01,-42.202,-49.017,-46.88,-48.634,-50.756,-53.198
-45.521,-48.544,-41.633,-48.812,-46.915,-48.552,-48.411,-49.538
-42.019,-46.507,-39.781,-47.843,-45.39,-48.304,-45.546,-45.709
-41.844,-47.538,-40.826,-49.969,-45.853,-50.856,-45.942,-46.837
-45.392,-50.691,-45.198,-54.395,-49.364,-55.069,-50.161,-52.78
-48.152,-52.193,-48.875,-57.6,-52.901,-58.099,-54.977,-59.025
-46.815,-50.25,-48.003,-57.118,-52.256,-57.866,-55.643,-60.292
-42.093,-46.221,-42.217,-52.79,-46.056,-53.971,-49.232,-54.11
-37.256,-43.291,-35.167,-47.808,-37.966,-49.409,-39.077,-44.634
-34.641,-42.727,-31.438,-45.658,-33.221,-47.603,-31.948,-38.619
-34.198,-42.514,-31.836,-45.375,-32.871,-47.361,-29.241,-36.887
-35.257,-41.225,-33.503,-44.032,-33.833,-45.569,-27.125,-35.451
-38.365,-41.537,-35.288,-42.637,-34.981,-43.45,-25.437,-33.75
-43.968,-46.491,-39.177,-44.537,-38.971,-44.965,-28.354,-34.523
-51.351,-54.79,-46.814,-50.864,-47.668,-51.584,-37.683,-39.04
-58.519,-62.362,-55.976,-59.133,-57.915,-60.23,-49.595,-46.098
-59.85,-63.874,-59.046,-62.093,-61.441,-63.093,-55.103,-49.772
-49.929,-55.142,-49.787,-53.231,-52.586,-54.11,-47.491,-42.91
-31.022,-37.628,-31.058,-34.82,-34.612,-36.076,-29.646,-26.404
-10.536,-17.552,-10.592,-14.48,-14.576,-16.362,-9.289,-7.665
5.673,-1.871,5.967,1.621,2.211,-0.614,7.734,7.396
15.823,6.293,16.724,11.153,13.028,9.035,18.624,17.134
21.01,9.465,22.582,15.658,18.186,13.881,23.372,22.09
22.666,11.134,25.234,17.733,20.038,15.979,24.097,22.659
23.9,13.99,27.925,20.524,22.794,18.305,25.757,22.146
29.729,21.308,35.445,28.043,31.012,25.561,33.649,27.855
40.356,32.537,47.373,39.853,43.283,37.883,45.965,41.661
48.687,41.379,55.672,48.914,51.544,47.67,54.182,54.255
50.016,44.289,55.68,50.75,51.649,49.613,54.38,57.101
48.725,45.155,53.248,49.819,49.22,48.376,52.326,54.677
49.102,46.779,53.798,50.292,49.401,48.897,52.813,54.458
47.424,45.676,52.837,48.178,48.116,47.157,51.35,53.027
40.357,39.868,45.279,40.107,40.785,39.315,43.588,44.865
33.143,34.627,36.561,32.33,32.729,31.769,35.5,35.913
32.413,35.181,35.28,32.185,31.805,32.086,34.79,35.033
36.18,38.397,39.366,35.932,35.388,35.989,38.151,38.747
36.98,37.592,39.411,34.581,34.611,33.967,37.055,36.978
32.211,31.906,32.44,27.069,27.58,25.454,30.336,28.362
27.156,26.337,24.663,20.113,20.574,17.916,23.551,20.53
26.624,23.892,21.788,17.964,18.249,15.643,20.543,18.556
27.3,21.636,21.737,17.503,17.943,15.354,19.815,19.172
24.05,16.876,19.785,14.766,15.561,13.08,18.15,17.321
18.635,11.775,16.01,10.987,11.818,9.698,14.791,13.062
16.351,9.571,13.893,9.357,10.082,7.787,11.943,10.09
18.568,11.124,15.014,10.314,11.665,7.811,12.092,10.858
21.65,14.624,16.925,11.625,13.81,8.393,13.71,13.08
22.155,17.087,16.83,11.759,13.445,8.733,13.417,12.752
20.59,17.117,15.295,11.098,11.503,8.905,11.769,10.233
19.526,16.064,14.12,10.266,10.431,8.496,11.08,8.719
19.984,15.995,13.717,9.923,10.481,7.642,11.101,8.846
20.417,17.025,13.749,10.631,10.52,7.523,10.954,9.148
19.88,18.198,14.196,11.924,10.519,8.569,11.481,9.709
19.31,18.432,14.377,11.763,10.555,8.757,12.552,10.476
19.079,16.43,12.973,8.206,9.253,5.529,11.804,9.213
18.92,13.063,10.199,2.927,6.17,0.397,8.37,5.286
17.972,10.089,6.803,-0.855,2.241,-3.252,4.168,1.003
14.758,6.368,2.572,-3.465,-2.196,-5.863,0.983,-1.726
8.567,-0.23,-2.831,-8.056,-7.651,-10.503,-2.685,-4.244
-0.334,-9.089,-9.328,-15.63,-14.209,-17.716,-9.038,-9.062
-9.937,-17.032,-15.558,-22.944,-20.08,-24.324,-15.527,-14.825
-17.801,-22.423,-20.436,-28.219,-24.233,-29.251,-19.89,-19.902
-23.986,-27.435,-25.318,-34.862,-28.745,-36.289,-25.557,-27.335
-28.407,-33.195,-30.202,-43.497,-33.828,-45.384,-33.142,-37.017
-28.408,-35.731,-31.007,-47.206,-35.071,-48.825,-36.074,-40.97
-24.795,-32.688,-26.757,-42.712,-31.219,-43.918,-32.02,-35.815
-23.427,-28.716,-23.51,-37.393,-27.968,-38.937,-28.134,-29.913
-24.768,-26.7,-24.083,-36.391,-27.92,-38.571,-28.181,-29.037
-23.106,-23.487,-24.011,-35.203,-27.111,-37.492,-27.272,-28.348
-18.788,-19.135,-22.336,-31.751,-25.211,-33.715,-24.123,-25.28
-17.421,-17.856,-23.453,-31.092,-26.396,-32.737,-23.967,-24.95
-18.953,-19.589,-27.624,-34.797,-30.342,-36.046,-28.146,-29.317
-19.753,-21.21,-30.949,-37.819,-33.331,-38.548,-32.449,-33.398
-20.985,-23.002,-33.046,-37.382,-35.715,-37.931,-35.115,-34.297
-24.586,-25.721,-35.782,-35.908,-39.385,-36.591,-37.63,-34.458
-26.973,-26.426,-37.709,-35.057,-42.051,-35.584,-39.136,-35.038
-25.281,-23.846,-36.819,-34.237,-41.267,-34.455,-38.172,-34.697
-21.658,-20.47,-33.926,-32.858,-38.24,-33.186,-36.262,-33.401
-18.081,-17.096,-30.624,-30.357,-34.956,-30.908,-35.044,-32.057
-14.47,-13.097,-27.379,-26.65,-32.12,-27.054,-33.784,-30.471
-11.096,-10.057,-23.898,-23.006,-29.453,-23.268,-31.512,-28.073
-9.63,-10.085,-21.701,-21.763,-27.617,-22.162,-30.028,-26.512
-10.945,-12.285,-22.883,-23.62,-28.054,-24.058,-31.187,-27.58
-12.766,-13.573,-25.206,-25.43,-29.542,-25.695,-32.461,-28.987
-12.572,-12.388,-24.592,-24.168,-29.191,-24.493,-30.847,-27.881
-11.261,-9.966,-21.54,-21.351,-26.926,-22.098,-27.83,-25.548
-10.656,-8.037,-19.063,-19.407,-24.679,-20.419,-25.614,-23.563
-9.915,-6.401,-17.271,-17.417,-22.69,-18.396,-23.357,-20.47
-8.367,-4.852,-15.573,-15.271,-20.718,-16.401,-20.747,-16.692
-7.373,-4.33,-14.833,-14.963,-19.3,-16.327,-19.29,-15.261
-7.137,-4.418,-14.733,-15.433,-18.091,-16.304,-18.911,-15.872
-7.136,-4.416,-14.658,-14.689,-16.931,-14.416,-18.603,-16.271
-7.241,-4.295,-14.473,-13.72,-16.045,-13.004,-18.031,-16.293
-7.031,-3.632,-13.319,-13.528,-14.971,-13.379,-17.107,-16.318
-7.372,-3.114,-11.689,-13.534,-14.239,-13.651,-16.48,-16.164
-9.208,-3.53,-11.314,-13.013,-14.82,-12.835,-16.768,-15.854
-10.737,-3.023,-11.73,-11.151,-15.621,-11.033,-17.001,-15.454
-9.925,0.29,-11.02,-7.492,-14.923,-7.604,-15.521,-14.574
-8.07,4.068,-9.428,-3.732,-13.648,-3.597,-12.985,-13.353
-7.03,5.215,-8.135,-1.943,-13.392,-1.415,-11.805,-12.455
-5.856,5.36,-6.49,-1.141,-12.943,-0.423,-11.673,-11.299
-4.529,5.981,-4.782,-0.106,-11.711,0.72,-10.9,-9.673
-5.076,4.865,-4.722,0.097,-11.524,0.763,-10.086,-8.791
-7.136,2.054,-5.69,-0.821,-12.452,-0.577,-10.093,-8.784
-8.849,-0.031,-6.135,-1.951,-12.961,-1.84,-10.349,-9.005
-10.186,-1.987,-6.557,-3.595,-13.128,-3.347,-10.643,-9.837
-12.112,-5.798,-8.26,-6.974,-14.234,-7.008,-12.121,-12.149
-13.596,-9.413,-10.369,-11.22,-15.487,-11.777,-14.26,-14.787
-11.963,-8.681,-10.121,-13.073,-13.995,-13.409,-13.749,-14.74
-7.879,-4.629,-7.684,-11.966,-10.23,-11.488,-10.324,-12.117
-5.48,-2.395,-6.458,-11.066,-8.444,-10.332,-7.702,-10.284
-6.295,-3.604,-7.268,-11.654,-10.035,-11.272,-7.077,-10.252
-7.593,-5.308,-7.324,-11.618,-12.035,-11.385,-6.573,-10.245
-7.512,-5.439,-5.448,-10.283,-12.445,-9.994,-5.819,-9.838
-7.891,-5.264,-3.835,-10.023,-12.353,-9.857,-5.919,-10.239
-9.919,-6.218,-3.92,-11.754,-12.582,-11.475,-6.624,-11.24
-11.103,-7.277,-4.356,-13.137,-12.399,-12.09,-6.573,-11.274
-8.77,-5.711,-3.083,-11.604,-10.917,-9.876,-4.54,-9.331
-4.613,-1.252,-0.08,-7.086,-8.265,-5.473,-0.488,-5.753
-3.215,1.286,2.023,-2.654,-6.188,-1.398,3.285,-2.531
-5.366,-1.486,1.665,-1.44,-6.02,-0.2,4.633,-1.204
-7.056,-5.579,0.757,-2.698,-6.541,-1.391,4.587,-0.698
-5.839,-6.085,1.506,-3.184,-5.566,-1.9,5.327,0.598
-4.319,-5.343,3.03,-2.568,-3.403,-1.156,6.578,1.622
-4.928,-6.68,3.648,-2.972,-1.922,-1.323,7.057,0.93
-4.739,-6.072,4.59,-3.264,-0.621,-1.596,7.863,0.715
-1.275,-0.867,7.051,-1.171,1.583,0.193,10.23,3.231
2.743,4.106,9.561,2.168,4.018,3.105,13.277,6.979
4.752,6.066,11.133,4.904,6.346,5.746,15.488,9.694
5.494,7.428,12.421,6.886,8.467,8.125,15.911,10.938
6.086,9.353,13.957,8.519,9.666,10.034,15.653,11.481
6.319,11.174,15.608,9.866,10.059,11.124,16.758,11.836
7.642,14.886,18.632,12.469,12.027,13.09,20.457,13.691
12.459,21.641,24.738,18.464,17.412,18.243,27.197,19.44
17.909,25.751,30.636,24.737,22.865,23.872,34.072,26.128
19.345,23.375,31.462,26.428,24.248,25.551,36.835,28.35
18.075,19.904,29.158,25.562,23.435,25.094,36.04,27.209
17.668,20.253,28.501,26.672,24.081,26.516,35.424,27.377
18.145,22.559,29.157,29.122,25.518,29.121,36.589,29.762
18.023,24.056,28.371,29.951,25.513,30.219,38.32,32.217
17.7,25.003,26.837,28.933,24.845,29.636,39.259,33.265
18.501,26.333,27.481,28.155,25.872,29.487,39.837,33.505
20.916,28.01,31.399,29.628,29.398,31.889,41.561,35.207
24.662,30.673,36.852,33.347,34.106,36.349,44.737,39.263
29.585,36.016,41.897,37.913,38.302,40.852,48.646,44.088
36.489,44.473,47.475,43.994,43.017,46.677,54.202,49.952
46.94,55.356,56.941,54.834,52.219,57.91,64.246,60.403
61.084,68.158,71.117,70.916,67.009,74.463,79.404,76.119
73.333,78.584,82.842,84.187,79.566,87.526,92.244,88.919
76.584,80.616,83.869,85.722,81.246,88.469,93.434,89.913
73.115,76.264,77.677,79.35,75.737,81.624,85.956,82.78
70.7,72.702,73.421,75.143,71.922,77.315,80.13,77.433
71.467,72.698,72.428,74.754,70.62,77.216,78.563,76.564
72.202,73.915,70.4,73.258,67.96,75.923,77.218,76.294
71.05,73.768,66.701,69.508,64.381,71.796,75.122,74.023
70.576,73.537,65.434,68.341,64.282,69.889,75.441,72.59
72.9,75.139,68.201,72.184,68.366,73.377,78.366,75.453
75.819,76.624,71.673,77.027,72.651,78.555,80.538,80.671
79.696,78.787,75.766,81.854,77.365,83.94,83.5,86.392
91.645,89.88,87.026,93.707,89.158,96.202,94.297,97.312
112.044,110.775,105.391,113.246,107.532,116.147,112.058,114.14
125.317,124.875,116.384,125.494,118.069,128.642,122.316,124.052
120.768,120.665,110.828,120.701,112.455,123.422,116.484,118.161
110.765,110.874,100.958,111.268,103.398,113.301,106.726,107.571
111.838,112.438,102.898,112.691,106.264,114.8,108.467,107.365
122.453,123.409,115.715,122.907,119.501,125.645,121.058,117.887
131.774,132.617,128.202,131.638,132.475,134.55,135.353,130.95
136.697,137.444,135.246,136.266,140.427,138.856,146.963,141.951
138.247,139.644,136.883,138.043,142.707,140.431,152.579,147.524
131.503,134.459,129.307,132.884,135.084,135.208,144.452,141.135
112.256,117.065,109.324,116.783,114.564,118.875,119.683,120.597
88.914,95.145,85.401,96.218,89.426,98.145,90.116,95.518
75.686,82.504,72.243,83.903,74.523,86.056,72.956,79.87
73.994,80.196,72.058,82.827,73.185,85.311,71.17,76.917
73.632,78.19,74.098,84.554,74.999,87.052,74.077,78.85
71.026,74.32,73.236,84.321,73.935,86.569,75.659,80.226
70.332,74.228,72.972,84.155,73.093,86.322,76.885,80.436
70.84,76.825,73.003,82.927,72.648,85.488,75.392,77.424
67.287,75.088,68.628,76.601,68.147,79.705,67.938,69.842
59.806,68.513,60.476,66.916,59.977,69.969,58.372,61.189
55.181,64.631,55.427,61.093,55.05,63.456,54.012,56.552
56.587,66.56,56.458,61.426,56.544,63.485,55.631,56.492
58.453,67.531,57.852,61.562,58.519,64.356,56.449,56.361
55.649,62.339,54.446,56.865,55.472,60.619,52.023,52.981
51.016,55.425,49.908,51.329,50.976,55.222,46.461,49.295
48.786,52.029,49.765,49.418,50.652,52.682,45.084,48.699
47.081,49.849,51.397,48.595,52.16,51.167,45.381,48.303
42.836,45.433,49.209,45.353,50.301,47.613,42.315,44.102
37.395,40.385,44.274,41.265,46.159,43.574,37.149,38.219
33.438,37.488,41.156,39.095,43.766,41.35,34.222,35.017
32.245,37.485,40.825,38.955,43.795,40.632,34.763,35.271
33.114,39.147,40.956,39.075,44.107,40.106,36.516,36.592
33.423,39.822,39.984,37.653,43.132,38.627,36.817,36.504
31.37,37.685,37.909,33.903,40.667,35.245,34.717,33.925
27.584,33.293,34.062,27.915,36.134,29.507,29.816,28.529
23.614,28.554,28.564,21.49,30.017,22.849,23.298,21.85
20.286,24.355,24.406,17.651,25.677,18.398,19.218,17.459
17.761,20.476,23.48,17.196,25.327,17.314,19.418,16.774
16.02,17.884,23.646,17.984,26.619,17.417,20.819,17.569
15.26,18.025,22.715,18.21,26.448,16.842,21.09,18.074
15.254,19.514,20.847,17.72,24.551,15.841,20.941,18.447
13.509,18.484,17.501,15.858,21.041,13.926,19.512,17.375
9.082,14.593,12.787,12.499,16.639,10.389,15.964,13.658
6.28,12.457,10.332,10.283,14.737,7.684,13.657,10.306
7.299,13.353,11.437,10.609,16.259,8.124,14.434,10.167
7.893,13.059,11.512,10.723,16.803,9.293,14.532,11.039
5.068,9.867,7.228,8.268,13.202,7.64,11.187,9.517
1.65,6.826,1.66,4.968,8.35,3.907,7.399,6.367
0.795,5.936,-0.643,3.287,6.586,1.299,6.742,4.704
1.948,6.311,0.794,3.14,8.129,0.924,8.186,5.148
4.05,7.857,3.871,4.014,10.839,1.947,9.478,6.36
7.019,11.155,6.753,5.929,13.144,3.362,10.309,7.392
9.683,14.739,8.598,8.291,14.31,4.816,10.692,8.002
10.395,16.189,9.327,10.474,14.284,6.798,10.069,8.225
9.153,14.739,8.898,12.165,13.302,9.04,8.411,7.829
7.316,11.834,7.574,12.775,12.043,9.856,6.947,6.882
5.771,9.373,5.939,11.617,11.012,8.215,5.893,5.69
4.798,8.163,4.237,9.288,9.813,5.359,3.88,4.2
4.336,8.125,2.467,7.433,8.11,3.236,1.249,2.532
4.564,9.915,1.878,7.576,7.318,3.317,0.702,2.039
6.299,13.766,4.555,10.787,9.52,6.706,3.722,4.51
7.865,15.813,8.462,15.053,12.627,11.214,7.095,8.156
6.406,12.941,8.898,16.181,12.375,12.407,6.835,8.88
3.177,8.752,6.338,13.61,9.579,10.105,3.977,6.366
0.682,6.907,4.272,10.291,7.488,7.535,1.218,3.257
-1.545,5.653,2.76,8.094,6.184,5.759,-0.734,1.179
-4.249,3.064,0.915,6.62,4.93,4.079,-1.375,0.316
-6.457,0.599,-0.074,5.18,4.524,2.629,-0.673,-0.005
-8.159,-1.111,-0.594,3.387,4.371,1.116,-0.938,-1.257
-10.882,-4.291,-3.343,0.699,2.104,-1.476,-4.141,-4.185
-13.754,-8.678,-7.744,-1.863,-1.381,-3.949,-7.662,-6.637
-14.323,-10.938,-10.132,-2.57,-2.452,-4.351,-8.015,-6.421
-13.524,-11.161,-10.132,-2.207,-1.331,-3.734,-6.625,-4.934
-14.314,-12.514,-10.722,-2.802,-1.811,-4.351,-6.823,-4.84
-16.254,-14.54,-12.318,-4.117,-4.229,-6.115,-8.619,-6.714
-16.527,-14.041,-12.173,-4.236,-4.847,-7.227,-9.593,-8.896
-16.181,-12.427,-10.599,-3.752,-3.617,-7.763,-9.56,-10.293
-18.864,-14.059,-11.735,-5.599,-5.132,-10.091,-11.023,-12.25
-23.594,-18.173,-15.97,-9.727,-9.708,-14.548,-14.074,-15.59
-25.465,-20.328,-18.006,-12.231,-11.452,-17.514,-14.911,-17.164
-22.747,-19.382,-15.076,-10.705,-7.689,-15.908,-11.704,-13.517
-18.629,-17.354,-10.962,-7.359,-3.124,-11.617,-7.875,-7.217
-15.862,-15.227,-9.002,-5.247,-1.31,-8.661,-5.777,-3.165
-14.628,-13.621,-8.673,-4.955,-0.759,-8.301,-4.053,-2.115
-14.988,-14.144,-9.602,-5.782,-0.787,-8.929,-2.883,-2.47
-16.437,-16.6,-11.395,-6.932,-2.068,-9.013,-3.433,-2.974
-18.446,-19.475,-12.835,-8.687,-4.242,-9.84,-5.218,-3.687
-20.799,-21.552,-13.501,-10.75,-6.182,-12.145,-7.014,-5.028
-21.415,-21.242,-12.937,-10.433,-6.106,-12.437,-7.078,-5.258
-19.628,-19.383,-11.632,-7.9,-4.345,-9.957,-5.342,-3.696
-18.962,-19.572,-12.395,-7.984,-4.462,-10.236,-4.933,-3.897
-21.712,-22.802,-16.445,-12.592,-8.055,-15.592,-8.25,-8.482
-24.398,-25.653,-20.273,-16.864,-11.579,-20.428,-12.916,-13.687
-22.487,-24.723,-19.919,-15.826,-11.177,-19.706,-14.121,-13.535
-17.732,-21.119,-16.721,-11.543,-8.307,-15.975,-11.395,-8.704
-15.236,-18.433,-15.107,-9.593,-7.064,-14.494,-9.31,-5.812
-14.551,-16.686,-15.463,-10.181,-7.555,-14.951,-9.708,-7.141
-10.905,-12.542,-13.8,-8.403,-6.17,-12.797,-8.824,-7.566
-5.228,-6.869,-9.826,-4.054,-2.901,-8.384,-5.795,-4.735
-3.659,-4.649,-8.262,-3.088,-2.063,-7.505,-5.475,-3.581
-6.122,-5.503,-9.509,-6.423,-3.686,-10.838,-8.417,-6.143
-7.014,-4.912,-9.291,-8.153,-3.718,-12.641,-9.797,-8.151
-5.003,-2.721,-6.911,-5.868,-1.759,-10.446,-8.526,-6.987
-2.343,-1.271,-4.225,-2.487,0.383,-6.989,-6.919,-3.777
0.14,-0.554,-1.237,-0.057,2.893,-4.698,-5.51,-0.442
2.777,0.859,2,1.581,6.083,-3.734,-3.982,1.369
5.35,3.338,4.126,2.522,8.938,-3.346,-3.139,1.245
7.603,6.008,5.427,3.173,11.389,-2.454,-2.578,1.134
9.654,7.961,7.576,4.206,14.247,-0.696,-0.557,2.931
10.425,8.196,9.449,4.537,16.099,0.303,1.536,4.874
8.334,5.935,8.194,2.83,14.564,-0.955,0.437,3.845
4.035,1.787,4.227,-0.192,10.161,-3.699,-3.512,-0.103
0.609,-2.055,1.155,-2.449,6.352,-5.848,-6.493,-3.47
0.1,-3.557,0.858,-2.348,5.739,-5.906,-6.003,-3.295
0.613,-3.733,1.146,-1.072,6.794,-4.958,-4.079,-1.369
-0.747,-5.379,-0.447,-1.422,6.232,-5.611,-4.277,-1.652
-3.557,-8.307,-2.758,-3.471,4.111,-7.915,-6.399,-4.162
-5.272,-9.438,-3.095,-4.769,3.401,-9.4,-7.29,-5.68
-5.751,-8.589,-2.358,-5.12,3.95,-9.753,-6.885,-6.01
-7.184,-9.213,-4.013,-6.483,2.296,-10.784,-8.302,-8.034
-9.061,-11.91,-7.257,-7.961,-1.081,-11.64,-11.136,-11.171
-8.633,-13.542,-7.61,-6.845,-2.112,-10.018,-11.793,-11.799
-6.094,-12.864,-4.36,-3.546,-0.191,-6.624,-9.498,-9.213
-4.251,-11.824,-1.214,-0.874,1.653,-3.949,-6.918,-6.035
-3.682,-11.235,0.026,0.115,2.38,-2.799,-5.946,-4.313
-2.303,-9.183,1.244,0.676,3.948,-2.229,-5.444,-3.588
-0.529,-5.736,2.693,1.037,5.966,-2.001,-5.022,-3.495
-1.175,-3.938,1.836,-0.023,5.473,-2.924,-6.437,-4.99
-4.066,-5.118,-1.723,-2.828,2.521,-5.348,-9.183,-7.823
-6.155,-7.633,-4.915,-6.077,0.345,-8.517,-10.453,-10.172
-5.495,-8.736,-4.645,-7.052,1.188,-10.177,-9.132,-10.171
-3.452,-7.77,-1.595,-4.799,3.631,-8.916,-7.068,-7.849
-2.337,-6.901,1.086,-1.785,4.936,-6.398,-6.224,-5.487
-1.578,-6.96,2.968,0.627,5.628,-4.119,-5.866,-4.329
-0.282,-7.093,5.54,3.226,7.641,-1.551,-4.561,-3.308
-0.554,-8.057,7.61,5.185,9.817,1.047,-2.967,-1.988
-3.974,-11.176,6.781,4.63,9.557,2.023,-2.937,-1.827
-7.885,-14.648,4.284,2.391,7.452,1.161,-4.318,-3.084
-8.828,-14.824,3.198,1.04,6.174,0.166,-4.941,-3.834
-7.503,-11.925,2.871,0.649,5.409,-0.313,-5,-3.833
-6.587,-9.391,0.5,-0.65,2.852,-1.337,-7.033,-5.174
-6.751,-8.346,-3.804,-3.267,-1.19,-3.552,-11.142,-8.472
-7.392,-7.927,-7.344,-5.702,-4.205,-6.317,-14.339,-11.431
-8.17,-8.069,-8.481,-6.332,-5.087,-8.189,-14.898,-12.046
-8.753,-8.726,-8.049,-5.184,-4.76,-8.086,-14.229,-11.054
-8.908,-9.416,-7.762,-4.224,-4.074,-7.025,-13.527,-9.748
-9.503,-10.551,-8.536,-5.356,-3.63,-7.328,-12.826,-8.679
-10.915,-12.121,-9.515,-7.198,-3.709,-8.493,-12.498,-8.201
-11.552,-12.524,-9.062,-6.669,-3.604,-7.837,-12.516,-8.13
-10.674,-10.933,-7.214,-3.957,-2.945,-5.716,-12.256,-7.902
-9.105,-7.825,-4.824,-0.862,-1.625,-3.917,-10.756,-6.385
-7.66,-4.647,-2.817,1.92,0.016,-2.403,-7.918,-3.221
-7.677,-4.301,-3.229,2.667,0.03,-2.035,-5.908,-0.805
-10.057,-7.989,-6.723,-0.078,-2.699,-4.289,-6.814,-1.689
-13.512,-12.968,-10.907,-4.434,-6.847,-7.912,-10.022,-5.064
-15.806,-15.845,-13.358,-7.451,-10.425,-10.483,-12.696,-7.664
-15.722,-15.858,-13.933,-8.546,-12.176,-11.435,-12.863,-7.857
-13.67,-14.345,-14.007,-8.875,-12.238,-11.55,-11.907,-7.336
-11.701,-12.896,-15.146,-9.554,-12.312,-11.747,-12.442,-8.2
-10.843,-11.401,-16.89,-10.297,-13.033,-12.083,-13.562,-9.536
-8.208,-7.87,-15.779,-8.82,-11.458,-10.865,-10.719,-7.87
-1.748,-2.496,-10.249,-4.324,-5.49,-7.307,-2.745,-2.163
5.13,1.609,-3.682,0.624,1.819,-3.371,5.852,4.566
8.271,3.193,0.492,3.46,6.352,-1.124,11.507,9.496
7.391,2.964,2.151,3.345,7.269,-1.34,13.66,11.482
3.597,-0.093,1.057,-0.057,4.735,-4.755,10.445,9.039
-3.68,-7.514,-5.164,-7.164,-2.718,-12.108,-0.711,0.962
-13.288,-16.717,-15.362,-16.273,-13.632,-21.264,-16.207,-10.046
-20.555,-22.938,-22.994,-23.171,-21.668,-27.609,-27.252,-18.527
-22.766,-25.081,-24.171,-25.434,-23.182,-29.214,-29.794,-21.762
-20.347,-24.091,-20.412,-23.338,-19.733,-26.94,-25.835,-19.722
-15.02,-20.795,-15.077,-18.671,-14.521,-22.335,-18.87,-14.023
-10.921,-17.983,-12.222,-15.378,-11.577,-18.881,-13.617,-9.439
-11.081,-17.803,-13.553,-15.949,-13.176,-19.367,-13.593,-9.92
-13.06,-18.668,-16.11,-17.946,-17.016,-21.886,-17.017,-13.499
-13.196,-18.481,-17.018,-18.362,-19.54,-23.06,-19.452,-15.648
-11.981,-17.611,-17.135,-17.891,-20.073,-22.777,-19.663,-15.702
-11.181,-16.73,-17.36,-17.724,-19.299,-22.163,-18.91,-15.308
-11.091,-16.157,-17.369,-17.787,-17.945,-21.613,-17.942,-14.732
-12.871,-17.743,-18.688,-19.668,-18.23,-22.922,-18.047,-15.015
-16.587,-21.749,-22.033,-24.052,-20.949,-26.945,-19.792,-17.294
-19.275,-25.085,-24.924,-27.834,-23.7,-30.804,-21.724,-20.051
-19.307,-25.836,-25.714,-28.466,-24.897,-31.76,-22.628,-21.217
-18.443,-25.326,-25.498,-26.722,-25.256,-30.154,-22.2,-20.425
-18.747,-25.531,-25.783,-24.418,-25.716,-27.742,-21.204,-19.038
-19.7,-26.013,-25.848,-21.724,-25.532,-24.95,-20.499,-17.942
-19.874,-25.443,-23.799,-18.073,-23.368,-21.187,-18.938,-15.989
-19.688,-24.957,-20.31,-14.979,-20.181,-17.792,-15.666,-12.969
-20.337,-25.871,-18.157,-14.309,-18.283,-16.85,-13.375,-11.378
-22.281,-27.409,-18.432,-15.079,-18.413,-17.483,-14.701,-12.664
-24.803,-28.948,-19.638,-15.29,-19.397,-17.238,-17.137,-14.512
-26.089,-30.46,-19.882,-15.074,-19.661,-16.179,-17.047,-14.55
-24.47,-30.376,-17.978,-14.96,-18.062,-15.627,-14.971,-13.116
-20.202,-26.981,-14.07,-13.544,-14.868,-14.508,-12.757,-10.754
-15.986,-22.167,-10.884,-10.596,-12.573,-11.921,-10.962,-7.98
-13.687,-19.238,-10.652,-8.459,-12.569,-9.806,-9.813,-6.319
-11.968,-18.022,-11.612,-7.974,-12.904,-9.148,-9.064,-6.221
-9.966,-16.877,-11.79,-8.004,-12.562,-8.861,-8.434,-6.683
-9.506,-16.303,-12.688,-8.91,-13.635,-9.279,-9.029,-7.759
-10.851,-16.454,-15.162,-11.146,-16.666,-10.96,-11.638,-10.108
-11.287,-15.791,-16.362,-12.319,-18.561,-11.893,-14.017,-12.159
-10.253,-14.389,-14.522,-10.54,-17.395,-10.551,-13.471,-11.736
-10.041,-13.595,-11.782,-7.732,-14.77,-8.673,-10.833,-9.775
-11.697,-13.835,-10.881,-7.339,-13.268,-9.137,-9.393,-9.228
-14.548,-15.345,-12.926,-10.387,-14.429,-12.459,-10.872,-10.793
-17.365,-17.385,-16.768,-14.003,-17.47,-15.661,-13.325,-12.041
-19.382,-18.265,-19.698,-15.279,-20.127,-16.309,-14.078,-11.542
-21.242,-18.525,-20.79,-15.552,-21.591,-16.186,-13.826,-11.194
-23.487,-19.942,-21.766,-17.543,-22.964,-17.872,-15.351,-13.274
-24.264,-20.911,-22.525,-19.652,-24.035,-19.623,-17.763,-15.99
-21.462,-18.539,-20.431,-17.992,-22.637,-17.814,-16.639,-14.881
-17.823,-14.983,-16.695,-14.141,-19.86,-14.063,-12.926,-11.193
-17.455,-14.273,-15.303,-12.884,-19.216,-13.044,-12.424,-10.73
-18.194,-15.418,-15.038,-13.663,-19.224,-14.199,-14.644,-12.932
-16.095,-15.422,-11.959,-13.204,-16,-14.116,-14.151,-12.773
-13.028,-14.346,-6.94,-11.939,-10.966,-13.245,-10.975,-10.593
-12.872,-13.729,-4.036,-11.537,-8.625,-13.295,-9.608,-10.151
-14.4,-13.146,-4.201,-10.842,-9.29,-12.885,-10.301,-11.014
-13.671,-10.88,-4.823,-8.199,-9.321,-10.169,-9.52,-9.845
-11.615,-8.416,-4.707,-5.487,-7.91,-6.895,-7.501,-7.087
-12.49,-9.42,-5.508,-6.127,-8.08,-6.62,-7.685,-6.479
-16.168,-13.173,-8.164,-9.679,-11.053,-9.428,-10.455,-8.659
-18.326,-15.427,-11.098,-12.097,-14.459,-11.601,-12.902,-10.308
-17.311,-15.403,-12.585,-11.794,-16.119,-11.38,-13.558,-10.181
-15.748,-15.649,-13.144,-11.28,-16.647,-11.043,-13.944,-10.855
-15.417,-16.338,-14.288,-12.301,-17.917,-12.42,-15.566,-13.583
-15.717,-16.148,-16.741,-14.71,-20.921,-15.153,-18.928,-17.355
-15.921,-15.715,-19.698,-17.949,-24.432,-18.279,-23.371,-20.984
-14.735,-14.959,-20.379,-19.37,-25.19,-19.494,-25.217,-21.847
-11.447,-12.594,-17.602,-16.832,-22.4,-17.143,-21.906,-18.436
-8.898,-10.446,-15.621,-14.044,-20.58,-14.6,-18.012,-14.991
-10.442,-11.576,-19.002,-15.903,-23.528,-16.214,-19.455,-16.633
-14.269,-14.533,-24.839,-20.18,-28.034,-20.02,-23.833,-21.27
-15.708,-15.446,-26.519,-21.311,-28.882,-21.05,-24.618,-22.86
-14.448,-14.302,-23.753,-19.4,-26.867,-19.336,-21.748,-20.37
-14.473,-14.483,-21.883,-19.053,-26.257,-19.186,-20.415,-18.093
-17.526,-17.362,-22.829,-22.023,-27.842,-22.209,-22.492,-19.22
-21.322,-20.877,-24.238,-25.827,-29.622,-25.698,-25.627,-23.086
-23.873,-22.843,-25.75,-28.059,-31.247,-27.221,-28.322,-27.436
-24.371,-22.17,-27.855,-27.982,-32.477,-26.198,-29.741,-29.353
-21.825,-18.991,-28.141,-25.659,-31.039,-22.9,-27.932,-26.323
-19.812,-18.139,-27.863,-25.233,-29.24,-21.984,-26.044,-23.897
-24.652,-24.682,-32.96,-32.427,-33.835,-29.518,-31.542,-32.363
-31.331,-31.366,-39.066,-40.292,-40.318,-37.939,-38.962,-43.754
-28.5,-26.923,-34.567,-34.776,-36.05,-32.353,-33.083,-37.172
-20.613,-17.673,-24.173,-20.857,-25.114,-17.868,-17.689,-16.499
-20.826,-17.575,-22.508,-15.882,-22.886,-12.328,-11.236,-5.338
-27.679,-24.205,-28.68,-20.806,-29.422,-16.73,-15.666,-8.163
-33.173,-28.974,-34.35,-26.655,-35.906,-22.195,-21.26,-14.248
-40.424,-36.385,-42.819,-35.436,-44.271,-31.03,-29.521,-24.196
-53.086,-50.976,-57.68,-50.686,-57.829,-46.722,-44.494,-41.502
-62.251,-61.951,-68.888,-62.709,-67.94,-59.187,-56.742,-54.862
-59.56,-59.599,-67.323,-61.643,-66.584,-58.4,-56.056,-52.745
-51.781,-52.25,-60.18,-54.374,-60.112,-51.409,-48.654,-43.292
-49.886,-51.555,-58.242,-53.647,-58.186,-51.012,-46.746,-41.77
-52.257,-53.803,-59.08,-57.95,-58.655,-55.64,-49.474,-47.481
-50.228,-49.688,-54.999,-56.616,-54.343,-54.524,-47.54,-48.133
-42.657,-40.814,-46.463,-48.046,-45.518,-45.997,-39.313,-39.732
-35.73,-35.187,-38.923,-40.357,-37.467,-38.501,-31.464,-30.375
-33.885,-35.395,-35.33,-39.296,-33.258,-37.938,-29.248,-28.425
-34.742,-36.997,-34.018,-41.709,-31.122,-40.512,-30.696,-32.141
-32.687,-34.934,-31.036,-40.337,-27.344,-38.728,-29.674,-32.762
-27.458,-29.943,-26.203,-34.334,-22.843,-32.601,-24.882,-27.457
-23.998,-26.287,-23.226,-29.787,-21.635,-28.493,-21.013,-22.15
-23.421,-24.447,-22.759,-29.019,-22.944,-27.835,-20.487,-21.269
-21.524,-21.462,-21.354,-27.244,-22.136,-25.657,-20.17,-21.947
-16.943,-17.021,-17.364,-21.45,-17.992,-19.741,-16.774,-19.352
-13.735,-14.432,-13.542,-15.901,-14.094,-14.545,-12.144,-14.516
-14.776,-16.236,-13.517,-16.073,-14.047,-15.277,-11.373,-13.648
-17.822,-20.759,-17.205,-20.949,-17.585,-20.872,-15.668,-18.772
-18.668,-23.125,-20.579,-24.308,-21.214,-24.655,-20.053,-23.994
-16.214,-20.952,-20.634,-23.036,-22.161,-22.829,-20.195,-24.128
-13.102,-16.936,-18.186,-20.111,-20.316,-18.807,-17.391,-20.556
-11.659,-14.348,-15.339,-18.61,-17.024,-16.85,-14.91,-16.65
-11.842,-14.006,-13.519,-18.277,-14.397,-16.959,-13.942,-14.275
-11.829,-14.544,-12.794,-18.153,-13.672,-17.425,-14.025,-14.121
-9.612,-13.787,-11.881,-18.082,-13.475,-17.555,-14.393,-15.216
-5.864,-11.641,-10.099,-17.771,-12.041,-17.134,-14.001,-15.431
-3.514,-9.964,-8.724,-16.657,-10.564,-15.743,-12.701,-14.183
-3.421,-9.072,-9.221,-14.643,-11.643,-13.429,-12.183,-13.138
-3.102,-7.228,-10.197,-11.786,-14.139,-10.641,-12.599,-12.575
-1.563,-4.894,-9.712,-9.29,-14.95,-8.517,-12.333,-11.357
-1.313,-5.384,-9.309,-9.734,-14.749,-9.045,-12.113,-10.771
-3.102,-8.505,-10.562,-13.004,-15.499,-12.068,-13.211,-12.191
-4.4,-9.675,-11.801,-15.809,-16.465,-14.623,-14.525,-13.869
-3.641,-6.834,-11.056,-15.954,-15.932,-14.541,-14.518,-13.642
-1.683,-2.898,-8.78,-14.102,-13.803,-12.476,-13.195,-11.962
0.13,-1.237,-7.019,-12.262,-11.957,-10.574,-11.939,-10.993
1.565,-1.556,-6.399,-11.056,-11.564,-9.325,-11.214,-10.981
2.158,-2.22,-6.097,-10.123,-11.862,-7.918,-10.179,-10.528
0.588,-3.757,-6.466,-10.173,-12.425,-7.263,-9.41,-10.316
-2.929,-6.643,-7.987,-11.238,-13.483,-8.205,-10.031,-11.509
-6.59,-9.262,-9.424,-11.815,-14.637,-9.253,-11.004,-12.575
-9.021,-10.199,-9.552,-11.498,-15.44,-9.254,-10.696,-11.804
-10.262,-10.371,-9.054,-11.652,-16.407,-9.268,-9.735,-10.345
-11.459,-11.291,-9.344,-12.9,-17.908,-10.288,-9.864,-10.207
-13.053,-12.204,-10.562,-13.909,-19.015,-11.444,-10.671,-10.925
-13.91,-11.397,-11.934,-13.629,-19.084,-11.622,-10.283,-10.472
-13.177,-9.426,-13.117,-13.161,-18.937,-11.431,-9.24,-9.081
-11.281,-8.305,-13.697,-13.615,-18.95,-11.845,-9.665,-8.86
-8.046,-7.541,-11.831,-13.163,-17.25,-11.395,-9.976,-8.762
-3.616,-5.106,-6.871,-10.017,-12.773,-8.547,-7.106,-6.086
-0.45,-2.022,-2.451,-6.536,-8.679,-5.525,-3.449,-2.849
0.596,-0.415,-1.687,-5.312,-7.8,-4.64,-2.887,-2.51
1.635,0.184,-2.879,-5.399,-8.497,-4.984,-3.808,-3.825
3.349,1.018,-3.55,-5.491,-8.49,-5.45,-3.154,-3.934
4.629,1.958,-3.298,-5.716,-7.587,-5.948,-1.716,-2.803
5.097,2.33,-2,-5.635,-5.884,-5.671,-0.986,-1.835
5.441,2.773,0.536,-3.98,-3.138,-3.469,0.442,-1.15
6.912,5.05,3.858,-0.395,0.388,0.46,3.954,0.249
10.637,9.777,8.062,4.614,4.391,5.284,8.473,3.098
16.048,15.486,13.519,10.33,8.915,10.829,13.142,7.341
20.833,20.266,18.856,15.458,13.552,16.515,18.89,12.71
22.863,23.031,21.758,18.536,17.05,20.633,25.816,19.164
21.541,23.264,21.487,19.053,18.208,21.731,31.541,25.64
18.815,21.926,19.358,17.895,17.143,20.338,33.615,29.599
16.295,19.805,15.27,14.942,13.206,17.113,29.968,28.048
12.096,15.077,7.169,8.563,4.567,11.077,18.741,19.828
6.617,8.585,-2.09,1.21,-5.364,4.185,4.354,9.387
4.756,5.742,-5.454,-1.428,-9.015,1.634,-3.268,3.883
7.749,8.122,-1.615,1.179,-4.927,4.265,-0.885,4.827
11.665,11.564,4.762,4.952,1.8,8.108,5.828,8.288
14.085,13.484,10.53,8.16,7.45,11.094,11.827,11.484
15.981,14.95,15.241,11.813,11.664,14.32,16.298,14.375
17.932,16.386,18.146,15.344,14.206,17.529,18.834,16.781
18.483,16.623,18.344,16.236,14.319,18.049,18.296,17.285
16.478,15.202,16.189,13.313,12.227,14.729,15.139,14.9
13.169,12.85,13.492,8.371,9.7,9.784,11.777,10.869
11.36,11.059,13.085,4.967,9.44,6.646,10.869,8.473
11.359,10.143,15.026,4.507,11.328,6.115,12.428,9.103
10.741,8.692,15.567,4.778,11.839,5.91,13.639,10.337
9.891,7.326,13.698,4.194,10.423,5.074,13.539,10.453
11.712,8.904,12.798,4.028,10.36,5.383,14.2,10.865
15.535,13.451,14.311,5.738,12.402,8.073,16.176,12.5
17.065,16.631,15.466,8.203,13.527,11.347,17.125,13.529
14.64,15.262,14.08,8.982,12.136,12.244,16.259,12.777
11.525,12.003,12.062,8.347,10.582,11.097,15.943,12.184
11.695,11.677,12.879,9.206,11.975,11.359,17.922,13.774
15.601,15.037,16.984,12.266,16.278,14.24,21.045,16.782
19.795,18.627,20.813,14.42,20.001,16.787,22.384,18.343
21.279,19.905,21.683,13.718,20.811,16.668,20.901,16.933
21.018,19.928,21.683,12.528,20.693,15.493,19.43,14.672
21.053,20.623,23.648,13.645,22.066,15.89,20.337,14.33
21.012,21.91,26.433,16.378,23.948,17.833,21.903,15.411
19.282,21.78,27.089,17.756,24.122,18.794,21.447,15.355
16.713,19.609,25.914,17.088,23.31,18.031,19.811,14.164
16.974,18.537,26.27,17.537,24.527,18.748,20.452,14.859
20.416,20.267,28.43,20.36,27.358,22.076,23.493,17.8
21.826,21.202,28.2,21.76,27.349,23.868,24.296,19.034
18.79,19.05,24.35,19.495,23.433,22.025,21.202,17.011
15.557,16.762,20.965,16.675,19.995,19.881,18.787,15.376
14.621,16.323,19.706,15.757,19.201,19.495,19.022,15.628
12.828,15.523,17.466,14.743,18.006,18.54,17.711,13.863
8.676,12.833,13.268,11.922,14.616,15.511,13.313,8.576
5.017,9.94,9.979,9.223,11.221,12.477,9.598,3.868
3.455,8.544,8.885,8.654,9.277,11.411,8.481,2.764
2.878,8.338,8.134,9.311,7.652,11.725,8.154,3.795
3.316,8.632,6.818,9.773,6.179,12.265,7.628,4.625
6.48,10.079,6.858,10.586,6.721,13.172,8.252,5.404
12.183,13.458,9.482,12.254,9.555,14.568,10.717,7.128
17.647,17.765,13.188,13.738,12.737,15.621,13.599,9.04
20.527,21.062,16.09,14.529,14.999,16.035,15.209,9.892
20.959,22.472,17.809,15.393,16.395,16.432,15.539,10.111
21.031,22.843,19.476,17.048,17.919,17.515,16.456,11.202
21.7,23.249,21.89,19.009,20.378,19.222,18.548,13.058
21.506,23.512,23.724,19.886,22.485,20.303,19.478,13.662
19.355,22.76,22.977,19.014,21.999,19.444,17.805,11.951
16.083,20.617,19.741,16.894,18.905,16.631,15.007,8.977
14.6,19.42,17.467,15.683,16.71,14.495,13.667,7.434
17.954,23.008,19.698,18.009,18.727,16.448,15.058,9.308
23.959,29.168,23.985,21.869,22.53,20.554,17.038,12.246
26.58,30.378,24.132,21.796,22.464,20.933,16.313,12.111
24.758,25.595,19.671,17.507,18.174,17.098,13.348,9.263
23.296,22.044,16.242,14.676,15.136,14.757,11.944,7.991
24.667,23.539,16.466,16.117,15.926,16.786,13.316,9.754
26.351,25.872,17.471,18.363,17.223,19.72,14.278,11.31
26.524,25.376,17.421,18.294,16.897,20.256,13.455,11.059
26.615,24.144,18.036,17.168,17.153,19.262,13.804,11.521
27.565,24.33,19.961,16.258,19.352,17.913,16.482,13.407
27.334,23.48,20.446,14.014,20.986,15.145,17.889,13.401
23.847,19.038,17.715,9.77,19.558,10.633,15.172,9.812
18.969,14.22,14.341,6.238,16.523,6.908,10.757,5.578
16.848,14.586,13.658,6.203,15.016,6.681,9.013,4.202
18.424,19.41,15.469,9.296,15.739,9.757,10.868,6.064
20.525,22.607,17.019,12.773,16.71,13.413,13.258,8.664
21.167,22.725,17.049,14.802,16.428,15.766,13.562,9.626
21.688,23.553,17.159,16.388,15.985,17.721,13.07,9.702
22.521,24.984,18.374,18.38,16.638,19.792,13.654,10.701
22.283,23.853,19.525,19.424,17.508,20.617,14.557,12.364
21.284,21.597,19.976,19.298,17.572,20.535,15.202,13.793
20.78,21.013,20.309,19.53,17.282,21.016,16.182,14.658
19.978,20.467,20.14,19.857,16.892,21.108,16.724,14.291
18.345,19.191,18.779,19.247,16.111,20.002,15.661,12.655
18.335,20.722,17.765,18.974,16.173,19.715,14.473,11.69
21.288,25.459,19.024,20.349,18.569,21.456,15.598,13.065
24.272,28.412,21.349,22.467,21.822,23.843,18.611,15.859
24.122,26.941,21.83,23.731,22.869,25.425,20.775,17.94
21.084,23.349,19.52,22.637,20.799,25.131,20.276,17.809
17.205,19.995,15.451,18.432,16.809,21.805,17.191,14.927
13.446,17.143,10.483,12.502,11.795,15.886,12.136,9.85
10.186,15.354,6.007,7.911,7.199,10.526,6.932,5.038
8.653,15.669,4.449,6.818,5.591,9,4.935,3.722
8.119,16.098,5.052,7.795,5.864,10.37,6.069,5.243
4.938,12.8,3.478,7.576,3.221,10.533,6.037,5.374
-0.783,7.34,-0.523,6.451,-2.008,9.055,4.157,3.827
-3.139,5.992,-1.87,7.753,-3.746,10.034,4.576,4.841
0.087,9.323,0.654,11.233,-0.788,14.171,7.62,8.666
3.92,11.717,2.711,13.113,1.777,16.949,8.661,10.45
4.861,11.234,2.533,12.519,1.878,16.067,6.478,8.411
3.749,9.737,1.537,10.985,1.252,13.329,4.125,5.471
1.375,7.282,-0.51,8.149,-0.081,10.172,2.685,3.504
-1.536,4.02,-3.574,3.746,-2.44,6.988,1.071,1.76
-3.167,2.349,-5.093,0.373,-3.77,5.006,-0.491,-0.271
-2.238,3.932,-3.805,0.974,-2.472,6.112,-0.658,-1.292
0.369,7.363,-1.945,5.084,-0.292,10.263,0.608,0.079
3.15,10.494,-0.681,9.727,1.073,14.776,2.691,3.592
8.334,15.185,4.151,15.174,5.196,19.569,7.863,9.895
19.815,25.628,16.744,25.314,16.753,28.866,19.376,21.452
32.753,38.164,30.761,37.23,30.498,40.729,32.672,34.704
34.141,40.369,32.603,39.027,33.379,43.329,35.667,37.768
21.727,28.851,20.799,27.669,23.32,32.615,25.363,26.948
8.935,15.73,8.88,15.509,12.637,20.353,13.315,14.293
3.744,9.228,4.261,10.474,7.811,14.768,7.622,8.855
0.983,5.13,1.987,7.52,4.043,11.456,4.811,6.804
-2.513,0.568,-0.624,3.392,0.225,7.767,2.133,4.284
-3.659,-1.485,-0.934,1.758,0.428,6.932,1.977,3.325
-3.439,-1.679,-0.702,2.333,2.209,7.364,2.97,3.459
-6.872,-4.791,-4.529,0.04,-0.625,3.935,0.093,0.672
-12.806,-10.6,-10.286,-4.475,-6.08,-1.454,-5.11,-3.937
-15.014,-13.595,-12.001,-5.821,-7.68,-2.851,-6.29,-5.111
-12.578,-11.783,-9.575,-3.721,-5.438,-0.521,-3.352,-2.784
-11.189,-9.844,-8.445,-3.314,-4.512,0.052,-2.193,-2.12
-15.027,-12.893,-12.047,-7.529,-7.847,-3.707,-5.665,-5.665
-20.594,-18.564,-16.999,-12.37,-12.625,-7.866,-9.686,-9.636
-20.739,-19.071,-16.772,-11.478,-13.129,-6.909,-8.549,-8.751
-15.111,-13.021,-11.323,-5.599,-8.985,-1.826,-3.1,-3.965
-10.661,-7.387,-7.784,-1.41,-6.179,1.457,0.111,-1.108
-10.403,-5.516,-9.16,-1.243,-7.258,1.237,-1.982,-2.373
-10.542,-4.083,-10.846,-2.234,-8.27,0.171,-6.019,-5.038
-9.72,-2.77,-10.26,-3.766,-7.358,-1.545,-8.419,-6.982
-10.294,-4.462,-9.923,-7.188,-7.348,-5.184,-9.122,-8.182
-12.035,-7.876,-11.443,-11.374,-9.763,-9.425,-9.984,-9.49
-13.64,-10.391,-14.214,-14.754,-13.282,-12.732,-12.542,-12.302
-14.608,-11.562,-16.47,-16.718,-15.477,-14.638,-15.558,-15.738
-12.501,-9.695,-15.449,-15.526,-14.066,-13.579,-15.809,-16.159
-6.332,-3.882,-10.887,-10.663,-9.753,-9.16,-12.624,-12.672
-0.441,1.874,-6.45,-5.598,-6.213,-4.93,-8.94,-8.889
1.176,3.16,-5.175,-4.135,-5.814,-4.409,-7.672,-7.894
0.367,0.786,-6.062,-5.877,-7.337,-6.315,-8.611,-8.983
0.191,-1.585,-6.671,-7.78,-8.591,-7.421,-9.939,-10.244
-0.299,-2.71,-6.723,-8.547,-9.354,-7.638,-11.07,-11.175
-2.282,-3.58,-6.97,-8.777,-10.102,-8.213,-11.809,-11.617
-3.492,-3.604,-6.798,-8.592,-9.941,-8.332,-11.616,-11.48
-2.336,-1.49,-5.803,-8.217,-8.502,-7.831,-11.34,-11.589
-0.979,0.856,-5.303,-8.78,-7.511,-8.601,-12.429,-12.511
-0.993,0.717,-5.483,-10.017,-7.454,-10.149,-13.79,-13.326
-1.267,-1.307,-4.958,-10.621,-6.538,-10.238,-13.472,-13.466
-1.528,-3.091,-3.574,-10.483,-4.104,-9.359,-11.733,-13.485
-1.972,-3.328,-1.489,-9.344,-0.748,-8.602,-8.411,-12.18
-1.363,-1.876,1.586,-6.713,3.017,-7.281,-2.369,-7.737
1.49,0.805,5.563,-2.886,7.196,-4.376,5.713,-0.908
6.612,4.806,10.751,2.266,12.564,0.674,14.223,6.728
11.337,8.351,15.614,6.962,17.358,5.49,20.35,12.808
10.074,5.951,14.594,5.471,15.79,4.021,18.658,12.325
0.077,-4.977,4.038,-5.259,4.76,-6.375,6.132,2.43
-12.739,-17.595,-10.303,-18.827,-9.451,-19.184,-10.966,-11.136
-19.094,-22.527,-18.052,-25.582,-16.734,-25.579,-21.384,-18.934
-17.887,-19.886,-17.146,-24.749,-15.676,-25.191,-21.962,-19.291
-15.242,-16.726,-13.923,-22.355,-12.699,-23.288,-18.633,-17.304
-13.318,-14.497,-10.968,-19.551,-9.956,-20.461,-14.944,-14.943
-9.301,-9.336,-5.747,-13.816,-4.759,-14.524,-10.192,-11.049
-3.631,-2.335,0.461,-7.379,1.532,-8.091,-5.871,-6.993
-0.047,1.669,3.356,-4.113,4.476,-4.81,-4.175,-4.984
0.977,2.122,3.166,-3.002,4.16,-3.318,-3.356,-4.01
1.435,1.289,2.913,-1.463,3.901,-1.28,-1.6,-2.496
0.797,-0.66,2.014,-0.622,3.51,-0.245,-1.647,-2.334
-2.688,-4.716,-2.234,-3.081,0.065,-2.584,-6.07,-5.916
-7.527,-9.804,-8.609,-7.876,-5.752,-6.845,-11.921,-11.246
-9.703,-12.639,-12.41,-11.021,-9.33,-9.301,-14.246,-13.778
-8.304,-12.094,-11.919,-11.147,-8.788,-9.205,-12.633,-12.583
-6.629,-11.211,-10.249,-11.042,-7.311,-9.144,-10.8,-11.256
-6.684,-12.208,-10.625,-12.775,-8.051,-10.602,-11.042,-12.314
-7.177,-13.472,-12.73,-14.786,-10.399,-12.311,-12.499,-14.188
-6.603,-13.024,-13.677,-14.438,-11.497,-12.329,-13.472,-14.309
-5.364,-11.419,-12.092,-11.943,-10.354,-10.523,-13.31,-12.78
-4.79,-9.7,-9.55,-9.801,-8.58,-8.551,-12.234,-11.322
-4.603,-7.186,-7.114,-8.342,-6.754,-7.048,-10.451,-10.01
-3.652,-4.209,-4.416,-6.277,-4.436,-5.536,-8.935,-8.446
-2.335,-3.375,-2.366,-4.789,-2.8,-5.008,-9.142,-8.013
-1.875,-5.332,-2.719,-5.847,-3.198,-6.625,-10.7,-9.633
-2.244,-7.104,-4.846,-7.796,-4.621,-8.474,-11.478,-11.306
-2.453,-6.482,-6.17,-7.446,-5.161,-7.864,-10.547,-10.708
-2.736,-5.249,-6.001,-5.505,-4.773,-5.987,-9.449,-8.972
-3.69,-5.479,-5.541,-4.858,-4.308,-5.587,-9.254,-8.377
-4.315,-5.866,-5.179,-5.218,-3.901,-6.105,-9.042,-8.472
-3.626,-4.656,-4.173,-3.954,-2.986,-5.033,-8.096,-7.557
-2.511,-3.191,-2.134,-0.946,-0.859,-2.31,-6.867,-5.883
-3.309,-4.475,-0.832,0.15,1.077,-1.263,-6.714,-5.931
-7.08,-8.648,-2.347,-2.704,0.305,-3.712,-8.543,-8.727
-11.212,-11.914,-5.117,-5.812,-2.544,-6.236,-10.855,-11.522
-12.013,-11.665,-5.976,-5.421,-4.729,-5.756,-11.492,-11.737
-9.785,-10.307,-5.357,-3.862,-5.905,-4.891,-11.03,-10.699
-8.415,-11.155,-6.122,-4.629,-7.721,-6.47,-11.459,-10.885
-9.099,-12.958,-7.882,-5.668,-9.377,-7.876,-11.856,-11.432
-9.845,-13.635,-7.84,-4.108,-8.68,-6.461,-10.182,-10.338
-10.637,-15.193,-6.439,-2.465,-7.028,-4.894,-8.272,-9.112
-11.921,-18.301,-6.077,-3.671,-7.036,-5.942,-8.903,-9.957
-11.555,-18.809,-6.342,-5.655,-7.765,-7.513,-10.864,-11.447
-8.091,-14.483,-5.374,-5.084,-7.079,-6.611,-11.224,-11.104
-3.676,-9.206,-3.951,-2.905,-5.744,-4.631,-10.052,-9.653
-1.617,-7.623,-4.408,-2.767,-5.868,-4.959,-9.713,-9.396
-2.112,-8.547,-6.062,-4.658,-6.912,-6.643,-10.183,-9.749
-2.578,-7.549,-5.997,-4.907,-6.874,-6.066,-9.581,-8.745
-1.555,-4.217,-3.869,-2.47,-5.672,-3.484,-7.973,-6.768
0.207,-1.467,-1.82,-0.08,-4.365,-1.981,-6.76,-5.348
2.264,0.623,-0.317,1.064,-2.811,-1.659,-6.22,-4.528
5.389,4.277,2.235,3.015,-0.101,0.161,-5.374,-3.03
8.846,8.23,5.489,6.019,3.091,3.459,-4.109,-0.98
10.383,9.146,6.909,7.329,4.775,5.265,-3.771,-0.13
9.651,7.599,5.916,6.224,4.262,4.723,-4.806,-0.71
8.75,7.1,4.94,5.122,3.215,3.974,-5.459,-0.943
8.962,8.33,5.612,5.271,3.569,4.206,-4.302,0.003
8.606,8.379,6.118,4.73,4.427,3.803,-3.166,0.125
7.171,6.999,5.3,2.865,4.395,2.206,-3.876,-1.987
7.249,7.502,5.338,2.379,4.961,1.814,-4.772,-4.057
8.443,9.217,6.589,3.632,6.63,2.823,-4.642,-4.331
7.674,8.478,6.686,4.057,7.226,2.773,-4.53,-4.086
5.839,6.381,5.692,3.673,6.438,2.084,-4.605,-4.126
6.56,6.789,6.076,4.76,6.807,3.329,-3.64,-3.096
10.292,9.606,8.871,7.684,9.752,6.622,-1.028,-0.024
13.442,11.173,11.831,9.869,12.707,8.972,1.345,2.655
13.199,9.456,11.717,8.943,12.074,7.768,0.725,1.652
11.313,6.325,9.133,6.514,8.835,4.56,-2.064,-1.419
10.482,4.346,7.329,5.674,6.798,2.794,-3.64,-2.423
9.795,3.4,6.527,5.641,6.139,2.385,-3.707,-1.917
8.307,2.803,5.741,4.816,5.148,1.906,-4.031,-2.53
7.892,3.056,6.032,5.089,4.662,2.501,-3.953,-2.997
8.505,3.27,7.063,7.013,5.09,4.22,-2.934,-1.93
7.801,2.163,7.282,7.884,5.108,4.835,-2.64,-1.115
5.687,0.573,7.04,6.727,4.377,3.93,-3.725,-1.953
3.987,-0.241,6.942,5.268,3.681,3.122,-4.896,-3.399
3.341,-0.18,6.673,4.842,3.904,3.365,-4.884,-3.613
2.146,-0.477,6.009,4.8,4.615,3.91,-3.848,-2.699
-0.537,-2.099,5.481,4.478,4.6,4.11,-2.63,-2.042
-3.04,-4.246,5.74,4.659,4.181,4.515,-1.655,-1.409
-4.192,-6.13,6.531,6.026,4.713,5.473,-0.496,0.454
-4.933,-7.987,7.378,8.029,6.442,6.56,1.703,3.257
-6.818,-10.457,7.38,8.45,7.415,6.476,3.582,4.426
-10.078,-13.299,5.492,6.022,5.887,4.725,2.885,2.707
-13.116,-14.831,2.557,3.246,2.979,3.375,0.626,0.576
-14.918,-14.625,0.352,2.521,0.811,3.597,-0.853,-0.105
-15.907,-14.149,-0.28,3.125,0.487,3.842,-0.967,-0.079
-16.636,-14.102,0.511,3.743,1.584,3.145,-0.229,0.231
-17.305,-14.165,1.8,4.056,2.529,2.278,0.901,1.119
-18.022,-14.722,2.454,3.821,2.382,1.615,1.848,1.871
-19.277,-16.757,1.505,2.051,0.795,-0.022,1.204,0.931
-20.931,-19.819,-1.446,-1.728,-2.608,-3.343,-1.745,-1.861
-20.811,-21.219,-4.578,-5.253,-6.024,-6.152,-4.628,-3.976
-16.792,-18.379,-4.508,-4.971,-5.641,-5.367,-3.98,-2.604
-11.014,-13.024,-1.631,-1.794,-1.937,-2.216,-0.667,0.774
-8.224,-10.375,-0.222,-0.945,-0.009,-1.475,0.955,1.865
-9.341,-12.249,-0.888,-3.522,-0.864,-4.1,0.217,0.596
-11.472,-15.278,-0.36,-5.178,-1.065,-6.068,0.067,0.395
-12.647,-16.332,1.701,-3.774,0.191,-5.024,1.263,1.817
-13.138,-16.157,2.391,-2.114,0.717,-3.414,1.891,2.236
-13.593,-16.912,0.907,-2.678,-0.411,-4.139,0.913,0.409
-13.658,-17.85,-0.11,-3.531,-1.533,-5.737,-0.441,-1.549
-13.332,-17.02,0.873,-2.029,-1.167,-4.967,-0.913,-1.596
-13.605,-15.641,2.159,0.534,0.005,-2.418,-0.458,-0.422
-15.12,-16.4,1.951,0.904,0.53,-1.551,0.505,0.437
-17.701,-19.285,0.093,-1.705,-0.388,-3.309,1.056,0.434
-20.39,-22.009,-2.917,-4.968,-2.669,-5.145,0.717,0.133
-21.797,-23.078,-6.066,-6.444,-5.101,-4.924,0.578,0.845
-22,-23.317,-8.236,-6.265,-6.295,-3.655,1.314,2.788
-23.918,-25.267,-10.138,-6.988,-7.173,-4.227,0.878,3.271
-28.877,-29.132,-12.609,-9.297,-8.861,-6.763,-1.802,0.776
-32.701,-31.092,-13.82,-10.015,-9.05,-7.741,-3.179,-1.138
-32.069,-29.447,-12.533,-7.801,-6.23,-5.803,-0.793,0.164
-29.174,-26.819,-10.188,-5.451,-2.809,-3.491,2.528,2.235
-26.894,-24.705,-8.097,-5.226,-0.754,-2.971,3.438,2.477
-25.125,-21.818,-6.147,-6.09,0.757,-3.463,2.625,1.804
-22.8,-17.569,-4.151,-5.69,2.564,-2.767,2.99,2.604
-21.237,-14.338,-3.597,-4.905,2.959,-1.766,4.001,4.001
-21.79,-13.983,-5.38,-6.378,0.814,-3.299,2.789,2.972
-21.568,-13.876,-6.697,-8.041,-1.034,-5.554,0.391,0.651
-17.61,-11.074,-4.868,-5.951,0.089,-4.369,-0.065,0.632
-11.994,-7.129,-1.31,-1.491,2.724,-0.448,1.418,2.792
-8.431,-5.001,1.168,1.101,3.885,2.308,2.699,4.505
-7.289,-4.701,1.888,1.011,3.143,2.504,2.847,4.885
-6.661,-4.589,1.623,0.157,2.387,1.49,2.335,4.325
-5.806,-4.093,0.783,-0.232,2.451,0.934,1.784,3.319
-5.161,-3.381,-0.574,-0.077,2.054,1.477,1.323,2.632
-5.052,-2.878,-2.946,-0.68,-0.554,1.516,-0.387,1.179
-5.15,-2.804,-6.551,-3.022,-5.111,-0.545,-3.98,-2.218
-5.508,-3.158,-10.493,-5.673,-9.601,-3.352,-7.348,-5.341
-7.062,-4.422,-14.121,-7.252,-13.126,-5.176,-9.117,-6.415
-8.505,-5.787,-16.34,-7.852,-15.214,-5.841,-9.77,-6.181
-7.554,-5.669,-15.871,-7.986,-15.101,-5.831,-9.606,-5.225
-5.678,-4.618,-13.822,-7.966,-13.508,-5.78,-8.831,-3.849
-5.671,-4.328,-12.178,-7.43,-12.024,-5.727,-7.853,-2.668
-7.236,-5.504,-11.02,-6.465,-11.319,-5.756,-7.172,-2.24
-8.474,-7.61,-9.741,-6.398,-10.976,-6.783,-7.135,-2.819
-8.966,-9.688,-9.028,-7.991,-10.578,-9.029,-7.629,-4.222
-8.356,-10.284,-8.955,-9.293,-9.794,-10.532,-7.759,-5.19
-5.373,-7.824,-7.539,-7.635,-8.061,-8.909,-6.205,-3.946
-1.229,-3.343,-3.888,-3.777,-5.284,-4.826,-2.656,-0.419
0.571,-0.218,0.061,-0.997,-2.071,-1.709,1.453,3.095
-0.387,0.317,2.528,-0.651,0.722,-1.399,4.219,4.211
0.237,0.943,4.972,-0.165,3.62,-1.342,6.557,4.558
4.483,3.305,8.816,2.738,7.399,1.279,10.893,7.786
8.027,4.899,11.295,5.805,10.103,4.627,16.106,12.926
7.959,4.397,10.243,6.611,9.976,5.864,19.17,16.302
5.401,2.761,6.828,5.208,7.191,4.508,17.869,16.073
-1.014,-1.754,0.253,0.339,0.344,-0.358,9.507,10.75
-12.116,-10.107,-10.582,-8.68,-11.107,-8.815,-5.507,-0.001
-20.595,-16.021,-19.784,-16.505,-20.971,-15.52,-18.945,-10.832
-18.867,-13.089,-19.941,-16.628,-21.945,-14.582,-22.21,-14.228
-11.758,-5.53,-14.16,-11.673,-16.933,-9.311,-17.785,-11.114
-8.733,-1.458,-11.218,-9.205,-14.343,-7.385,-14.056,-8.939
-9.587,-1.016,-12.414,-9.807,-15.156,-8.721,-12.968,-9.605
-8.943,-0.31,-13.078,-9.209,-15.018,-8.333,-11.749,-9.459
-6.276,1.04,-11.448,-6.68,-13.143,-5.539,-10.127,-7.414
-4.432,1.3,-9.273,-4.425,-11.284,-2.903,-9.307,-5.37
-3.936,0.198,-6.921,-3.113,-8.82,-1.224,-7.833,-3.55
-2.983,-0.677,-3.639,-2.043,-5.038,-0.016,-4.219,-0.957
-1.206,-0.061,-1.647,-1.525,-2.798,0.212,-1.518,1.011
-0.143,1.385,-3.431,-2.086,-4.23,-0.642,-2.543,0.448
-0.606,2.002,-6.747,-3.213,-6.726,-1.447,-4.663,-1.558
-1.178,1.442,-7.503,-3.773,-6.663,-1.614,-4.317,-2.255
-0.318,0.851,-5.383,-3.02,-4.026,-1.384,-2.139,-0.684
0.594,0.295,-3.686,-2.028,-2.046,-1.502,-1.327,1.049
-0.706,-1.289,-4.636,-2.416,-2.932,-2.642,-2.766,0.86
-4.105,-3.973,-7.436,-3.945,-5.745,-4.289,-4.14,-0.377
-7.63,-6.385,-9.708,-4.729,-7.677,-4.865,-3.152,-0.02
-9.245,-6.93,-9.089,-3.118,-5.999,-3.059,0.408,3.117
-8.708,-6.017,-5.903,-0.423,-1.333,-0.239,4.122,6.551
-7.19,-5.321,-3.572,0.2,1.952,0.508,5.114,7.039
-4.612,-4.189,-3.694,-0.759,1.523,-0.257,4.007,5.506
0.012,-0.588,-3.488,0.431,0.46,1.109,4.071,5.506
4.958,4.038,-1.354,3.639,1.381,4.197,5.877,7.357
6.726,5.997,-0.137,4.73,2.038,4.932,6.931,8.268
5.288,5.242,-1.429,3.025,0.794,3.098,6.406,7.489
3.239,4.341,-3.143,1.544,-0.447,1.933,5.254,6.264
1.802,4.169,-3.698,1.083,-0.361,1.963,4.305,5.415
0.968,4.058,-3.68,-0.161,-0.04,1.058,4.337,5.254
0.733,3.379,-3.95,-2.575,-0.492,-1.231,4.961,5.052
1.36,2.555,-4.327,-4.193,-0.895,-2.915,5.065,4.114
2.218,2.123,-4.863,-4.26,-1.254,-3.35,4.22,2.865
2.618,2.293,-5.704,-3.824,-2.662,-3.664,2.89,2.161
3.656,3.982,-5.627,-2.972,-4.164,-3.405,2.137,2.646
5.616,7.165,-3.799,-1.467,-4.255,-1.832,2.226,3.627
7.449,10.364,-0.203,0.514,-2.106,0.006,3.316,4.407
8.904,12.092,4.62,2.457,2.584,0.882,5.925,5.719
9.005,10.666,7.533,2.609,7.003,0.149,8.44,7.1
6.622,5.583,5.794,0.191,7.327,-2.012,8.549,6.64
4.188,0.062,1.987,-2.277,4.529,-3.709,7.43,4.994
4.897,-1.883,0.024,-2.623,2.261,-3.631,7.287,4.516
7.005,-1.073,-0.665,-2.743,0.917,-3.751,6.549,4.167
8.035,-0.095,-1.225,-3.912,0.208,-4.997,4.213,2.481
9.342,1.808,-0.046,-3.682,1.793,-4.559,3.206,1.706
10.457,3.983,1.781,-2.246,3.927,-2.633,3.742,2.336
8.345,2.815,0.567,-3.029,2.469,-3.093,2.683,1.738
4.669,-0.504,-2.257,-5.105,-0.996,-5.061,0.779,0.41
4.656,-0.369,-1.655,-4.337,-1.082,-4.091,1.72,1.404
8.247,3.468,1.689,-1.58,1.884,-1.348,4.806,3.918
9.966,5.61,2.475,-1.454,2.888,-1.732,5.864,4.196
7.927,4.256,0.21,-4.08,1.553,-4.725,4.579,2.26
5.714,2.496,-1.138,-5.716,1.375,-6.183,3.662,1.18
5.948,2.408,-0.522,-5.259,2.426,-5.69,3.499,1.78
7.118,3.265,-0.583,-4.668,1.85,-5.592,2.934,2.478
6.534,3.43,-2.934,-5.56,-0.992,-7.025,1.634,1.734
4.498,2.387,-5.752,-7.366,-3.688,-9.364,0.159,0.033
3.556,1.382,-6.619,-7.996,-4.614,-10.67,-0.7,-0.47
4.503,1.961,-5.839,-6.308,-4.707,-9.336,-0.515,1.082
5.194,3.337,-5.627,-4.147,-5.539,-6.784,0.223,2.794
3.335,2.534,-7.149,-4.523,-7.699,-6.424,0.11,2.36
0.499,-0.451,-8.537,-6.609,-9.6,-8.384,-1.098,0.571
0.563,-1.567,-7.019,-6.1,-8.615,-8.514,-1.557,0.275
3.552,0.461,-3.12,-1.88,-4.911,-4.867,0.171,2.126
5.736,1.87,0.086,2.119,-1.577,-0.942,2.677,3.904
5.818,0.567,1.294,2.964,-0.501,0.165,3.142,3.804
5.657,-0.699,1.237,2.08,-1.22,-0.34,1.158,2.485
5.529,0.159,-0.049,1.094,-3.36,-0.889,-1.297,1.131
4.68,1.995,-2.253,0.073,-6.108,-1.224,-2.684,0.068
4.056,3.805,-3.668,0.036,-7.474,-0.318,-3.081,-0.414
4.288,5.658,-3.845,2.12,-7.089,2.518,-3.081,0.081
4.768,7.62,-4.148,5.532,-6.724,6.149,-2.282,1.757
5.063,9.269,-5.73,7.727,-8.088,8.374,-1.088,3.524
4.955,9.45,-8.559,6.534,-11.058,7.54,-1.302,3.423
4.189,7.343,-11.21,2.882,-13.465,4.463,-2.81,1.712
3.89,4.622,-11.012,0.443,-12.69,2.222,-2.927,1.366
6.223,4.619,-6.55,1.419,-7.801,2.846,-0.051,4.062
9.417,6.727,-1.539,3.188,-2.073,4.438,3.05,6.751
9.358,7.035,-0.511,2.79,0.175,4.478,3.207,6.181
7.765,6.307,-0.861,2.59,0.447,4.544,2.545,4.891
9.322,8.652,2.152,5.325,2.98,6.666,4.069,6.45
12.94,13.393,6.589,8.376,7.166,8.794,6.031,8.933
14.276,16.437,8.272,8.797,9.619,8.835,6.118,8.94
13.836,17.495,8.358,8.735,10.257,8.604,5.902,7.807
14.675,18.7,9.032,10.131,10.256,9.387,6.41,7.736
15.629,19.352,8.16,10.389,8.325,9.011,5.225,6.883
14.531,18.467,4.668,8.466,4.268,6.973,2.044,4.424
12.38,16.977,1.083,6.609,0.143,5.264,-0.438,2.555
10.778,15.296,-1.361,5.235,-3.215,3.958,-1.758,1.368
10.429,13.86,-3.133,3.654,-5.854,2.52,-3.157,-0.267
11.638,14.049,-3.61,2.953,-6.907,2.223,-3.953,-1.034
13.965,16.017,-1.914,4.322,-5.47,3.937,-2.473,0.733
15.915,17.905,0.665,6.502,-2.654,6.176,0.328,3.603
16.311,18.403,1.87,7.171,-0.728,6.626,1.651,4.819
15.386,17.891,1.357,5.893,-0.474,4.565,1.076,4.026
13.934,16.954,0.389,4.071,-1.11,1.503,0.574,2.87
13.106,16.336,0.472,3.441,-1.141,0.05,1.234,2.593
13.984,16.613,2.482,4.485,0.589,1.141,2.307,3.166
16.088,17.06,5.724,6.163,3.729,3.191,3.324,4.388
16.902,16.211,8.211,7.408,6.611,4.746,4.735,6.274
14.348,13.185,8.432,7.434,7.509,5.428,6.061,7.842
10.248,8.942,7.006,6.121,6.413,5.028,6.773,8.387
8.154,5.721,5.887,4.844,4.953,3.949,7.825,8.827
8.191,4.494,5.624,4.8,4.15,3.061,9.271,9.263
7.047,3.899,4.202,4.589,2.955,1.967,8.739,7.867
3.272,2.908,0.461,2.511,0.332,-0.208,5.681,4.761
-0.14,2.63,-3.067,0.211,-2.078,-2.391,3.743,3.298
-1.04,2.994,-4.261,-0.192,-2.64,-3.001,4.643,4.454
-0.625,2.494,-3.761,0.948,-1.679,-1.852,5.981,5.857
0.618,1.902,-1.932,2.822,0.603,0.461,6.697,6.634
3.255,2.774,1.105,4.82,3.654,2.738,7.517,7.187
6.56,4.452,4.221,6.039,6.074,4.116,8.362,7.236
8.414,4.873,5.857,5.837,6.919,4.596,8.542,6.386
7.978,3.874,5.698,5.048,6.494,4.597,7.985,5.143
7.729,4.672,6.283,6.06,6.914,5.601,8.156,5.295
9.796,9.155,9.759,9.503,9.951,8.61,10.226,7.595
12.964,14.475,14.399,13.148,14.533,12.116,13.324,10.448
15.272,17.181,17.535,15.064,18.105,14.014,15.814,12.155
16.094,17.163,18.49,14.774,19.021,13.539,16.271,11.95
15.808,16.45,17.718,12.725,17.454,11.276,13.967,9.613
15.055,16.013,16.161,10.472,14.953,8.909,10.125,6.197
13.706,14.617,14.365,8.87,12.414,7.301,6.578,3.136
11.59,11.946,11.927,6.764,9.394,5.363,3.336,0.304
10.242,10.628,9.639,4.189,6.755,3.05,0.824,-1.905
10.424,11.643,9.008,3.164,6.281,2.34,1.089,-1.639
10.201,12.261,9.492,3.912,7.544,3.554,3.828,0.569
8.662,11.183,9.755,4.564,8.902,4.495,5.903,1.76
6.389,9.215,8.78,3.295,8.809,3.044,4.821,0.199
3.477,6.447,5.627,-0.32,6.168,-0.73,0.886,-3.279
1.548,4.252,1.47,-3.85,2.342,-3.842,-2.628,-6.04
2.821,4.947,-0.917,-4.302,0.025,-3.47,-2.779,-6.128
5.941,7.381,-0.755,-2.424,0.078,-0.971,-0.441,-4.158
7.296,8.169,0.467,-1.434,1.516,0.011,1.637,-2.1
5.682,6.691,1.507,-2.414,3.014,-1.481,2.505,-1.021
2.747,4.535,2.042,-4.178,3.563,-3.589,2.411,-0.962
0.529,2.27,2.206,-5.879,3.459,-5.043,1.418,-1.717
0.21,0.355,2.752,-6.813,4.357,-5.656,0.584,-2.34
1.305,0.183,4.138,-5.892,6.301,-4.811,1.133,-1.878
2.45,2.205,5.922,-2.663,7.436,-1.741,2.937,-0.259
3.561,5.031,7.99,1.859,7.996,2.864,5.862,2.622
5.64,7.498,10.924,5.957,10.37,7.141,10.33,6.65
9.089,10.362,14.851,9.655,15.058,10.718,15.973,10.998
12.846,13.909,18.733,14.019,19.787,14.438,21.409,14.978
15.597,16.62,21.729,18.506,23.075,17.924,26.309,18.979
17.083,17.77,24.272,21.854,25.596,20.318,31.265,23.627
16.626,17.307,25.567,22.857,26.572,20.815,33.903,26.816
12.489,14.017,22.376,19.526,22.625,17.547,29.323,24.255
4.25,7.121,13.067,10.895,12.186,9.434,16.151,14.866
-4.88,-1.078,1.749,0.289,-0.268,-0.415,0.167,3.288
-10.309,-6.492,-5.054,-6.633,-7.572,-6.681,-10.257,-4.706
-11.245,-7.257,-6,-7.985,-8.114,-7.675,-12.389,-7.423
-9.82,-4.156,-4.164,-5.747,-5.416,-5.205,-9.131,-6.038
-7.29,0.591,-1.372,-2.032,-1.863,-1.151,-3.868,-2.374
-4.32,3.972,1.555,1.158,1.589,2.154,0.353,0.754
-2.231,4.408,3.046,2.112,3.287,2.513,1.009,1.063
-2.445,2.426,2.048,0.843,1.81,0.356,-1.646,-1.1
-3.801,0.421,0.026,-0.572,-1.219,-1.315,-4.059,-2.957
-3.101,1.628,-0.017,0.214,-1.847,-0.034,-3.147,-2.167
-0.333,5.689,2.337,2.835,0.909,3.23,-0.215,0.321
0.729,7.617,3.909,4.265,3.32,5.189,0.786,1.481
-1.681,4.647,2.497,3.245,2.255,4.431,-1.489,0.123
-4.084,0.988,0.73,3.074,0.016,3.767,-3.721,-1.056
-3.439,1.099,1.977,6.111,0.37,5.795,-2.865,0.416
-2.104,2.848,4.44,8.778,2.503,7.702,-0.521,2.414
-2.644,2.38,4.321,7.301,3.219,5.632,0.153,1.739
-3.405,0.003,2.044,3.552,1.887,0.991,-1.339,-0.973
-2.303,-1.573,1.273,1.767,0.913,-1.761,-2.299,-2.087
-0.688,-1.003,3.342,3.013,2.269,-0.928,-0.574,-0.059
-0.684,1.143,6.079,5.288,4.874,1.491,2.06,2.564
-1.491,3.726,7.511,6.959,6.462,3.382,3.046,3.453
-1.787,5.03,7.249,7.087,6.163,3.761,2.21,2.641
-2.287,3.619,5.701,5.025,4.561,2.124,0.376,0.518
-3.676,0.274,3.78,1.748,2.421,-0.572,-1.799,-2.447
-4.969,-2.889,2.273,-0.569,0.288,-2.473,-3.563,-4.786
-4.879,-4.441,1.599,-0.904,-1.009,-3.174,-4.263,-5.224
-3.662,-4.188,1.538,-0.324,-1.16,-3.455,-4.025,-4.324
-2.423,-2.923,1.15,0.089,-0.891,-2.935,-3.355,-3.091
-1.641,-2.013,-0.311,0.402,-1.15,-1.054,-2.769,-1.873
-1.45,-2.462,-3.042,-0.058,-2.735,0.025,-3.228,-1.898
-2.191,-3.912,-6.752,-2.549,-5.914,-2.148,-5.243,-4.382
-3.595,-4.951,-10.115,-6.224,-9.513,-6.102,-7.745,-7.879
-4.252,-4.394,-11.422,-8.554,-11.38,-8.658,-8.996,-9.571
-3.444,-2.433,-10.462,-8.549,-10.763,-9.117,-8.213,-8.802
-1.495,0.026,-7.861,-6.711,-8.337,-7.976,-5.548,-6.628
1.445,2.49,-4.213,-3.496,-4.758,-5.189,-2.011,-3.793
4.228,4.042,-1.299,-0.489,-1.556,-2.36,0.212,-1.489
5.205,4.026,-0.363,0.572,-0.23,-1.783,0.344,-0.88
4.871,3.813,0.029,0.495,0.045,-2.752,0.363,-1.314
5.012,4.718,1.351,1.085,0.841,-2.868,1.682,-1.107
4.974,5.085,2.145,2,1.425,-1.893,2.713,-0.141
2.135,2.952,0.393,1.783,0.02,-1.262,1.464,-0.041
-2.241,0.369,-2.157,1.178,-2.089,-0.816,-0.573,-0.776
-3.958,-0.29,-2.56,1.355,-2.467,0.012,-0.982,-1.062
-3.167,-0.844,-1.302,1.027,-1.524,-0.097,-0.42,-1.23
-2.758,-2.133,0.637,0.162,0.234,-0.883,0.593,-0.967
-2.617,-1.503,3.838,1.107,3.343,-0.062,2.841,0.818
-1.461,0.983,7.071,3.263,6.294,1.486,4.813,2.456
0.235,2.303,8.48,3.93,7.503,1.485,4.967,2.467
1.975,2.481,9.163,3.827,8.13,1.252,4.985,2.741
3.266,3.379,10.308,4.635,8.88,2.141,5.651,3.658
2.274,4.018,10.41,4.829,8.418,1.97,4.987,2.666
-1.058,3.079,9.003,3.575,6.995,-0.01,3.131,0.322
-3.818,1.923,8.469,3.017,6.823,-0.739,2.725,0.032
-4.138,1.999,10.241,4.17,8.554,1.291,4.423,2.325
-2.586,3.223,12.852,5.799,10.548,4.233,6.591,5.11
-0.636,4.57,14.009,6.996,10.84,6.576,7.622,6.798
0.303,4.513,12.942,7.786,8.976,8.121,6.839,6.771
0.119,2.771,10.481,8.476,6.028,9.02,4.665,5.232
0.701,1.791,8.269,10.314,3.667,10.752,2.905,3.893
3.719,4.218,8.473,14.747,3.823,15.131,3.603,4.903
7.204,7.814,10.928,19.529,6.218,19.804,5.55,7.218
7.185,7.042,11.17,19.357,6.944,19.372,4.753,7.149
3.353,1.692,6.393,13.411,3.67,13.444,0.666,3.889
-0.103,-2.174,0.839,7.652,-0.151,8.076,-2.115,0.842
0.08,-1.166,-0.245,6.747,-0.356,7.597,-0.586,0.772
2.919,2.091,2.16,8.574,2.101,9.959,2.64,2.593
6.264,4.849,4.621,9.425,4.627,11.362,4.622,4.146
8.635,6.32,6.105,8.398,6.751,10.149,5.22,4.585
8.412,5.506,6.372,5.661,7.83,6.017,4.339,3.602
6.607,3.624,5.875,2.857,7.505,1.318,2.46,2.078
6.639,3.969,6.472,2.837,7.601,0.145,1.897,1.761
8.692,6.353,8.599,5.455,9.233,2.604,3.891,2.855
9.464,7.518,10.129,7.544,10.706,5.048,6.396,4.016
7.911,6.649,9.615,7.721,10.636,5.976,6.964,4.566
6.648,5.677,8.228,7.259,10.089,6.632,6.291,4.932
6.857,5.048,7.443,6.558,10.072,7.045,6.073,5.016
6.418,3.622,7.389,5.374,10.09,6.351,6.192,4.695
4.266,1.981,7.628,4.877,9.577,5.453,6.139,4.827
2.62,1.808,7.685,5.3,8.788,5.303,6.114,5.343
3.369,2.538,7.013,4.592,8.028,4.749,5.781,4.721
5.894,2.669,6.025,2.809,7.565,3.429,5.045,3.335
9.707,3.653,7.031,3.786,8.962,4.172,5.872,4.253
13.702,6.503,10.67,8.359,12.515,8.19,8.861,7.85
14.736,7.756,13.762,12.037,15.063,11.897,11.143,10.493
12.185,5.198,13.914,12.402,14.409,12.693,11.077,10.467
9.088,1.943,12.005,11.777,11.874,12.426,10.166,9.354
7.531,1.121,10.351,12.652,10.039,13.367,10.328,8.935
6.879,1.563,10.487,14.682,10.129,14.861,11.576,9.732
6.177,1.205,11.619,15.86,11.208,14.855,12.45,10.87
5.768,0.718,12.306,15.511,12.396,13.337,12.647,11.312
5.535,0.731,12.382,14.367,13.728,11.895,12.527,10.567
4.54,0.26,12.144,12.741,14.595,10.938,11.607,8.73
2.925,-0.78,11.595,10.818,14.05,10.206,9.956,6.919
1.686,-1.562,11.013,9.599,12.71,10.283,8.972,6.709
1.618,-1.386,11.738,10.483,13.14,12.01,10.434,8.974
2.793,0.173,14.684,13.407,16.657,15.11,14.194,12.619
4.349,2.517,18.121,16.182,20.728,17.939,17.126,14.816
5.245,4.262,19.322,16.905,22.07,18.95,16.896,13.972
5.181,4.706,18.154,15.796,20.918,18.155,15.076,11.482
4.387,4.188,16.656,14.129,19.621,16.72,14.097,9.716
3.1,3.266,15.686,12.981,18.975,15.737,14.099,9.603
2.487,2.848,14.984,13.127,18.85,16.063,14.442,10.647
3.717,3.483,14.774,14.304,19.209,17.763,14.593,11.34
5.574,3.978,14.917,15.137,19.313,19.225,14.118,10.33
6.375,3.368,14.814,14.974,18.902,18.983,13.854,8.828
6.788,2.806,14.477,14.493,18.58,17.84,14.73,9.188
8.446,3.6,14.316,14.364,18.522,17.286,16.026,11.032
10.877,4.998,14.119,13.99,18.325,16.792,16.221,11.588
11.677,5.261,13.455,12.531,17.887,14.998,14.915,9.884
10.092,4.434,12.956,10.939,17.79,12.737,13.413,8.133
7.574,3.636,12.813,10.209,17.839,11.259,12.652,7.642
5.375,2.704,11.862,9.394,17.179,9.665,12.316,7.066
4.367,1.637,10.028,7.891,16.122,7.339,11.844,5.585
4.848,1.846,8.082,6.503,14.764,5.31,10.39,3.725
5.111,3.188,5.492,5.216,11.809,3.707,7.704,1.539
3.381,3.262,1.918,2.939,7.131,1.29,4.718,-1.27
1.493,2.055,-0.732,0.42,3.401,-1.439,2.451,-3.518
2.531,2.717,-0.274,0.556,3.363,-1.57,2.096,-3.111
5.854,6.347,2.748,4.211,6.316,2.017,4.116,-0.271
8.545,10.179,5.491,8.204,8.86,6.22,6.283,2.107
9.007,10.857,5.641,8.857,8.527,7.17,5.707,1.76
7.243,8.105,3.697,6.462,5.935,4.934,2.911,-0.476
4.518,4.889,1.896,4.315,3.609,2.967,0.964,-2.055
2.75,3.236,0.874,3.843,2.752,3.018,0.705,-2.121
2.854,2.357,-0.114,3.938,2.467,3.76,0.438,-1.666
4.369,1.833,-0.613,4.1,2.318,4.397,0.183,-0.925
7.003,3.048,0.412,4.944,3.344,5.678,1.944,0.648
10.524,5.959,2.296,6.109,5.362,7.102,5.351,2.339
13.062,7.753,2.869,5.969,5.92,6.771,6.978,2.554
12.529,6.543,0.835,3.74,3.636,4.476,4.47,0.495
9.394,3.571,-2.742,0.48,-0.084,1.849,-0.768,-3.369
6.504,1.577,-4.753,-1.572,-2.455,0.375,-4.2,-6.351
6.422,2.472,-2.654,-0.851,-1.246,0.927,-2.807,-5.475
8.618,5.157,1.865,1.358,2.581,2.824,0.622,-2.275
9.817,6.454,4.278,2.473,5.259,3.913,1.826,-0.752
8.252,5.447,3.215,1.904,4.881,3.317,0.841,-1.643
6.311,4.557,1.551,0.762,3.417,1.988,-0.152,-3.07
6.682,5.44,0.966,-0.255,2.838,0.565,-0.57,-3.974
8.52,7.099,0.347,-1.038,2.644,-0.79,-0.48,-4.148
10.37,8.749,0.294,-1.077,2.887,-1.204,1.448,-2.765
12.752,10.93,2.992,0.363,5.143,0.203,6.584,1.129
15.707,13.735,7.346,3.444,9.184,3.424,14.003,7.21
17.154,15.784,9.748,6.934,12.166,7.337,20.585,13.354
15.507,15.333,9.228,8.424,12.205,9.583,23.596,16.876
11.163,12,6.699,6.571,9.362,8.199,22.017,16.372
3.538,5.672,0.087,1.251,2.065,2.833,14.019,10.944
-7.792,-3.47,-11.948,-7.122,-10.462,-5.509,-0.892,0.65
-18.435,-12.222,-23.611,-15.608,-22.519,-13.757,-15.888,-10.339
-22.89,-16.638,-28.087,-19.856,-27.315,-17.993,-22.327,-15.979
-21.096,-16.433,-26.019,-18.856,-25.235,-17.143,-19.855,-14.864
-16.824,-13.799,-22.452,-15.531,-21.176,-13.615,-14.245,-10.909
-12.916,-10.492,-20.304,-12.677,-18.099,-10.252,-9.783,-7.93
-10.951,-8.316,-19.629,-11.032,-16.61,-8.42,-7.776,-6.878
-12.097,-9.022,-20.007,-10.781,-17.273,-8.478,-8.343,-7.505
-14.884,-10.982,-20.934,-11.33,-19.605,-9.43,-10.204,-8.751
-16.047,-10.674,-21.201,-10.777,-21.018,-9.105,-10.72,-8.567
-15.523,-8.711,-20.18,-8.632,-19.861,-6.933,-8.908,-6.348
-15.73,-8.38,-18.835,-6.97,-17.64,-4.965,-7.049,-4.144
-16.435,-9.687,-18.511,-7.685,-16.813,-5.353,-7.596,-4.268
-15.138,-9.924,-18.99,-10.309,-17.601,-7.949,-9.99,-6.749
-11.166,-7.819,-18.33,-12.742,-17.89,-10.803,-11.572,-9.247
-6.17,-4.272,-15.638,-13.461,-16.396,-12.314,-10.762,-9.503
-2.036,-0.85,-12.932,-12.86,-14.538,-12.389,-9.078,-8.206
0.588,1.401,-12.063,-11.977,-13.721,-11.786,-8.605,-7.484
2.904,3.014,-11.125,-10.228,-12.404,-10.291,-7.777,-6.69
6.022,4.875,-7.654,-7.045,-9.009,-7.566,-4.527,-4.146
8.361,6.033,-3.758,-4.641,-5.875,-5.504,-1.357,-1.329
7.652,5.518,-3.198,-4.985,-6.2,-5.732,-1.338,-0.698
4.847,4.512,-5.503,-6.668,-9.054,-7.041,-3.358,-2.195
3.103,4.318,-7.289,-7.805,-10.915,-7.912,-5.252,-4.292
3.531,4.471,-7.336,-8.468,-10.562,-8.352,-7.077,-6.035
4.549,4.12,-7.187,-9.118,-9.861,-8.715,-9.069,-7.039
4.59,3.195,-7.657,-9.72,-10.09,-9.001,-9.768,-7.048
3.566,1.795,-7.238,-9.986,-9.636,-9.142,-7.905,-6.081
1.883,-0.041,-5.362,-9.436,-7.313,-9.054,-4.93,-4.788
-0.441,-2.105,-4.276,-8.341,-5.497,-8.699,-3.657,-4.16
-2.568,-3.838,-4.741,-7.454,-5.879,-8.17,-4.066,-4.162
-3.345,-4.811,-4.524,-6.837,-6.32,-7.675,-4.218,-4.032
-3.639,-5.326,-2.95,-6.327,-5.25,-7.374,-4.533,-3.924
-4.994,-5.873,-1.736,-6.209,-4.078,-7.287,-6.197,-4.355
-7.457,-7.3,-1.659,-7.012,-4.217,-7.812,-7.895,-5.128
-9.813,-9.922,-1.768,-8.444,-5.023,-9.125,-7.745,-5.429
-10.622,-11.659,-1.536,-9.138,-5.553,-10.121,-6.423,-4.781
-10.308,-11.195,-2.166,-9.056,-6.69,-10.215,-6.645,-4.315
-10.94,-10.854,-4.417,-9.949,-8.864,-10.467,-8.804,-5.204
-12.572,-12.131,-6.33,-11.908,-10.015,-11.18,-9.449,-6.271
-12.939,-12.543,-5.412,-12.35,-8.934,-10.797,-6.725,-5.633
-11.843,-10.516,-2.565,-10.022,-8.005,-8.497,-3.625,-3.722
-11.897,-8.68,-1.246,-7.407,-9.946,-6.232,-3.303,-2.634
-13.487,-9.038,-2.397,-7.087,-13.551,-6.179,-4.683,-2.659
-13.679,-9.945,-3.659,-8.492,-15.622,-7.686,-5.017,-2.264
-11.242,-10.122,-3.667,-9.979,-15.564,-9.029,-4.391,-1.771
-9.048,-11.466,-4.145,-12.09,-15.568,-10.884,-5.294,-3.671
-9.607,-15.187,-6.375,-15.78,-16.617,-14.483,-7.825,-7.771
-10.788,-17.862,-7.588,-18.249,-16.41,-17.049,-8.632,-9.713
-10.311,-16.734,-5.599,-16.34,-13.859,-15.248,-6.828,-7.632
-9.79,-14.728,-2.843,-11.902,-11.367,-10.885,-5.184,-4.57
-10.091,-14.87,-1.443,-8.578,-10.191,-7.432,-4.552,-2.59
-9.851,-16.338,-1.122,-7.598,-9.842,-5.822,-4.185,-1.608
-9.728,-18.003,-2.001,-8.411,-10.876,-5.841,-4.8,-2.151
-11.716,-19.869,-3.72,-9.633,-12.984,-7.006,-6.577,-4.092
-15.162,-21.555,-4.688,-9.849,-13.837,-8.105,-8.237,-5.759
-17.827,-22.783,-4.775,-9.269,-12.946,-8.218,-9.292,-6.442
-18.939,-23.67,-5.102,-8.963,-12.186,-7.45,-9.654,-6.526
-18.879,-23.649,-5.373,-8.446,-11.818,-6.014,-8.409,-5.303
-18.314,-22.528,-4.943,-6.831,-11.014,-4.147,-5.776,-2.527
-17.834,-21.39,-4.606,-5.136,-10.49,-2.922,-3.894,-0.257
-17.812,-21.049,-5.661,-5.361,-11.626,-3.653,-4.734,-0.418
-18.345,-20.791,-8.038,-7.597,-14.281,-5.862,-7.58,-2.137
-18.229,-19.068,-9.22,-8.785,-15.855,-6.709,-8.513,-2.644
-16.795,-16.313,-7.809,-7.1,-14.886,-4.984,-6.285,-1.42
-15.801,-14.784,-6.62,-5.418,-13.957,-3.606,-5.183,-0.966
-16.062,-14.241,-7.469,-6.005,-14.689,-4.668,-6.661,-1.881
-16.215,-12.911,-7.968,-6.669,-14.865,-6.174,-6.849,-2.015
-16.208,-12.043,-6.891,-5.909,-13.673,-6.407,-5.122,-1.308
-17.692,-13.977,-6.768,-6.224,-13.692,-7.047,-5.665,-2.576
-20.709,-17.793,-9.219,-9.238,-15.698,-9.533,-9.579,-6.293
-23.256,-20.859,-12.193,-12.522,-17.045,-12.011,-12.714,-9.113
-23.969,-22.133,-13.278,-13.734,-16.611,-12.53,-12.658,-9.226
-22.852,-21.571,-12.604,-13.404,-16.092,-11.699,-11.623,-8.359
-20.997,-19.835,-11.523,-12.81,-16.021,-10.662,-11.298,-7.926
-20.422,-19.009,-10.631,-12.521,-15.065,-9.762,-10.46,-7.423
-22.178,-20.595,-10.093,-12.839,-13.374,-9.465,-8.697,-6.632
-25.109,-23.821,-10.321,-13.788,-12.705,-10.165,-7.864,-6.291
-27.079,-26.701,-11.177,-14.639,-13.132,-11.108,-8.587,-6.295
-27.29,-27.96,-12.022,-14.622,-13.357,-11.156,-9.425,-6.023
-26.967,-27.855,-12.368,-13.915,-13.053,-10.359,-9.277,-5.681
-27.304,-27.38,-11.738,-13.085,-12.424,-9.567,-8.036,-5.419
-27.613,-27.008,-10.26,-11.951,-11.424,-8.863,-6.396,-4.783
-26.494,-26.06,-8.94,-10.08,-10.357,-7.636,-5.527,-3.765
-24.354,-23.943,-8.592,-8.259,-10.297,-6.198,-6.158,-3.327
-22.296,-21.121,-8.712,-7.287,-11.343,-5.251,-7.403,-3.701
-19.967,-18.192,-8.184,-6.717,-11.803,-4.557,-7.476,-3.829
-17.708,-16.08,-7.789,-7.032,-11.588,-4.506,-7.213,-4.581
-17.085,-15.634,-9.289,-9.269,-12.723,-6.28,-9.616,-8.058
-17.481,-15.77,-11.692,-12.135,-15.079,-9.233,-14.58,-12.968
-16.255,-14.555,-12.223,-13.311,-15.959,-11.111,-18.351,-15.947
-12.984,-12.103,-10.68,-12.279,-14.362,-10.94,-18.739,-16.094
-10.326,-10.392,-9.464,-10.26,-12.399,-9.912,-17.223,-14.771
-9.588,-10.201,-9.516,-8.759,-11.613,-9.463,-15.534,-13.033
-9.227,-10.371,-9.746,-8.703,-11.404,-9.982,-14.123,-11.659
-8.372,-10.161,-9.969,-10.006,-11.553,-11.146,-13.955,-11.876
-7.894,-10.129,-10.784,-11.712,-12.422,-12.381,-15.642,-13.83
-8.232,-10.506,-11.482,-12.626,-13.163,-13.112,-17.295,-15.419
-8.584,-10.35,-10.853,-11.938,-12.439,-12.963,-16.625,-14.646
-8.554,-9.501,-9.541,-10.506,-10.762,-12.529,-14.619,-12.807
-8.804,-9.37,-9.133,-10.073,-9.994,-12.785,-13.688,-12.273
-9.437,-10.372,-9.87,-10.685,-10.786,-13.334,-13.968,-12.674
-9.894,-11.329,-11.377,-11.402,-12.573,-13.428,-14.712,-12.925
-10.217,-11.803,-13.459,-12.016,-14.698,-13.219,-15.914,-13.441
-11.069,-12.835,-15.677,-12.956,-16.733,-13.173,-17.288,-14.672
-12.539,-14.591,-17.436,-14.519,-18.39,-13.924,-18.091,-16.05
-13.539,-15.225,-18.074,-15.987,-18.994,-15.492,-18.062,-16.557
-13.342,-14.014,-17.349,-16.682,-18.118,-16.846,-17.754,-16.12
-12.666,-12.726,-16.123,-17.299,-16.621,-17.51,-17.582,-15.691
-12.705,-12.971,-16.169,-18.986,-16.258,-18.561,-17.861,-16.097
-13.516,-14.478,-18.077,-21.697,-17.413,-20.839,-18.787,-17.28
-14.163,-16.187,-20.311,-24.003,-18.433,-23.134,-19.821,-18.622
-14.819,-17.997,-21.981,-25.138,-18.878,-24.283,-21.274,-20.403
-16.037,-19.927,-23.46,-25.938,-19.971,-25.279,-23.793,-23.017
-17.14,-21.242,-24.756,-27.407,-21.806,-27.438,-26.229,-25.425
-17.414,-21.298,-25.589,-29.214,-23.14,-29.996,-27.289,-26.636
-16.581,-19.393,-25.369,-29.534,-22.895,-30.638,-27.263,-26.768
-14.571,-15.729,-23.603,-27.352,-21.12,-28.491,-26.798,-26.203
-12.06,-12.593,-21.047,-24.187,-18.71,-25.293,-25.79,-25.121
-10.611,-12.267,-19.988,-22.71,-17.23,-23.543,-24.965,-24.404
-11.035,-14.113,-21.942,-23.911,-18.191,-24.008,-26.043,-25.166
-11.876,-15.168,-24.848,-25.744,-20.722,-25.028,-28.294,-26.532
-12.119,-14.518,-26.047,-26.312,-22.429,-25.524,-29.203,-27.002
-13.283,-14.565,-26.311,-26.63,-22.608,-26.52,-28.657,-27.048
-15.931,-16.626,-27.247,-27.895,-22.23,-28.255,-28.359,-27.54
-17.279,-18.14,-27.614,-28.662,-21.495,-28.858,-28.088,-27.382
-15.366,-16.429,-25.722,-27.068,-19.912,-26.893,-26.381,-25.375
-12.975,-13.461,-23.781,-24.707,-18.815,-24.205,-24.671,-23.648
-13.138,-12.66,-24.845,-24.737,-19.858,-23.956,-25.643,-24.816
-14.193,-13.187,-26.852,-26.54,-21.413,-25.552,-27.758,-26.888
-13.711,-12.46,-25.931,-26.463,-20.893,-25.208,-27.295,-26.276
-13.007,-11.408,-23.248,-23.826,-19.315,-22.212,-24.986,-23.963
-14.227,-12.546,-22.591,-22.104,-19.503,-20.151,-24.668,-23.74
-16.15,-14.762,-23.628,-22.725,-20.954,-20.549,-26.34,-25.599
-16.153,-14.849,-23.206,-22.669,-20.857,-20.806,-26.837,-26.341
-13.875,-12.357,-20.797,-19.905,-18.531,-19.24,-25.223,-25.125
-10.518,-9.051,-18.272,-16.19,-15.526,-16.866,-22.445,-23.168
-6.749,-5.585,-15.913,-13.193,-12.662,-14.228,-18.41,-20.226
-2.052,-0.732,-11.336,-9.231,-8.018,-9.724,-11.78,-14.732
3.193,5.044,-4.127,-2.902,-0.493,-2.884,-2.95,-7.221
6.09,7.927,1.424,2.847,5.973,2.874,4.41,-1.013
4.798,6.141,1.901,4.461,7.278,4.255,7.219,1.702
0.595,1.607,-1.864,1.681,3.917,1.551,4.842,0.765
-5.674,-4.987,-8.969,-4.599,-3.034,-4.149,-3.513,-4.487
-14.153,-13.44,-18.972,-13.185,-13.328,-12.091,-17.019,-13.81
-21.716,-19.622,-27.138,-19.708,-22.44,-18.449,-28.915,-22.403
-24.084,-20.067,-28.03,-19.63,-24.323,-18.678,-31.949,-24.435
-22.425,-17.728,-23.856,-15.03,-20.321,-14.466,-27.447,-20.612
-20.255,-15.922,-20.283,-11.162,-16.229,-10.978,-21.421,-16.098
-17.662,-13.606,-18.306,-9.32,-14.014,-9.48,-16.978,-13.661
-13.641,-10.142,-15.908,-7.835,-12.066,-7.92,-14.604,-13.045
-8.798,-6.894,-12.083,-5.479,-8.816,-5.045,-13.262,-12.706
-5.45,-5.281,-8.822,-3.477,-5.685,-2.655,-12.168,-11.928
-6.309,-6.368,-9.908,-4.577,-6.364,-3.808,-12.771,-12.078
-11.015,-9.369,-15.224,-8.323,-11.026,-7.746,-15.63,-13.877
-16.115,-12.011,-20.265,-11.254,-15.55,-10.679,-18.615,-15.937
-18.937,-13.403,-22.231,-12.288,-17.241,-11.728,-20.228,-17.115
-18.663,-13.301,-21.093,-12.328,-16.123,-12.096,-20.353,-17.081
-15.17,-10.506,-17.003,-10.613,-12.384,-10.657,-18.034,-15.033
-10.472,-6.181,-12.099,-7.476,-7.845,-7.279,-13.844,-11.687
-8.196,-4.444,-10.288,-6.357,-5.95,-5.769,-11.473,-10.039
-8.948,-6.55,-11.936,-8.611,-7.06,-7.908,-12.521,-11.079
-10.054,-9.413,-13.547,-11.117,-8.21,-10.257,-14.187,-12.4
-9.108,-9.684,-12.179,-10.003,-6.681,-8.843,-13.125,-11.189
-6.067,-6.672,-7.998,-4.938,-2.299,-3.84,-9.006,-7.087
-3.56,-3.004,-4.338,-0.332,1.83,0.224,-4.971,-3.142
-3.483,-1.654,-4.058,-0.205,2.709,-0.231,-4.175,-2.519
-3.949,-2.189,-5.52,-2.651,1.506,-2.943,-5.806,-4.267
-2.385,-2.16,-4.918,-3.041,1.48,-3.232,-6.133,-4.615
0.214,-1.278,-2.049,-0.918,3.063,-0.684,-3.851,-2.362
1.114,-1.356,-0.159,0.586,4.232,1.47,-1.465,0.147
0.224,-2.594,-0.326,0.578,4.579,1.986,-0.622,1.355
-0.812,-3.484,-0.411,0.949,5.272,2.329,-0.237,1.886
-1.301,-3.284,1.235,2.854,6.899,3.629,1.26,2.921
-1.338,-2.372,4.063,5.568,9.224,5.684,4.18,4.973
-1.268,-1.558,6.537,7.441,11.363,7.33,7.074,7.029
-1.284,-1.101,7.999,7.693,12.611,7.473,8.288,7.734
-1.234,-0.185,8.843,7.281,13.163,6.424,8.087,7.346
-0.258,2.347,9.969,8.162,14.04,6.311,8.709,7.916
2.382,6.286,12.324,11.468,16.185,9.119,11.437,10.798
5.146,9.585,15.606,15.966,19.127,13.84,14.824,14.841
5.875,10.961,18.214,19.469,21.37,17.482,17.241,18.291
4.77,11.023,18.777,20.727,21.643,18.287,17.947,19.632
3.737,10.81,17.699,20.12,20.217,17.186,16.706,17.969
4.116,10.925,16.715,19.591,18.916,16.607,14.63,14.954
5.278,11.149,16.285,20.422,18.257,17.524,12.971,13.251
5.601,10.822,15.301,21.751,16.903,19.008,12.179,13.589
4.765,9.877,13.646,22.317,14.987,20.248,12.649,15.009
4.468,9.279,13.033,22.172,14.913,21.009,14.363,16.533
6.127,9.818,14.443,21.6,17.435,20.706,16.277,17.678
8.769,10.948,16.258,20.178,19.755,18.626,17.152,17.974
10.815,12.088,16.472,18.022,19.51,15.352,16.725,17.143
12.615,13.715,15.983,16.336,18.381,12.898,16.05,16.09
15.737,16.695,17.828,16.7,19.807,13.076,16.947,16.753
19.635,20.405,21.855,18.832,23.284,15.07,19.11,18.957
21.719,22.252,23.988,19.475,24.644,15.435,19.486,19.547
21.782,21.309,22.844,16.785,23.038,12.545,17.259,17.283
22.039,20.241,21.391,13.353,21.539,8.789,15.153,14.73
22.993,20.986,21.055,11.625,20.961,6.439,14.405,13.442
23.321,21.787,19.716,9.948,19.266,4.362,12.95,11.449
23.311,21.443,16.913,6.918,16.831,1.671,10.327,8.18
24.193,21.463,15.261,4.954,16.167,0.46,9.262,6.648
24.881,21.932,14.984,5.345,16.481,1.409,9.635,7.243
24.275,21.728,13.883,6.015,15.186,2.406,8.174,7.004
23.717,21.675,12.171,5.973,12.812,2.631,5.205,5.855
24.671,23.471,12.304,6.705,12.046,3.272,4.642,6.338
27.212,27.258,15.41,9.133,14.238,5.151,7.464,8.607
29.561,29.953,19.004,11.437,17.363,6.998,9.762,9.748
29.298,27.996,19.534,11.41,18.215,6.844,8.844,8.235
26.518,22.634,17.471,9.992,17.037,5.412,7.118,6.216
24.227,18.779,16.783,10.163,17.201,5.56,7.574,6.191
25.249,19.338,19.408,13.049,20.248,8.377,9.975,8.353
28.633,22.891,23.109,16.51,23.879,12.122,12.542,11.282
30.577,26.093,25.272,18.045,25.904,14.724,14.441,13.425
29.01,26.396,25.424,17.411,26.495,15.274,15.435,13.846
25.662,23.832,24.319,16.224,26.22,14.485,15.337,13.02
23.869,21.641,23.5,16.461,25.782,14.628,15.17,13.019
24.595,22.281,23.901,18.119,25.917,16.498,16.095,14.888
26.474,24.428,24.879,19.587,26.476,18.515,17.762,17.472
28.721,26.132,25.591,20.552,27.055,19.88,19.175,19.404
30.991,27.588,26.089,21.93,27.865,21.284,19.962,20.308
32.302,29.669,26.736,23.719,29.069,22.972,20.32,20.313
31.513,31.476,26.927,24.283,29.523,23.786,20.137,19.37
28.877,31.356,26.117,22.997,28.511,22.832,19.591,17.993
26.226,29.527,24.818,21.614,27.071,21.18,19.134,17.045
25.007,27.808,23.378,21.366,25.587,20.595,18.644,16.616
25.032,27.111,21.921,21.784,23.605,21.479,18.215,16.575
24.519,25.902,20.542,21.948,21.579,22.442,17.859,16.523
22.857,23.33,19.42,22.2,20.555,22.847,17.514,16.461
21.873,21.549,19.059,23.861,20.719,23.981,17.646,17.211
22.179,21.739,19.338,26.078,21.041,25.729,18.155,18.305
22.429,22.504,19.541,27.003,20.69,26.577,18.577,18.559
22.017,22.982,19.053,27.289,19.539,26.808,18.788,18.197
21.519,23.513,17.642,27.982,17.952,27.359,18.692,18.066
21.191,23.75,15.895,27.731,16.796,27.241,18.303,18.08
20.754,23.229,15.084,25.857,16.928,25.735,18.174,17.841
20.791,23.114,16.019,24.909,18.546,25.087,19.075,18.085
22.353,24.208,18.266,26.463,21.034,26.878,20.814,19.524
25.664,25.66,21.409,28.458,24.147,28.78,22.734,21.458
29.531,26.858,24.987,28.822,27.506,28.344,24.182,22.518
31.674,27.453,26.9,27.825,28.902,26.494,24.044,21.874
31.205,26.814,25.419,26.505,26.902,25.134,22.231,20.067
30.502,26.002,22.762,26.053,24.389,25.129,20.903,19.031
32.869,27.715,23.273,28.273,25.73,27.518,22.715,20.94
37.035,31.094,26.574,32.184,29.506,31.225,26.496,24.539
38.127,31.772,27.871,33.33,30.166,32.089,27.582,25.272
35.735,29.537,26.35,30.55,27.885,29.114,25.174,22.533
33.287,27.984,25.095,27.186,27.019,25.43,23.055,20.163
31.674,28.334,25.157,25.717,27.988,23.134,23.228,19.851
30.148,29.551,25.916,26.164,28.93,22.601,24.663,20.572
28.951,30.389,26.857,27.263,29.615,23.446,26.02,21.697
28.277,29.96,27.432,28.048,30.455,24.764,27.1,23.284
27.813,28.616,27.68,28.833,31.157,26.13,28.085,24.774
27.732,27.42,27.934,29.713,30.851,27.16,28.069,25.085
27.949,26.293,27.344,29.441,28.787,26.805,26.009,23.797
28.142,25.254,25.541,28.1,26.109,25.412,23.597,22.183
28.641,25.667,24.305,27.936,25.162,24.993,23.661,22.161
28.335,26.576,23.946,28.452,25.183,25.125,24.893,22.82
26.143,25.603,23.048,26.857,24.199,23.577,24.469,22.051
24.495,24.475,22.575,24.254,23.715,21.248,23.773,21.131
25.705,26.301,24.049,23.987,25.243,20.746,25.059,22.284
27.927,29.109,25.788,25.466,26.757,21.516,26.888,24.352
27.6,27.835,24.997,25.272,25.644,20.681,26.323,24.198
24.332,22.489,21.854,22.773,22.014,18.04,22.988,21.215
21.149,18.774,18.737,20.374,17.984,16.33,19.181,18.012
20.148,19.449,16.826,19.573,15.265,16.654,17.021,16.77
20.741,21.357,15.77,19.644,14.315,17.36,16.72,17.207
21.598,21.685,14.737,19.045,14.031,16.982,16.737,17.508
22.966,22.187,13.675,18.097,13.268,16.508,16.315,17.024
25.646,24.933,13.941,18.831,12.942,17.8,16.717,17.04
28.781,28.249,16.502,21.424,14.682,20.716,18.703,18.313
31.678,30.464,20.63,24.077,18.491,23.62,21.208,20.09
34.26,32.302,24.14,25.224,21.961,24.759,22.211,20.701
35.307,33.911,24.957,24.608,22.591,23.418,21.066,19.49
33.988,33.675,23.111,23.275,20.959,21.024,19.641,18.162
31.603,30.77,20.366,22.022,19.53,19.424,19.282,17.916
30.263,27.273,18.518,20.814,19.526,18.986,19.361,17.837
30.438,25.749,18.456,20.043,20.457,19.352,19.653,17.407
31.267,26.658,20.537,21.039,22.412,20.84,21.716,18.11
32.173,28.874,24.46,24.057,26.238,23.632,26.597,21.112
32.565,30.537,28.387,27.048,30.849,26.294,32.659,25.213
32.647,30.997,30.679,28.608,34.151,27.546,38.084,29.324
33.243,30.921,31.409,29.276,35.363,27.655,42.69,33.559
33.489,29.757,30.705,29.411,34.332,27.277,46.121,37.265
31.511,26.383,27.57,28.355,30.439,26.275,46.309,38.535
26.554,21.061,20.843,24.489,22.673,22.755,39.921,34.789
19.415,15.083,11.232,17.165,11.601,15.614,26.515,25.352
12.479,10.109,2.212,9.394,1.057,8.233,11.882,14.179
9.222,8.083,-2.144,5.61,-4.144,5.269,3.694,7.327
11.224,9.971,-0.72,6.689,-2.757,6.985,4.251,7.157
16.083,14.476,3.924,9.921,1.889,10.161,9.618,10.713
20.403,19.277,8.425,13.179,5.887,12.924,14.864,14.214
22.434,22.163,10.795,15.505,7.732,14.874,17.671,16.217
21.402,21.371,10.519,15.1,7.596,14.335,17.601,16.031
17.486,17.392,8.331,11.155,5.983,10.462,14.866,13.178
12.985,13.763,6.562,7.038,4.412,6.813,11.802,9.964
11.171,13.825,8.066,7.641,5.62,8.158,12.427,10.495
12.349,16.725,12.478,12.795,9.854,13.936,16.733,14.727
13.171,18.567,15.465,16.951,13.219,18.643,19.787,17.848
10.522,16.592,13.436,15.752,11.887,18.264,18.049,16.456
5.443,11.747,8.188,10.953,7.027,14.202,13.482,12.37
2.625,7.867,5.211,7.974,3.965,11.022,11.168,9.994
3.899,6.984,6.266,8.428,4.948,10.543,12.419,10.364
6.541,7.965,8.239,9.463,7.395,11.008,13.913,11.197
8.489,9.504,9.193,9.802,9.341,11.542,13.953,11.708
8.843,10.086,9.331,9.957,10.217,12.144,13.374,12.086
6.698,8.228,8.59,9.272,9.281,11.521,12.419,11.494
3.092,4.818,7.195,7.373,6.945,9.268,10.971,9.945
0.688,2.436,6.323,5.987,5.028,7.638,9.954,9.144
0.63,2.341,6.518,6.485,4.552,8.303,10.116,9.74
1.418,3.17,6.791,7.452,4.789,9.601,10.637,10.144
1.425,2.924,6.571,7.202,5.297,9.486,11.014,9.594
0.494,1.351,6.489,6.138,6.447,8.479,11.905,9.482
-1.01,-0.385,6.496,5.184,7.625,7.892,12.895,10.453
-3.141,-1.989,5.282,4.006,7.078,7.3,12.006,10.364
-5.817,-4.229,2.491,1.874,4.421,5.388,8.868,7.438
-7.899,-6.722,-0.149,-0.821,1.921,2.238,6.044,3.884
-8.54,-8.248,-1.492,-3.099,1.011,-0.76,4.902,2.32
-7.72,-8.062,-1.712,-3.466,0.798,-1.744,4.573,2.552
-5.685,-6.406,-0.36,-0.833,0.993,0.209,5.176,4.044
-3.779,-5.172,2.439,2.565,2.069,3.003,6.824,6.321
-3.328,-5.835,4.764,3.602,3.462,3.873,8.259,8.081
-4.362,-7.599,4.998,2.768,3.804,3.089,8.766,8.725
-6.384,-9.157,3.487,1.977,2.755,2.188,8.751,8.739
-8.656,-10.326,1.413,0.724,1.299,0.944,8.211,8.071
-10.208,-11.149,-0.382,-2.035,0.261,-1.206,7.111,6.604
-10.154,-10.819,-1.071,-4.934,0.277,-3.222,6.669,5.483
-9.023,-9.523,-0.841,-6.795,1.153,-4.351,6.942,4.925
-8.856,-9.124,-1.338,-8.428,1.266,-5.059,6.176,3.87
-10.406,-9.853,-2.77,-9.282,0.324,-4.821,4.904,3.227
-11.99,-9.618,-2.982,-7.005,0.342,-2.172,5.815,4.911
-13.014,-8.614,-2.042,-2.354,1.275,1.866,8.22,7.436
-15.752,-10.412,-3.317,-0.013,-0.048,3.57,7.782,6.82
-19.738,-14.974,-6.054,-1.214,-3.019,2.333,4.326,3.436
-20.745,-17.491,-5.436,-1.997,-3.078,1.529,2.626,1.982
-18.584,-16.632,-2.241,-0.997,-0.599,2.173,3.777,3.481
-17.217,-15.374,-1.528,-0.491,-0.171,2.581,4.551,4.673
-17.833,-14.949,-3.523,-0.995,-2.36,2.339,3.597,3.874
-18.253,-14.1,-4.58,-1.315,-3.683,1.841,2.257,2.323
-17.701,-12.696,-4.354,-1.783,-3.296,0.606,1.187,1.056
-17.942,-12.454,-5.529,-3.367,-3.831,-1.646,-0.33,-0.165
-19.02,-13.293,-7.834,-5.03,-5.586,-3.551,-1.829,-0.971
-18.54,-12.882,-8.812,-5.775,-6.458,-4.309,-2.294,-1.199
-15.984,-10.782,-8.809,-6.65,-6.618,-5.285,-2.662,-2.02
-13.484,-9.064,-9.628,-8.104,-7.655,-6.957,-4.187,-3.793
-11.964,-8.186,-10.431,-8.738,-8.945,-7.644,-5.711,-5.139
-10.346,-6.451,-9.347,-7.775,-8.826,-6.506,-5.544,-4.973
-9.635,-5.032,-7.866,-6.903,-8.393,-5.33,-5.104,-4.651
-12.069,-7.231,-8.807,-7.878,-9.908,-6.005,-6.448,-5.949
-16.258,-12.307,-11.463,-9.916,-12.763,-7.938,-8.437,-8.005
-19.104,-16.477,-13.183,-11.551,-14.671,-9.32,-9.248,-9.019
-20.216,-18.24,-13.266,-12.444,-14.796,-9.361,-9.083,-8.66
-20.675,-18.716,-12.68,-12.57,-13.853,-8.68,-8.603,-7.671
-20.08,-18.599,-11.727,-11.883,-12.216,-8.226,-7.187,-6.643
-18.487,-18.313,-10.793,-11.747,-10.701,-9.026,-5.488,-6.728
-17.988,-19.028,-11.478,-13.571,-11.453,-11.3,-6.539,-9.246
-18.753,-19.994,-13.354,-14.824,-13.868,-12.343,-9.9,-11.99
-19.214,-19.468,-14.202,-12.95,-14.934,-10.376,-11.535,-11.797
-20.004,-18.868,-14.757,-11.111,-15.067,-8.754,-11.164,-10.46
-22.106,-20.664,-17.195,-12.72,-16.855,-10.323,-11.838,-11.302
-24.12,-23.997,-20.46,-15.713,-19.691,-12.842,-13.724,-13.341
-24.515,-25.797,-22.058,-16.904,-21.079,-13.679,-14.353,-13.744
-23.915,-24.715,-22.288,-16.743,-21.203,-13.482,-13.749,-12.777
-22.831,-21.661,-22.261,-16.495,-21.238,-13.15,-13.627,-11.872
-20.848,-18.539,-21.211,-15.581,-20.35,-12.086,-13.261,-10.453
-19.192,-17.665,-19.44,-14.256,-18.602,-10.799,-11.742,-8.77
-19.183,-19.286,-18.922,-13.972,-17.824,-10.602,-10.901,-8.883
-19.932,-20.952,-19.571,-14.568,-17.977,-10.971,-11.829,-10.587
-19.945,-20.656,-18.869,-14.209,-16.744,-10.261,-11.749,-10.424
-18.576,-18.481,-15.705,-11.678,-13.245,-8.086,-8.377,-6.718
-16.402,-16.051,-12.41,-8.289,-9.689,-6.016,-4.701,-2.927
-14.692,-14.825,-11.621,-7.056,-8.404,-6.02,-4.921,-2.999
-13.898,-14.322,-12.501,-8.621,-8.814,-7.695,-8.209,-5.866
-13.181,-13.087,-12.122,-9.779,-8.307,-8.197,-10.233,-7.615
-12.309,-11.258,-10.27,-8.912,-5.988,-6.842,-9.743,-7.574
-12.395,-10.207,-9.618,-8.92,-3.862,-6.845,-9.426,-8.135
-13.065,-9.823,-10.401,-11.417,-3.136,-9.637,-9.902,-9.208
-11.641,-8.471,-9.377,-13.604,-2.114,-12.026,-8.874,-8.658
-7.06,-5.393,-5.501,-13.123,0.614,-11.497,-6.411,-7.124
-3.047,-2.579,-3.158,-12.053,2.519,-10.286,-6.017,-7.553
-3.55,-2.673,-5.983,-13.334,0.631,-11.446,-9.288,-10.332
-6.139,-4.601,-10.623,-15.512,-2.734,-13.782,-12.879,-12.367
-6.625,-5.648,-12.778,-16.178,-4.37,-15.024,-14.102,-12.585
-5.838,-5.529,-13.452,-16.309,-5.1,-15.689,-14.447,-13.06
-6.598,-5.274,-14.874,-17.101,-6.126,-16.56,-15.519,-14.424
-8.604,-5.214,-16.092,-17.507,-6.466,-16.952,-16.734,-15.323
-8.45,-3.829,-14.285,-15.584,-4.204,-15.561,-16.11,-14.169
-5.552,-0.569,-10.075,-11.864,0.19,-12.71,-13.245,-11.273
-4.11,1.149,-7.901,-10.079,3.183,-11.278,-11.215,-9.546
-5.497,-0.592,-8.403,-11.348,3.825,-12.148,-11.91,-10.253
-5.693,-2.085,-7.278,-11.92,5.337,-12.022,-12.587,-10.854
-2.587,-0.058,-3.468,-9.562,8.813,-9.04,-10.704,-9.235
0.472,2.916,-1.477,-7.18,10.647,-6.332,-8.544,-7.208
0.637,3.191,-3.504,-7.268,9.08,-6.649,-8.756,-6.972
-0.678,1.69,-5.87,-8.179,7.634,-7.9,-9.631,-7.259
-1.855,0.939,-5.575,-8.147,9.062,-7.365,-8.835,-6.319
-2.985,0.8,-4.205,-7.786,11.762,-5.87,-7.179,-5.039
-4.575,-0.703,-4.543,-8.358,12.805,-5.811,-7.126,-5.381
-6.711,-3.42,-6.606,-9.415,11.742,-7.066,-9.083,-7.206
-8.276,-4.489,-8.146,-9.141,10.633,-7.23,-10.754,-8.523
-7.982,-2.884,-8.171,-7.346,10.504,-5.743,-10.737,-8.548
-5.902,-0.605,-7.091,-5.201,11.071,-3.908,-9.461,-7.59
-4.24,0.061,-5.541,-3.934,12.036,-2.871,-8.178,-6.481
-5.328,-1.583,-5.096,-4.947,12.071,-3.781,-8.65,-6.815
-7.951,-3.683,-6.861,-7.786,10.099,-6.348,-10.981,-8.507
-9.217,-4.087,-9.386,-9.762,7.486,-8.532,-12.887,-9.463
-9.19,-3.739,-10.675,-9.662,6.137,-9.54,-12.761,-9.064
-9.975,-5.092,-11.051,-9.404,5.785,-10.312,-11.838,-9.11
-10.968,-7.391,-10.952,-9.987,6.001,-10.636,-11.318,-9.907
-9.355,-7.241,-8.754,-9.192,7.993,-9.023,-10.038,-9.057
-5.28,-4.273,-4.503,-6.475,11.347,-6.225,-7.806,-6.433
-1.437,-1.531,-1.427,-4.856,13.308,-4.917,-6.716,-5.106
1.057,-0.553,-0.928,-5.337,13.074,-5.327,-7.337,-5.921
3.336,0.148,-0.25,-4.855,13.355,-4.708,-6.981,-5.82
6.303,1.963,2.62,-1.569,15.886,-1.425,-3.822,-2.835
8.499,3.695,5.672,2.199,18.367,2.803,-0.127,0.862
7.743,3.156,6.426,3.713,18.171,5.149,1.263,2.477
4.254,-0.004,4.854,2.924,15.572,4.716,0.244,1.823
1.242,-3.269,3.144,2.023,13.112,3.544,-0.997,0.991
1.151,-3.975,3.488,2.565,12.876,3.808,-0.7,1.386
2.163,-2.975,5.078,3.127,13.738,4.5,-0.04,1.553
2.066,-1.92,6.381,3.061,14.166,4.696,0.163,1.08
1.755,-0.023,8.102,4.661,15.038,6.226,1.562,2.172
2.919,3.576,11.203,8.875,17.368,10.088,5.215,5.664
6.179,8.432,15.618,14.052,21.097,15.179,11.03,10.524
10.537,13.601,20.563,18.711,25.536,20.167,18.197,15.675
14.014,17.61,24.639,22.737,29.466,24.343,24.964,20.804
14.739,18.534,26.02,25.483,30.855,27.213,29.431,25.492
11.579,15.609,22.74,24.427,27.333,27.05,29.417,27.288
4.905,9.883,14.029,17.652,18.095,21.291,22.101,22.65
-3.365,2.834,2.316,6.856,5.631,10.442,7.467,11.184
-9.533,-3.002,-6.645,-2.626,-4.123,0.272,-7.301,-1.234
-10.546,-4.893,-8.727,-6.213,-6.904,-3.599,-13.653,-7.335
-7.421,-3.411,-5.626,-4.403,-4.996,-1.812,-11.347,-6.341
-2.708,-1.026,-0.964,-0.94,-2.479,1.235,-5.841,-2.676
2.952,1.757,4.238,1.577,0.428,2.904,-0.576,0.473
8.868,5.656,9.342,2.655,4.183,2.957,3.272,2.389
12.404,9.543,11.603,2.148,6.157,1.498,4.206,2.357
12.402,11.271,9.935,0.518,4.636,-0.736,2.257,0.404
10.843,10.389,6.917,-1.011,1.43,-2.374,-0.345,-1.841
9.22,8.207,4.37,-2.46,-2.048,-3.394,-2.356,-3.416
8.211,7.277,2.341,-3.547,-5.088,-3.641,-3.377,-3.872
8.459,8.899,1.358,-2.893,-6.257,-2.294,-3.228,-3.161
9.222,10.94,2.222,-1.031,-5.223,-0.595,-2.772,-2.49
9.888,11.26,5.123,0.653,-2.798,0.136,-2.155,-2.122
10.713,9.804,8.508,1.875,-0.241,0.562,-0.868,-1.291
11.066,7.12,10.016,2.152,0.964,0.961,0.23,-0.394
9.992,4.209,9.485,1.277,0.468,1.003,-0.035,-0.351
8.491,2.56,9.065,0.866,-0.275,1.441,-0.462,-0.472
8.744,3.193,10.254,2.457,0.317,3.07,1.21,0.874
10.565,5.43,11.766,4.589,1.398,4.815,3.973,3.142
11.313,6.729,11.15,4.394,0.471,4.725,4.595,3.827
9.36,4.931,8.02,1.333,-3.083,2.304,2.225,1.805
6.131,1.086,4.493,-2.051,-6.87,-0.617,-0.703,-0.916
3.878,-1.771,2.233,-3.2,-8.922,-1.593,-1.651,-1.508
2.326,-2.731,0.5,-2.522,-10.484,-0.663,-1.169,-0.253
0.008,-3.395,-1.83,-1.956,-13.208,-0.102,-1.645,0.225
-2.516,-4.791,-4.306,-2.549,-16.345,-1.232,-3.815,-1.312
-2.771,-5.208,-5.349,-3.745,-17.863,-2.852,-5.689,-3.227
0.151,-2.445,-4.15,-3.919,-16.842,-2.866,-5.031,-3.243
3.81,1.939,-1.673,-2.232,-14.364,-0.742,-2.291,-1.603
6.12,4.508,1.344,0.66,-11.567,2.394,0.53,0.079
7.34,4.942,4.732,2.921,-9.019,4.613,2.069,1.05
7.731,5.347,7.158,3.207,-7.779,4.673,2.08,1.214
7.302,6.311,7.388,2.659,-8.289,3.835,1.399,0.921
7.088,6.751,6.324,3,-9.129,4.116,1.201,0.832
8.095,6.542,5.928,4.055,-8.57,5.367,2.043,1.393
9.452,6.257,6.583,4.879,-7.242,6.339,3.119,2.145
9.861,5.922,7.143,5.625,-7.158,7.141,3.294,2.305
9.299,5.389,7.086,6.462,-8.498,8.043,2.783,2.043
8.017,4.478,6.958,6.46,-9.627,7.834,2.57,2.026
6.65,3.579,7.315,5.67,-9.416,6.182,3.123,2.523
6.002,3.354,7.526,4.901,-8.793,4.22,3.583,2.746
5.498,3.314,6.215,3.704,-9.53,2.337,2.611,1.582
4.055,2.454,3.238,1.851,-11.865,0.626,0.272,-0.667
2.296,1.061,0.406,0.685,-14.203,-0.212,-1.847,-2.555
1.869,0.398,-0.325,1.166,-14.942,0.038,-2.026,-2.832
2.277,0.281,0.186,1.607,-15.021,0.215,-0.917,-1.951
1.576,-0.866,-0.528,-0.209,-16.521,-0.923,-1.044,-1.75
-0.411,-3.684,-2.44,-3.214,-18.935,-2.842,-2.639,-2.757
-2.645,-7.361,-3.836,-4.859,-20.623,-4.266,-3.549,-3.624
-4.183,-10.048,-4.291,-4.949,-21.496,-4.982,-2.887,-3.134
-4.496,-10.381,-4.344,-5.172,-21.84,-5.627,-2.042,-2.005
-4.214,-9.602,-4.153,-6.518,-21.163,-6.639,-2.221,-1.769
-4.989,-10.539,-3.939,-8.657,-19.696,-7.936,-3.003,-2.46
-7.893,-14.182,-4.523,-11.044,-19.135,-9.605,-3.975,-3.66
-11.338,-17.981,-5.808,-12.788,-20.102,-11.303,-5.18,-5.453
-12.602,-18.846,-6.781,-12.96,-21.587,-11.838,-6.324,-7.201
-11.726,-16.759,-7.303,-11.843,-23.035,-10.86,-6.918,-7.651
-11.303,-13.908,-7.622,-10.165,-24.128,-9.021,-6.618,-6.45
-13.106,-12.318,-7.882,-8.32,-24.861,-6.755,-6.252,-4.919
-15.856,-12.46,-8.588,-6.478,-26.216,-4.157,-7.18,-4.476
-16.842,-13.285,-9.747,-4.666,-28.365,-1.661,-8.923,-5.097
-15.119,-13.427,-10.41,-3.026,-29.525,-0.247,-9.751,-5.885
-12.547,-12.864,-10.748,-2.574,-29.164,-0.798,-9.84,-6.502
-12.171,-13.647,-13.031,-5.354,-29.949,-3.733,-11.129,-7.832
-14.01,-16.21,-17.223,-10.714,-32.472,-7.624,-13.083,-9.788
-14.958,-17.582,-19.528,-14.366,-33.388,-9.753,-13.464,-10.85
-14.309,-16.855,-18.698,-15.055,-32.003,-10.538,-13.23,-11.39
-13.993,-16.677,-17.531,-15.874,-31.245,-12.623,-14.618,-13.04
-13.503,-17.295,-16.776,-17.166,-31.532,-14.991,-16.195,-14.764
-10.803,-16.417,-14.532,-16.042,-30.534,-14.584,-15.268,-14.318
-7.994,-15.889,-12.106,-13.781,-28.868,-13.159,-13.684,-13.419
-8.587,-19.326,-12.604,-14.393,-29.035,-14.705,-14.72,-15.019
-10.562,-24.136,-14.513,-16.707,-29.89,-17.848,-16.601,-17.261
-10.123,-25.573,-14.614,-17.442,-29.341,-19.187,-16.303,-17.353
-7.85,-24.057,-13.167,-17.091,-27.968,-19.12,-14.49,-16.044
-6.083,-22.441,-11.439,-16.87,-26.242,-18.877,-12.883,-14.859
-5.704,-22.093,-10.126,-16.758,-24.385,-18.599,-12.419,-14.813
-7.371,-23.672,-10.95,-17.716,-24.692,-19.287,-14.081,-16.873
-11.43,-27.138,-14.819,-20.429,-28.714,-21.387,-17.74,-20.219
-15.67,-30.257,-19.315,-22.704,-33.567,-22.793,-20.763,-21.932
-17.416,-30.689,-21.403,-22.163,-35.522,-21.655,-20.686,-20.495
-17.108,-29.323,-20.828,-19.851,-34.558,-19.362,-18.161,-17.506
-16.437,-28.632,-19.061,-18.279,-32.319,-18.324,-15.529,-15.222
-15.94,-29.342,-17.52,-18.064,-29.885,-18.664,-14.574,-14.687
-16.113,-30.655,-17.431,-18.343,-28.69,-18.957,-15.58,-15.533
-18.042,-32.319,-19.551,-19.197,-30.311,-19.256,-17.399,-16.842
-20.968,-34.04,-22.712,-20.98,-33.971,-20.754,-18.499,-17.9
-21.79,-34.039,-24.013,-22.31,-36.245,-22.653,-18.215,-18.086
-19.454,-31.416,-22.349,-22.238,-35.148,-23.219,-17.521,-17.622
-16.632,-28.335,-19.753,-22.294,-32.337,-23.223,-17.598,-17.469
-16.535,-28.121,-18.898,-24.378,-31.039,-25.143,-18.687,-18.487
-19.293,-31.045,-20.145,-27.759,-32.503,-29.044,-20.456,-20.694
-20.841,-32.634,-20.786,-29.261,-34.075,-31.499,-21.666,-22.522
-17.835,-29.411,-18.824,-27.706,-32.981,-30.667,-21.626,-23.027
-12.161,-23.754,-15.545,-25.376,-30.121,-29.013,-21.392,-23.19
-7.714,-19.604,-13.022,-24.117,-28.188,-28.717,-21.797,-23.544
-5.693,-17.487,-12.399,-23.515,-28.903,-28.736,-22.502,-23.552
-4.762,-15.875,-13.691,-22.633,-31.598,-27.496,-22.913,-23.081
-4.6,-14.992,-15.902,-22.174,-34.047,-26.179,-23.214,-23.104
-6.673,-16.603,-18.371,-23.747,-35.439,-27.44,-24.313,-24.572
-10.6,-20.387,-20.825,-26.522,-36.478,-30.611,-26.014,-26.456
-13.191,-23.519,-22.112,-27.487,-36.652,-31.91,-26.366,-26.444
-12.891,-24.118,-21.145,-25.703,-34.808,-30.124,-24.21,-24.023
-11.884,-23.073,-18.933,-23.471,-32.093,-27.958,-20.957,-21.078
-11.656,-21.674,-17.209,-22.373,-30.366,-27.156,-18.14,-18.862
-11.013,-19.888,-16.149,-21.592,-29.509,-26.636,-16.095,-17.275
-9.513,-17.674,-15.149,-20.754,-28.787,-26,-15.449,-16.804
-7.804,-15.152,-13.964,-20.431,-27.89,-26.194,-16.253,-17.716
-5.645,-12.166,-12.923,-20.261,-26.963,-27.109,-17.353,-18.998
-2.764,-8.963,-12.928,-19.778,-27.073,-27.857,-18.253,-19.969
-0.341,-6.27,-14.616,-19.882,-29.097,-28.261,-19.475,-21.162
0.447,-4.552,-17.078,-20.793,-31.933,-28.264,-20.845,-22.654
0.158,-3.558,-18.258,-20.662,-33.545,-27.34,-21.359,-23.305
-0.316,-2.829,-17.483,-18.756,-33.502,-25.951,-21.123,-22.892
-0.851,-2.34,-16.167,-17.192,-32.562,-25.676,-21.17,-22.691
-1.478,-2.635,-15.878,-18.012,-31.485,-27.018,-21.887,-23.513
-1.769,-3.688,-16.467,-20.252,-30.821,-28.557,-22.649,-24.492
-1.405,-4.309,-16.725,-21.386,-30.744,-28.892,-22.717,-24.354
-1.855,-4.362,-17.182,-21.198,-31.935,-28.601,-22.89,-23.69
-4.485,-4.907,-18.804,-21.069,-34.396,-28.604,-24.106,-23.714
-7.513,-5.846,-19.877,-20.677,-35.662,-28.13,-25.102,-23.88
-8.264,-5.968,-18.492,-18.998,-33.652,-26.294,-24.135,-23.022
-7.171,-5.124,-16.239,-17.306,-30.305,-24.423,-22.098,-21.765
-7.278,-5.243,-16.396,-18.137,-29.603,-24.927,-22.008,-22.207
-9.535,-7.365,-18.805,-20.418,-31.551,-26.914,-24.088,-24.074
-11.99,-9.834,-20.219,-20.432,-32.445,-26.935,-25.109,-24.678
-13.979,-11.68,-20.085,-18.559,-31.362,-25.215,-24.234,-24.006
-16.513,-13.852,-20.866,-18.315,-30.651,-24.88,-23.938,-24.409
-19.27,-16.593,-23.023,-19.817,-31.261,-26.048,-24.916,-25.636
-20.568,-18.358,-24.053,-19.93,-31.59,-25.769,-24.897,-25.134
-20.228,-17.796,-22.756,-17.325,-30.594,-22.347,-22.947,-22.535
-19.605,-15.787,-21.221,-14.004,-29.61,-17.655,-20.88,-19.863
-19.098,-14.496,-21.585,-12.569,-30.211,-15.254,-20.211,-18.477
-18.416,-14.703,-23.353,-13.672,-31.867,-16.446,-20.898,-18.688
-17.196,-14.35,-23.89,-15.618,-31.955,-18.813,-21.526,-19.78
-15.09,-11.2,-21.481,-16.228,-28.823,-19.313,-20.461,-20.008
-12.915,-6.665,-17.743,-14.678,-24.377,-17.411,-18.164,-18.76
-11.495,-3.932,-14.838,-11.532,-21.048,-14.164,-16.299,-17.131
-9.649,-2.923,-12.18,-7.835,-18.227,-10.269,-14.391,-15.564
-5.725,-0.602,-8.294,-3.895,-14.08,-6.071,-9.88,-12.563
-0.865,3.342,-4,-0.194,-9.158,-2.722,-2.657,-7.342
2.008,5.741,-1.141,1.645,-5.538,-1.584,3.947,-1.716
2.082,5.476,0.178,1.137,-3.57,-1.91,7.716,2.291
-0.015,3.714,-0.33,-0.998,-3.499,-2.432,7.788,3.369
-5.011,-0.283,-5.032,-5.431,-7.952,-4.929,1.701,-0.371
-13.035,-7.348,-14.537,-12.908,-17.854,-11.568,-11.098,-9.372
-19.743,-13.432,-23.88,-20.155,-27.68,-19.064,-23.76,-18.888
-19.836,-13.116,-26.576,-21.646,-30.16,-21.012,-27.404,-22.142
-15.004,-8.276,-22.604,-17.429,-25.661,-17.219,-22.567,-19.055
-11.188,-5.271,-17.491,-13.052,-20.675,-13.608,-17.374,-15.55
-9.844,-5.296,-14.249,-11.337,-18.093,-12.73,-15.785,-14.498
-8.797,-5.221,-11.587,-10.758,-15.74,-12.26,-15.484,-14.194
-7.695,-4.179,-8.555,-10.197,-12.732,-11.055,-14.413,-13.38
-7.387,-3.529,-6.3,-9.916,-11.07,-9.941,-13.01,-12.431
-6.406,-2.637,-4.767,-8.651,-10.553,-7.956,-11.275,-10.933
-2.975,-0.024,-2.244,-5.129,-8.488,-4.069,-8.908,-8.5
0.978,2.756,0.748,-1.885,-5.271,-1.257,-7.324,-6.83
2.019,3.185,1.553,-2.126,-4.014,-2.635,-7.809,-7.337
-0.459,1.355,-0.706,-5.077,-5.411,-6.511,-9.452,-8.907
-3.523,-0.626,-3.644,-7.618,-6.855,-9.219,-9.601,-9.253
-3.996,-0.955,-4.667,-8.178,-6.598,-9.414,-7.044,-7.7
-2.319,0.174,-4.222,-7.54,-6.123,-8.189,-4.537,-6.096
-1.316,1.212,-4.001,-6.842,-6.838,-7.09,-4.818,-6.064
-1.53,1.92,-3.555,-5.799,-7.374,-6.235,-6.186,-6.639
-0.255,4.069,-0.181,-2.287,-5.026,-3.418,-4.657,-4.901
2.989,7.516,6.575,4.295,0.584,2.483,0.339,0.006
3.511,8.421,11.252,9.309,5.04,7.219,3.962,3.693
-1.597,4.837,8.641,7.997,3.595,5.963,1.855,1.874
-8.609,-0.188,1.537,2.714,-2.231,0.876,-3.971,-3.162
-12.691,-3.115,-3.245,-0.46,-6.607,-2.112,-7.818,-5.847
-13.358,-3.501,-3.557,0.091,-6.86,-1.546,-7.345,-4.519
-12.948,-2.792,-2.406,1.544,-5.32,-0.114,-5.263,-1.867
-12.848,-1.878,-2.17,2.829,-4.345,1.618,-3.968,0.232
-13.09,-0.995,-2.706,4.521,-3.911,4.307,-3.054,1.721
-14.548,-1.246,-4.526,4.236,-4.471,4.857,-2.946,1.277
-18.195,-3.394,-8.499,-0.088,-7.251,0.773,-4.953,-2.024
-22.213,-5.637,-12.226,-4.761,-10.753,-4.053,-7.481,-5.41
-23.88,-5.866,-12.327,-5.465,-11.775,-5.2,-7.872,-6.007
-22.994,-4.379,-9.215,-3.186,-9.629,-3.412,-6.184,-4.585
-20.423,-2.547,-5.601,-0.953,-6.004,-1.144,-3.708,-2.613
-17.112,-1.542,-3.299,-0.413,-2.877,0.025,-1.564,-0.725
-14.629,-1.448,-2.52,-1.45,-1.218,-0.299,-0.734,0.089
-13.662,-0.849,-2.32,-2.072,-0.448,-0.341,-0.757,0.078
-14.087,0.083,-2.608,-1.215,-0.247,1.072,-0.585,0.736
-15.852,-0.971,-4.296,-0.574,-1.106,2.089,-0.432,2.136
-18.002,-3.97,-6.521,-1.423,-2.328,1.25,-0.825,3.108
-18.998,-5.999,-6.968,-2.416,-2.357,0.094,-0.986,3.604
-18.499,-5.884,-5.475,-2,-1.229,0.422,0.213,4.714
-17.832,-5.396,-4.491,-0.933,-0.722,1.38,1.879,6.249
-18.509,-5.894,-5.592,-0.75,-1.838,1.119,2.017,6.465
-20.764,-6.791,-7.873,-1.249,-3.765,-0.223,0.364,4.591
-23.386,-7.204,-9.475,-1.332,-5.128,-1.269,-1.419,2.24
-24.837,-7.462,-9.04,-1.059,-4.676,-1.749,-1.624,1.493
-25.182,-8.907,-7.241,-1.628,-2.461,-2.552,-0.693,1.881
-25.495,-11.385,-6.399,-3.306,-0.398,-3.984,-0.393,1.669
-25.683,-12.715,-6.941,-4.593,0.371,-4.987,-0.467,1.338
-25.321,-12.578,-6.842,-4.443,0.865,-4.622,0.534,2.384
-25.181,-13.429,-5.515,-3.784,1.653,-3.769,1.673,3.932
-26.265,-16.43,-4.927,-3.9,1.497,-4.128,0.814,3.636
-27.938,-19.312,-5.766,-4.278,0.302,-5.055,-1.033,1.876
-28.519,-19.661,-6.562,-3.877,-0.199,-4.49,-1.208,1.318
-27.578,-18.343,-7.185,-3.244,0.213,-3.013,-0.157,2.168
-25.726,-17.042,-8.292,-2.693,0.533,-2.124,0.291,2.728
-23.48,-15.463,-8.764,-1.722,0.933,-1.258,0.358,2.894
-21.216,-12.968,-7.743,-1.05,1.739,-0.081,0.698,3.204
