EEG 1,EEG 2,EEG 3,EEG 4,EEG 5,EEG 6,EEG 7,EEG 8
28.517,33.432,30.719,42.892,30.6,43.172,20.917,28.374
33.359,34.206,29.21,38.651,29.069,38.057,15.863,24.129
25.4,28.252,22.97,26.512,22.511,22.725,7.797,12.868
16.047,23.948,18.309,22.149,17.752,17.026,7.039,10.857
18.971,28.932,21.438,32.642,21.303,29.448,15.791,25.79
29.545,37.2,26.618,42.336,26.873,40.639,22.132,39.952
38.453,40.466,26.731,41.191,26.936,38.979,20.867,38.3
45.154,41.284,24.328,37.813,24.286,35.202,17.616,28.133
45.631,43.245,19.584,36.426,19.384,34.671,11.461,19.166
34.133,42.563,9.384,31.535,9.135,30.939,0.906,11.403
20.941,36.964,2.011,22.862,1.758,21.796,-3.838,6.112
20.215,31.501,6.914,17.64,6.687,14.909,2.278,7.097
27.464,30.606,16.559,20.149,16.41,18.284,9.125,12.421
31.162,31.867,19.1,24.656,19.077,26.129,9.708,16.306
29.459,30.926,14.813,22.553,14.907,24.868,6.839,13.629
23.061,26.288,6.765,13.059,6.831,12.654,-0.061,2.387
12.489,19.156,-4.505,3.039,-4.714,0.672,-10.896,-9.988
4.674,12.762,-12.366,-0.98,-12.875,-2.325,-15.476,-12.257
4.963,9.352,-11.338,-0.06,-11.836,0.241,-10.207,-5.73
6.45,7.436,-7.961,-0.176,-8.245,0.332,-5.995,-1.689
1.974,6.252,-8.644,-1.573,-8.826,-0.81,-7.841,-3.441
-2.041,8.346,-10.273,0.892,-10.469,4.198,-10.411,-4.451
1.256,12.727,-11.378,5.679,-11.67,12.022,-12.932,-2.795
7.246,14.038,-13.805,5.339,-14.432,10.66,-16.043,-3.33
10.74,11.608,-14.001,-0.451,-15.094,0.118,-15.09,-6.751
12.352,10.631,-8.889,-4.274,-10.211,-6.521,-10.214,-8.9
13.698,13.437,-2.59,-1.921,-3.887,-2.931,-6.717,-7.319
13.086,14.183,-1.609,1.847,-2.909,2.674,-5.796,-4.354
6.323,6.185,-8.143,-0.344,-9.532,0.72,-6.977,-5.698
-2.772,-5.422,-16.865,-6.689,-18.219,-5.356,-10.637,-10.21
-6.272,-11.111,-22.52,-11.511,-23.675,-9.086,-16.153,-11.916
-10.181,-14.189,-27.193,-18.383,-28.358,-16.355,-22.184,-15.724
-20.853,-20.527,-31.532,-28.104,-33.126,-28.061,-24.611,-24.316
-26.137,-24.096,-31.046,-30.103,-33.097,-29.918,-21.032,-24.779
-18.853,-21.089,-27.375,-23.328,-29.603,-20.749,-18.231,-15.859
-12.911,-19.161,-28.094,-20.242,-30.316,-16.94,-22.069,-13.799
-18.311,-22.143,-33.365,-23.764,-35.451,-21.521,-27.029,-20.268
-24.882,-21.94,-34.439,-23.261,-36.398,-20.859,-25.876,-20.895
-21.973,-14.711,-28.942,-15.589,-31.094,-11.709,-22.06,-14.734
-18.035,-13.01,-28.425,-14.16,-31.012,-9.53,-26.212,-17.577
-24.886,-25.616,-40.397,-27.357,-43.198,-23.734,-39.776,-33.804
-36.91,-40.218,-55.088,-43.205,-57.742,-42.141,-51.223,-48.419
-43.323,-43.267,-60.041,-48.298,-62.537,-49.769,-53.042,-50.81
-43.471,-37.627,-54.309,-43.795,-56.93,-45.292,-48.676,-44.528
-41.17,-33.097,-45.144,-37.793,-48.065,-37.08,-42.746,-36.467
-40.868,-35.495,-40.209,-36.411,-43.358,-34.607,-39.553,-33.143
-46.118,-43.294,-42.525,-40.043,-45.84,-39.147,-43.934,-38.941
-51.986,-49.39,-48.538,-44.201,-52.009,-43.871,-53.098,-49.124
-51.754,-49.68,-52.593,-45.61,-56.011,-44.703,-58.349,-53.925
-47.952,-45.475,-51.563,-43.369,-54.762,-42.427,-54.554,-49.764
-44.751,-40.044,-46.139,-39.32,-49.356,-40.253,-45.017,-42.825
-44.037,-39.248,-42.307,-39.604,-45.741,-43.201,-41.831,-43.666
-46.863,-44.494,-43.457,-44.657,-46.87,-49.226,-48.525,-51.128
-45.943,-45.894,-42.376,-44.086,-45.466,-47.691,-48.885,-49.2
-34.612,-36.718,-33.116,-32.384,-35.893,-34.982,-33.449,-33.448
-22.373,-25.074,-22.323,-18.101,-25.024,-19.998,-17.847,-20.316
-20.906,-21.712,-20.051,-12.483,-22.841,-13.033,-19.277,-21.042
-27.53,-27.779,-27.165,-18.772,-29.965,-18.487,-33.124,-29.278
-33.172,-35.992,-34.237,-29.462,-36.819,-30.714,-40.214,-33.77
-31.798,-36.76,-30.417,-30.472,-32.668,-33.955,-29.399,-28.247
-22.547,-26.445,-15.455,-16.982,-17.567,-20.188,-9.04,-14.77
-11.475,-12.2,-1.033,-1.869,-3.262,-2.782,4.426,-2.205
-6.491,-6.213,2.028,0.346,-0.237,0.689,2.942,1.435
-10.603,-13.535,-6.902,-9.843,-8.93,-10.13,-9.618,-4.942
-19.959,-25.197,-19.763,-20.205,-21.495,-21.251,-22.01,-14.348
-25.636,-28.521,-26.052,-20.964,-27.599,-21.316,-24.501,-16.746
-24.253,-23.989,-22.76,-15.37,-24.174,-14.009,-17.972,-10.626
-21.196,-20.165,-16.265,-12.892,-17.571,-10.894,-11.206,-5.903
-19.821,-19.184,-12.89,-14.931,-14.154,-14.041,-10.369,-9.769
-19.566,-19.54,-14.394,-16.522,-15.689,-15.952,-14.5,-16.629
-18.264,-19.218,-16.746,-14.267,-18.091,-12.395,-16.189,-15.645
-12.3,-13.99,-11.962,-6.96,-13.143,-5.599,-7.2,-3.76
-2.181,-4.434,0.607,3.378,-0.041,1.851,9.521,9.949
7.702,3.653,11.77,11.43,11.706,8.594,19.934,15.266
14.183,8.014,15.113,14.12,15.303,12.529,18.276,14.949
16.176,10.353,13.714,14.449,13.851,14.488,14.835,18.266
15.978,12.815,14.364,17.867,14.274,19.424,18.533,24.214
16.132,15.266,18.522,23.587,18.153,26.43,24.822,25.55
15.051,14.512,21.038,24.368,20.515,27.073,26.415,23.476
12.499,10.888,19.361,18.621,18.758,19.746,24.366,22.046
10.593,8.793,15.735,12.183,14.972,11.995,20.485,16.713
9.741,9.384,11.512,9.564,10.658,9.877,13.579,7.52
12.544,11.671,10.085,12.594,9.277,14.403,10.432,7.363
21.375,14.653,15.62,18.862,14.63,20.649,18.186,18.263
30.187,14.93,22.868,21.075,21.416,21.115,27.277,24.428
28.574,9.705,21.148,15.76,19.568,14.547,24.283,18.105
15.825,2.605,11.323,8.597,10.097,7.424,12.835,9.001
6.576,1.468,7.491,8.336,6.361,7.786,7.388,8.234
9.336,5.584,13.334,13.836,11.682,13.717,11.661,13.346
11.283,4.421,14.818,13.751,12.652,13.126,14.917,13.26
6.558,-1.565,8.765,7.26,6.695,5.624,12.762,8.563
8.915,-0.27,8.033,6.354,6.396,4.336,14.119,9.803
18.52,5.822,13.437,11.499,11.918,9.604,20.523,15.002
17.979,3.482,13.159,10.521,11.337,8.035,20.09,11.564
6.973,-4.229,6.426,2.475,4.297,-1.56,9.466,-0.593
3.451,-3.897,4.52,0.882,2.278,-3.537,3.43,-5.141
13.095,4.871,10.52,10.92,8.159,8.257,12.075,6.587
23.074,11.716,14.07,20.323,11.489,18.866,22.225,19.73
21.116,10.964,8.688,19.122,5.98,17.432,18.246,18.148
8.652,4.132,0.667,11.386,-1.971,10.506,6.881,8.177
-2.269,-5.403,-3.155,2.342,-5.81,2.905,1.625,1.278
-5.297,-14.008,-4.83,-7.693,-7.762,-7.768,1.051,-5.196
-6.006,-16.863,-6.809,-13.979,-9.791,-16.054,-0.342,-12.417
-7.765,-12.177,-6.22,-10.742,-8.841,-13.686,-0.776,-12.947
-7.788,-5.747,-3.162,-3.271,-5.689,-5.779,-0.042,-8.599
-5.916,-4.049,-1.495,-0.076,-4.405,-1.894,-1.135,-8.012
-5.515,-8.01,-3.469,-2.106,-6.488,-3.127,-4.083,-9.527
-9.209,-14.875,-9.893,-7.594,-12.344,-7.507,-7.665,-8.452
-14.355,-18.389,-15.901,-12.349,-17.685,-11.341,-8.63,-6.943
-15.006,-14.424,-12.928,-10.101,-14.503,-8.532,-2.227,-5.637
-10.194,-7.971,-3.693,-3.531,-5.181,-1.296,7.491,-3.804
-3.828,-4.905,-0.049,-1.745,-1.101,0.706,9.636,-4.465
0.777,-3.886,-3.596,-5.239,-4.17,-3.377,3.105,-6.355
1.163,-3.112,-6.092,-7.537,-6.567,-5.658,-2.912,-4.089
-2.315,-2.471,-4.664,-5.548,-5.175,-2.344,-3.065,2.457
-4.03,0.561,-1.298,0.17,-1.561,5.001,2.405,11.111
-2.414,3.136,2.811,5.008,2.968,11.066,11.345,18.866
-3.003,-1.043,4.602,3.662,4.966,10.775,17.326,18.801
-4.354,-5.611,1.229,0.255,1.598,9.051,14.597,10.486
-1.701,-2.302,-5.652,0.54,-5.124,11.279,5.865,3.675
-1.894,0.913,-12.065,0.11,-11.169,10.778,-1.721,3.606
-11.213,-5.907,-15.427,-5.59,-14.336,2.715,-4.369,5.158
-22.139,-18.064,-17.281,-13.676,-16.282,-7.62,-3.964,1.35
-25.189,-24.103,-20.488,-19.835,-19.49,-15.014,-4.838,-8.059
-20.729,-21.14,-23.504,-21.889,-22.279,-17.939,-8.063,-15.598
-16.782,-16.092,-24.331,-20.286,-23.033,-17.031,-11.62,-15.243
-17.511,-12.588,-23.935,-16.541,-22.943,-13.743,-13.886,-10.067
-17.136,-8.325,-21.917,-11.824,-21.189,-9.337,-13.007,-7.218
-12.957,-7.036,-19.443,-10.412,-18.512,-8.274,-9.111,-9.404
-13.47,-15.291,-21.105,-17.066,-19.824,-15.377,-8.028,-15.322
-22.178,-27.031,-26.085,-27.457,-24.759,-26.4,-13.388,-22.562
-30.199,-30.49,-28.355,-32.221,-27.176,-31.575,-19.63,-27.066
-33.136,-26.43,-26.988,-30.867,-25.956,-29.614,-22.236,-27.406
-34.935,-22.322,-25.775,-29.572,-24.817,-27.844,-23.094,-26.809
-33.485,-18.265,-24.255,-28.332,-23.142,-27.857,-21.098,-25.274
-23.449,-12.316,-18.623,-23.291,-17.232,-24.133,-13.196,-19.744
-11.12,-7.438,-11.223,-16.972,-9.722,-17.691,-3.593,-12.586
-8.307,-4.965,-8.893,-13.56,-7.414,-14.303,0.939,-7.99
-12.714,-2.342,-10.902,-10.779,-9.416,-12.238,1.119,-4.705
-12.269,-0.204,-10.29,-6.684,-8.794,-8.812,1.655,-1.858
-7.253,-2.193,-7.175,-5.652,-5.653,-8.975,0.876,-4.003
-6.081,-5.885,-7.248,-8.717,-5.587,-13.262,-4.486,-11.134
-6.351,-3.539,-8.499,-8.141,-6.67,-12.003,-6.875,-12.714
-1.299,5.18,-3.798,-1.051,-1.889,-2.995,1.365,-3.325
5.617,11.049,4.352,3.402,6.378,2.056,10.914,5.419
5.589,7.228,4.706,-1.136,6.919,-2.856,9.425,2.908
-0.65,-1.958,-4.335,-7.77,-2.072,-8.56,1.672,-3.892
-2.976,-6.609,-10.693,-8.454,-8.48,-7.4,-1.676,-5.841
-0.4,-5.439,-8.944,-6.655,-6.746,-4.936,-1.838,-4.513
-0.223,-3.203,-6.018,-6.762,-3.908,-5.532,-3.431,-2.273
-1.092,0.534,-5.732,-4.705,-3.785,-3.572,-3.038,0.813
-0.476,4.009,-6.559,-0.363,-4.694,1.202,1.714,2.079
-0.613,2.351,-6.293,0.934,-4.478,2.387,6.443,1.159
1.341,-0.484,-2.606,0.446,-0.874,0.991,7.989,1.106
6.061,0.623,1.323,1.092,3.058,0.64,6.125,0.343
7.167,2.916,-0.388,0.269,1.376,-1.213,1.442,-3.82
3.947,3.407,-5.834,-3.748,-4.17,-7.115,-2.015,-7.486
1.382,1.103,-7.902,-8.235,-6.271,-13.498,0.529,-7.52
1.144,-3.859,-4.73,-9.197,-2.823,-13.593,6.37,-5.421
-0.267,-9.432,-5.13,-8.697,-2.861,-9.414,3.033,-4.835
-7.998,-15.443,-17.833,-15.641,-15.391,-14.046,-16.051,-13.651
-18.708,-20.727,-32.89,-28.382,-30.424,-28.329,-35.073,-30.815
-24.158,-23.118,-36.867,-34.708,-34.514,-37.167,-39.234,-41.481
-26.216,-26.125,-36.596,-34.467,-34.496,-37.041,-37.908,-40.996
-28.527,-29.665,-38.076,-32.84,-36.129,-33.719,-37.367,-36.124
-28.236,-27.583,-34.401,-27.139,-32.381,-26.604,-30.175,-30.547
-27.944,-25.139,-30.109,-23.431,-27.888,-22.619,-23.238,-30.899
-32.312,-31.781,-35.374,-32.586,-32.847,-32.647,-28.871,-40.238
-35.891,-39.817,-42.805,-45.41,-39.983,-46.826,-37.408,-46.367
-33.222,-37.824,-42.974,-46.929,-40.156,-49.19,-36.9,-43.146
-27.9,-30.081,-40.901,-41.399,-38.376,-43.795,-35.185,-41.917
-22.848,-24.304,-39.758,-38.094,-37.454,-40.28,-38.002,-45.197
-19.19,-20.591,-35.958,-35.28,-33.688,-37.127,-36.731,-41.823
-21.547,-19.82,-32.754,-31.115,-30.615,-32.584,-28.645,-32.705
-27.585,-23.388,-32.855,-28.082,-30.974,-28.909,-20.588,-27.183
-26.45,-26.561,-29.113,-25.149,-27.264,-25.072,-14.613,-23.19
-18.526,-26.534,-20.971,-23.025,-18.857,-22.87,-11.526,-19.169
-15.226,-25.847,-19.371,-26.067,-17.045,-27.052,-17.237,-24.505
-17.718,-23.148,-26.539,-30.847,-24.223,-33.055,-29.718,-39.146
-19.484,-17.693,-31.866,-31.386,-29.621,-34.588,-35.396,-47.185
-20.824,-16.005,-29.587,-30.449,-27.403,-34.127,-28.82,-40.542
-22.721,-20.488,-25.207,-31.505,-23.143,-33.579,-20.479,-29.565
-21.706,-23.996,-24.82,-32.156,-22.839,-31.448,-20.708,-26.478
-19.06,-21.772,-27.593,-31.224,-25.543,-30.06,-26.768,-31.725
-19.406,-17.377,-28.973,-31.144,-26.768,-32.319,-28.884,-37.025
-19.356,-13.48,-25.897,-30.63,-23.54,-34.155,-23.223,-34.346
-12.281,-6.967,-18.471,-24.524,-16.087,-29.066,-14.645,-24.427
-1.864,2.058,-11.186,-15.195,-8.977,-19.694,-11.262,-17.897
2.438,6.57,-10.948,-13.039,-8.954,-16.458,-17.124,-22.746
-1.016,2.613,-18.034,-20.678,-16.194,-22.563,-26.23,-32.888
-6.872,-5.413,-24.411,-28.789,-22.655,-29.618,-29.602,-36.66
-11.217,-11.02,-24.85,-29.943,-22.949,-30.172,-26.989,-31.995
-12.894,-11.951,-21.63,-25.874,-19.375,-25.696,-23.575,-24.645
-12.799,-11.3,-19.506,-22.015,-17.024,-22.044,-22.112,-19.254
-14.435,-14.012,-21.794,-22.912,-19.437,-24.009,-23.622,-19.78
-18.699,-20.846,-27.267,-30.398,-25.34,-32.84,-28.53,-28.68
-21.193,-26.847,-30.876,-39.794,-29.462,-43.115,-33.554,-39.763
-20.407,-28.469,-30.718,-42.756,-29.581,-45.844,-34.168,-42.847
-20.31,-28.407,-29.569,-38.237,-28.352,-40.196,-31.488,-37.724
-21.529,-28.351,-28.152,-32.47,-26.717,-34.114,-29.089,-32.475
-20.891,-25.214,-25.125,-29.229,-23.597,-31.921,-27.681,-31.86
-19.285,-19.015,-22.727,-28.117,-21.336,-31.353,-27.224,-34.093
-19.131,-14.281,-22.123,-26.904,-20.899,-29.205,-25.349,-32.781
-20.284,-14.751,-21.338,-25.295,-20.022,-26.468,-20.685,-25.828
-24.046,-21.234,-24.035,-27.743,-22.528,-28.512,-21.28,-23
-29.363,-28.109,-32.12,-33.528,-30.695,-34.086,-31.217,-29.908
-30.342,-28.4,-36.871,-34.953,-35.779,-35.307,-40.026,-36.31
-27.457,-25.491,-34.371,-32.207,-33.552,-33.239,-40.76,-34.966
-26.885,-25.552,-30.101,-30.847,-29.226,-33.726,-36.876,-31.496
-27.745,-25.869,-26.629,-29.443,-25.404,-34.004,-31.82,-31.14
-24.974,-22.335,-24.184,-24.93,-22.609,-29.515,-28.413,-31.873
-20.585,-16.787,-23.972,-20.118,-22.267,-23.473,-29.06,-30.714
-20.464,-13.044,-24.645,-19.101,-23.18,-21.66,-31.06,-29.085
-21.964,-11.406,-22.39,-19.736,-21.475,-22.18,-28.143,-27.71
-17.182,-9.209,-15.56,-16.255,-15.087,-17.944,-19.092,-23.384
-8.61,-5.822,-7.787,-8.551,-7.396,-8.627,-9.671,-13.812
-4.516,-1.747,-2.749,-0.888,-2.271,0.03,-2.616,-0.705
-2.784,4.165,1.112,3.937,1.624,4.232,2.784,7.468
2.705,11.475,5.412,4.799,5.843,3.942,3.865,4.172
8.896,16.808,9.419,3.177,9.706,2.459,2.248,-0.928
10.312,17.658,12.101,2.01,12.416,2.597,3.242,1.763
8.576,14.136,9.845,1.237,10.492,3.1,2.693,3.7
5.501,6.206,0.712,-2.636,1.614,0.433,-5.367,-2.376
-1.971,-5.24,-9.232,-10.422,-8.563,-6.701,-15.725,-9.646
-11.288,-13.179,-12.434,-15.264,-12.202,-12.685,-18.989,-12.172
-13.419,-10.569,-8.443,-11.877,-8.257,-11.441,-14.021,-12.163
-7.942,-2.608,-3.185,-6.872,-2.654,-7.795,-8.285,-14.53
-4.627,-1.086,-3.035,-8.2,-2.348,-8.989,-7.107,-19.556
-9.565,-7.558,-9.368,-13.289,-8.94,-12.149,-9.275,-20.281
-17.854,-13.771,-17.626,-17.793,-17.441,-14.282,-13.205,-14.78
-20.037,-15.705,-21.541,-22.481,-21.288,-19.064,-18.38,-12.665
-15.664,-15.718,-19.463,-25.37,-19.177,-24.352,-20.603,-17.699
-13.619,-14.458,-15.319,-22.35,-15.323,-22.615,-15.365,-20.418
-14.725,-10.215,-11.876,-16.921,-12.153,-16.17,-7.416,-17.007
-11.028,-4.335,-9.148,-15.642,-9.406,-13.629,-5.539,-14.524
-5.462,-1.701,-8.877,-17.386,-9.102,-14.722,-9.026,-14.247
-7.789,-4.078,-11.527,-17.294,-11.872,-13.862,-11.801,-11.058
-12.221,-4.899,-11.496,-13.865,-11.942,-10.46,-12.013,-6.71
-6.446,2.01,-4.082,-7.632,-4.604,-6.056,-9.308,-6.711
3.416,11.136,5.067,-0.703,4.44,-1.184,-3.934,-8.679
3.789,13.781,7.05,3.827,6.331,3.102,0.495,-6.555
-2.202,10.771,2.892,4.806,1.961,5.299,0.889,-2.221
-3.714,7.557,-0.919,2.514,-2.21,3.646,-1.728,-1.871
-0.501,5.951,-1.838,-1.848,-3.338,-1.096,-3.358,-4.963
0.808,4.799,-0.124,-5.799,-1.528,-4.949,-2.05,-6.4
-2.421,3.172,1.558,-6.967,0.412,-4.666,-1.321,-3.811
-6.396,2.314,0.123,-4.319,-0.842,0.322,-3.008,1.077
-7.075,4.252,-2.261,-0.266,-3.23,5.787,-3.757,2.238
-5.02,8.125,-1.71,1.683,-2.659,6.863,-1.98,-2.675
-1.688,10.457,1.179,2.528,0.382,6.595,1.532,-5.222
1.431,9.197,3.47,4.725,2.736,9.846,5.931,0.313
0.28,5.068,3.996,6.481,3.224,12.976,7.975,6.505
-5.985,0.019,3.989,5.358,3.323,10.675,5.273,6.183
-10.307,-2.739,4.818,3.898,4.332,6.854,1.743,3.21
-7.237,-0.784,5.825,5.367,5.2,7.612,2.402,3.357
-1.666,3.422,6.446,7.891,5.276,10.669,6.091,5.597
0.688,5.478,7.708,8.018,5.989,11.303,7.871,5.898
2.035,4.349,8.717,5.315,6.795,9.475,5.277,2.903
4.546,1.955,7.269,1.687,5.398,6.508,1.148,-0.845
7.602,1.605,6.049,-0.138,4.263,3.255,0.528,-1.628
11.71,5.362,9.949,2.173,8.239,2.793,5.141,1.631
14.819,12.043,17.419,9.005,15.729,8.528,13.501,8.786
16.14,20.349,23.744,18.155,21.972,18.718,22.869,20.088
21.018,29.195,28.396,26.2,26.494,27.763,28.837,30.898
29.064,35.333,32.717,31.031,30.588,32.82,29.878,33.761
31.846,36.364,35.858,32.135,33.258,34.382,29.47,29.541
28.141,33.582,35.818,29.7,32.612,32.575,28.348,25.905
25.832,31.102,33.79,27.313,30.202,29.903,25.735,27.987
30.218,32.751,34.254,31.191,30.669,33.732,26.78,37.106
37.496,36.799,37.045,39.83,33.633,45.053,32.704,48.151
40.04,38.831,37.865,43.809,34.461,52.612,35.594,51.602
39.092,39.887,39.016,41.753,35.436,50.337,35.547,48.805
40.02,41.331,44.295,40.9,40.681,45.748,40.326,49.512
36.725,38.067,46.755,40.596,43.293,42.662,44.781,51.898
22.246,26.923,38.49,33.495,34.969,35.173,37.016,45.464
6.05,13.879,25.701,21.654,21.75,23.542,21.394,31.794
3.213,7.75,21.466,15.843,17.196,17.781,13.869,25.489
13.895,10.424,27.558,19.792,23.49,22.133,18.763,32.109
23.118,15.594,33.377,26.349,29.679,29.463,25.62,39.92
21.026,17.098,32.953,29.212,29.375,32.949,26.515,39.215
14.411,15.358,30.648,29.656,27.052,33.788,23.941,34.284
12.168,12.11,28.129,28.345,24.575,32.806,20.96,30.379
10.086,3.768,20.606,19.466,17.181,23.599,13.643,23.03
0.568,-10.626,9.999,3.685,6.667,6.571,1.249,9.943
-9.781,-20.126,6.97,-4.567,3.441,-2.672,-5.062,1.834
-8.029,-14.438,13.336,1.872,9.388,3.417,0.908,5.977
2.329,-0.865,18.059,10.225,13.969,11.106,7.902,11.467
6.665,5.553,16.505,9.243,12.657,10.17,6.799,7.937
3.296,2.32,14.4,3.574,10.697,6.897,2.746,2.402
0.514,-3.628,12.272,-1.423,8.569,4.323,-0.416,1.926
-0.946,-9.77,6.398,-8.078,2.963,-2.812,-6.081,-0.214
-3.331,-15.157,0.36,-14.487,-2.632,-10.741,-13.375,-7.78
-3.608,-15.419,-0.924,-13.389,-3.671,-8.871,-16.973,-12.155
-2.587,-11.971,-2.278,-7.452,-5.101,-0.761,-18.115,-9.657
-5.985,-12.415,-9.047,-7.578,-12.28,-0.936,-21.412,-8.467
-10.783,-15.747,-14.134,-13.278,-17.867,-9.205,-23.752,-12.093
-9.129,-14.207,-10.558,-14.92,-14.378,-12.52,-21.379,-14.251
-5.472,-10.129,-6.542,-12.704,-9.963,-9.245,-19.085,-12.534
-8.957,-10.649,-10.279,-12.401,-13.325,-6.676,-20.231,-10.624
-13.272,-11.085,-13.625,-11.148,-16.618,-4.507,-20.306,-8.428
-7.521,-4.523,-7.967,-4.591,-11.035,0.853,-16.55,-3.794
1.272,2.466,-0.87,2.023,-4.044,5.886,-13.042,0.219
2.328,2.765,-0.936,2.795,-4.3,6.268,-12.213,1.022
1.759,1.744,-3.555,0.825,-7.029,4.985,-12.118,0.562
4.154,1.357,-6.138,-2.616,-9.479,2.405,-15.125,-3.537
-0.351,-4.987,-13.787,-11.245,-16.806,-5.872,-22.827,-12.963
-12.124,-13.128,-21.56,-19.69,-24.242,-14.295,-26.858,-17.975
-15.527,-11.599,-19.193,-19.162,-21.796,-14.033,-22.415,-13.381
-3.842,-1.507,-9.768,-12.253,-12.564,-7.907,-16.278,-7.685
12.118,7.344,-2.111,-5.828,-4.944,-2.013,-12.91,-4.811
18.191,10.172,0.589,-2.387,-1.824,1.383,-11.265,-2.682
10.081,7.369,-3.06,-3.207,-4.88,-0.083,-13.422,-5.05
-3.452,0.367,-10.921,-7.915,-12.485,-6.006,-19.805,-12.518
-10.293,-7.191,-15.089,-12.095,-16.771,-10.998,-23.566,-16.979
-7.703,-9.86,-12.467,-11.741,-14.176,-11.004,-21.033,-15.395
-1.883,-6.345,-9.034,-7.972,-10.415,-6.942,-16.999,-12.518
1.177,-1.189,-8.397,-4.965,-9.385,-2.537,-14.813,-10.486
1.023,2.343,-6.765,-4.011,-7.659,-0.349,-12.334,-7.784
1.828,5.632,-2.163,-2.294,-3.148,0.918,-8.745,-3.93
5.124,8.563,0.842,0.389,-0.048,2.336,-7.657,-1.252
4.556,6.634,-1.84,-0.377,-2.408,1.055,-11.362,-2.995
-4.016,-2.438,-7.406,-5.686,-7.752,-4.121,-15.927,-7.579
-11.913,-12.408,-9.938,-9.939,-10.31,-8.43,-16.489,-9.118
-10.144,-14.689,-8.703,-8.493,-9.026,-7.336,-14.648,-6.553
-5.194,-11.84,-8.469,-5.683,-8.422,-4.519,-15.896,-6.195
-8.389,-15.237,-13.386,-10.218,-12.958,-8.063,-22.584,-12.701
-19.092,-27.469,-23.887,-22.391,-23.436,-18.966,-32.3,-22.751
-29.553,-38.331,-35.071,-32.806,-34.718,-29.111,-40.007,-29.341
-34.73,-39.707,-38.749,-34.616,-38.158,-31.394,-41.583,-29.218
-31.921,-34.223,-32.537,-29.39,-31.519,-26.445,-36.868,-24.163
-22.492,-27.753,-22.438,-20.955,-21.252,-18.029,-27.853,-16.473
-14.233,-22.713,-14.818,-12.735,-13.706,-10.208,-18.091,-9.296
-14.297,-20.595,-11.918,-9.559,-10.826,-8.326,-13.557,-7.695
-22.323,-23.632,-14.544,-14.125,-13.325,-14.239,-17.323,-12.514
-32.897,-31.116,-22.802,-23.361,-21.355,-23.201,-26.24,-19.137
-40.078,-38.203,-32.604,-30.806,-30.938,-28.549,-35.139,-23.287
-38.684,-39.262,-36.962,-31.575,-35.303,-27.37,-40.64,-23.548
-28.816,-32.021,-33.213,-25.724,-31.806,-21.55,-40.87,-20.456
-20.282,-22.027,-25.742,-18.397,-24.539,-15.32,-35.657,-16.053
-21.646,-17.751,-20.882,-14.999,-19.623,-12.063,-28.731,-13.262
-27.539,-18.612,-20.498,-15.186,-18.956,-11.682,-24.666,-12.383
-28.745,-18.605,-21.126,-15.084,-19.289,-11.398,-22.763,-10.295
-27.573,-17.807,-20.324,-13.876,-18.488,-9.979,-20.444,-6.795
-30.628,-18.057,-20.067,-12.906,-18.478,-8.838,-18.976,-5.673
-34.432,-16.673,-20.548,-12.237,-18.965,-9.075,-18.861,-7.219
-32.141,-13.431,-18.44,-12.735,-16.527,-10.868,-17.042,-7.431
-24.917,-12.307,-14.195,-15.382,-12.122,-13.694,-13.492,-5.611
-18.967,-15.004,-13.288,-18.773,-11.374,-16.664,-13.08,-6.592
-21.444,-21.498,-18.532,-22.369,-16.656,-20.451,-18.342,-12.688
-33.875,-30.249,-25.856,-26.26,-23.781,-24.785,-25.476,-18.563
-46.19,-37.106,-30.243,-28.933,-28.155,-27.603,-29.849,-20.055
-48.392,-40.899,-31.725,-30.685,-29.891,-29.366,-32.042,-22.146
-44.064,-43.916,-33.167,-33.743,-31.38,-32.229,-35.349,-30.417
-43.819,-45.808,-35.822,-37.708,-33.756,-36.233,-38.189,-38.836
-47.515,-43.762,-35.829,-37.928,-33.764,-37.387,-34.11,-36.121
-43.599,-37.201,-27.623,-31.185,-26.128,-31.765,-23.404,-24.7
-31.238,-29.53,-14.89,-22.222,-13.809,-23.591,-14.952,-17.185
-25.859,-26.85,-9.414,-19.021,-8.086,-21.273,-13.221,-16.405
-34.174,-32.905,-15.184,-23.953,-13.668,-26.613,-16.648,-18.993
-43.121,-41.987,-22.758,-31.279,-21.69,-33.297,-22.998,-24.389
-41.645,-44.249,-23.797,-32.297,-23.203,-33.308,-27.273,-28.164
-35.8,-40.358,-22.202,-26.796,-21.576,-26.636,-26.404,-26.453
-34.781,-38.564,-23.212,-23.215,-22.424,-21.993,-23.721,-22.884
-36.859,-39.687,-22.894,-23.862,-22.155,-23.172,-20.991,-19.942
-36.677,-38.7,-18.157,-23.756,-17.514,-25.192,-18.27,-18.349
-35.422,-35.557,-14.304,-22.385,-13.654,-25.487,-18.864,-20.575
-36.057,-33.643,-15.177,-21.677,-14.473,-24.931,-21.824,-22.636
-34.348,-32.05,-16.134,-18.955,-15.365,-20.814,-19.983,-16.398
-25.687,-28.88,-13.339,-14.097,-12.549,-12.921,-13.516,-5.606
-19.356,-29.366,-13.57,-15.911,-12.955,-11.615,-14.182,-6.376
-25.214,-35.231,-20.356,-26.642,-20.078,-21.549,-24.66,-21.696
-30.376,-33.753,-20.159,-30.411,-20.132,-26.284,-27.594,-29.208
-18.21,-18.671,-5.764,-17.413,-5.835,-13.275,-14.034,-14.753
3.882,-2.987,7.671,-0.97,7.552,4.42,0.732,5.796
18.682,3.841,9.764,6.334,9.637,11.895,5.386,15.712
20.418,6.082,8.749,8.391,8.654,12.284,6.544,18.371
12.867,6.664,10.026,9.945,9.923,11.836,8.848,20.594
2.429,2.727,7.901,7.266,7.649,7.899,6.612,17.825
-3.168,-4.388,1.245,-0.082,0.83,-0.126,-1.668,7.706
0.423,-7.788,-2.223,-3.826,-2.476,-4.43,-6.73,2.988
7.094,-5.979,0.215,-0.352,0.438,-1.112,-2.581,11.36
8.904,-3.445,4.171,5.201,4.805,5.284,5.639,20.238
7.934,-0.323,8.383,10.322,9.153,11.054,11.85,19.432
8.042,4.08,12.134,15.056,12.864,14.855,13.545,17.011
7.822,5.002,12.504,17.027,13.252,16.066,11.099,21.795
8.158,2.883,12.811,17.638,13.731,17.329,9.955,29.53
12.148,5.018,17.976,20.591,19.171,19.975,12.78,32.103
16.44,10.88,23.506,23.637,25.102,21.582,15.908,29.928
16.948,15.643,25.166,25.26,27.181,23.562,20.104,30.698
19.158,20.128,27.457,28.041,29.618,27.858,28.18,36.237
24.35,19.632,28.414,25.938,30.408,25.542,31.05,35.085
20.016,6.483,18.79,10.546,20.654,8.59,18.073,18.542
3.482,-9.147,4.9,-7.092,7.017,-9.678,-0.093,0.395
-7.764,-10.274,3.259,-8.424,5.9,-10.067,-3.327,-0.325
-1.306,1.58,15.248,5.351,18.198,5.223,9.922,13.291
15.859,13.596,29.632,20.412,32.424,21.37,26.141,27.424
31.166,19.384,38.296,29.151,40.736,29.873,35.162,35.955
36.173,18.089,37.957,29.138,40.315,27.714,33.988,36.125
24.564,9.032,27.762,20.201,30.475,16.378,24.392,26.481
0.452,-5.169,11.932,7.673,15.185,4.156,12.031,12.117
-17.325,-16.308,-0.331,-1.391,3.259,-2.04,3.044,2.194
-16.273,-17.859,-3.425,-4.537,0.066,-3.385,-0.288,1.577
-5.338,-13.385,-1.915,-4.201,1.162,-4.413,-0.321,5.455
-0.205,-11.95,-2.349,-3.915,0.453,-6.495,0.104,5.87
-5.244,-16.185,-4.046,-4.304,-1.068,-7.678,1.174,2.79
-15.099,-22.162,-5.481,-5.237,-2.069,-8.774,2.598,-0.187
-23.87,-27.079,-9.1,-8.136,-5.466,-12.616,0.896,-3.309
-26.467,-29.391,-13.368,-11.144,-9.918,-16.033,-4.442,-6.128
-20.446,-27.231,-11.699,-9.574,-8.487,-13.61,-7.263,-6.143
-11.065,-20.684,-3.616,-3.372,-0.358,-7.055,-3.487,-3.534
-5.715,-12.693,2.343,1.92,5.724,-2.983,1.746,-1.277
-5.133,-7.948,0.879,1.723,4.267,-4.852,2.132,-1.176
-6.102,-9.172,-3.273,-2.564,0.156,-9.56,-0.928,-2.921
-3.894,-11.168,-3.126,-4.474,0.334,-10.35,-2.702,-5.483
6.882,-3.571,3.722,2.46,7.003,-2.56,-0.122,-4.217
22.204,13.236,14.023,16.743,17.1,11.324,8.383,6.57
30.379,24.639,21.218,27.589,24.407,22.441,19.15,21.667
30.432,24.283,23.28,28.922,26.798,25.494,24.914,28.196
31.758,22.189,24.132,26.037,27.774,22.769,24.401,22.645
37.545,23.887,24.716,23.594,28.184,17.529,21.191,12.907
43.138,24.87,22.997,22.013,26.357,13.804,18.061,8.628
41.83,22.946,20.407,21.729,23.876,14.781,17.509,12.63
30.2,19.016,18.293,20.816,21.822,16.365,18.705,17.883
18.405,14.927,15.401,18.025,18.752,14.544,17.759,18.245
19.029,13.583,12.294,16.235,15.37,12.444,14.612,15.685
24.574,14.502,10.624,16.554,13.669,12.664,11.569,11.456
22.852,14.847,10.391,17.276,13.749,13.65,9.212,5.166
19.663,15.133,11.221,18.556,14.838,14.55,9.028,2.24
23.784,17.444,13.884,21.121,17.332,16.556,13.263,7.222
31.239,20.27,19.36,22.855,22.388,18.949,20.966,15.16
35.367,20.659,25.782,21.55,28.591,18.461,28.511,19.481
35.604,18.639,28.74,19.338,31.576,15.921,32.552,21.116
33.227,14.794,26.831,18.912,29.663,15.59,32.048,23.311
27.474,7.012,22.338,16.311,25.188,14.156,27.408,21.55
16.776,-6.055,12.976,4.997,16.01,2.961,13.635,7.051
3.734,-20.17,-4.844,-11.822,-1.703,-15.298,-11.427,-16.225
-3.518,-29.111,-21.147,-22.434,-18.144,-26.722,-29.88,-31.025
-0.186,-31.099,-21.553,-21.42,-18.761,-25.054,-25.501,-29.335
8.783,-27.285,-9.089,-13.806,-6.437,-17.159,-9.725,-19.551
14.702,-19.956,1.924,-6.673,4.557,-11.017,1.383,-10.874
15.32,-13.254,5.96,-2.448,8.688,-6.883,8.457,-3.434
15.835,-9.381,7.261,0.751,10.089,-1.636,14.227,5.023
19.893,-6.678,8.583,3.943,11.329,3.148,14.949,10.235
24.375,-4.665,9.382,5.722,11.745,4.237,11.973,9.384
23.835,-5.188,10.166,6.098,12.23,3.02,13.593,9.348
19.684,-5.631,12.696,8.472,15.098,3.692,22.211,14.79
19.244,-1.791,14.824,12.527,17.783,6.131,26.486,16.658
20.63,0.256,9.142,8.646,12.123,1.93,12.864,2.518
14.523,-7.646,-3.66,-6.021,-0.908,-11.801,-9.696,-19.692
4.36,-17.941,-9.502,-15.268,-6.715,-19.604,-14.809,-23.818
2.92,-17.953,-0.298,-6.801,2.45,-8.632,3.923,-2
11.301,-9.84,14.4,8.19,16.741,8.957,26.537,23.219
18.637,-3.679,20.262,12.846,22.27,13.092,34.748,28.24
18.094,-1.981,14.293,7.202,16.309,3.898,27.531,13.809
13.569,-1.232,6.165,3.081,8.093,-2.661,16.736,0.452
12.164,-0.46,4.479,4.667,5.922,-0.913,11.754,-0.742
16.931,0.846,10.592,9.211,11.529,4.565,14.894,4.097
25.609,6.338,23.383,19.345,24.244,16.446,29.029,16.024
29.34,12.021,32.888,30.171,33.939,30.398,43.053,32.719
20.347,6.361,25.763,23.701,26.781,25.893,34.671,29.576
5.323,-7.776,8.994,1.524,9.67,2.711,12.846,2.849
-1.879,-14.725,-1.167,-11.836,-0.845,-12.124,3.629,-13.822
1.384,-10.468,-4.098,-8.505,-4,-8.436,3.707,-6.793
9.609,-1.244,-1.035,0.928,-1.115,2.041,6.512,7.694
19.204,9.02,10.148,10.771,9.974,12.166,18.353,19.728
25.098,15.712,16.256,16.106,16.256,17.071,22.837,21.082
23.967,15.99,6.903,13.154,7.27,13.52,4.64,8.053
19.61,12.034,-3.083,7.223,-2.521,7.206,-12.132,-2.448
15.944,6.237,-0.492,3.728,-0.007,3.37,-5.551,1.799
16.666,4.095,7.47,5.049,7.883,4.306,10.059,12.286
25.803,11.704,14.92,13.453,15.412,12.638,19.24,22.268
37.802,23.935,25.453,24.964,26.085,24.18,29.209,34.14
39.288,28.127,31.823,28.216,32.561,27.059,38.134,39.971
27.009,20.737,21.249,18.377,22.024,16.962,26.863,26.071
16.136,11.7,7.467,8.563,8.269,8.151,5.966,6.498
19.672,9.582,13.301,11.089,14.108,12.323,7.183,7.374
28.104,12.04,27.113,17.019,27.973,17.904,22.457,18.339
28.439,15.007,27.505,16.479,28.756,14.547,24.175,15.733
26.729,19.119,22.872,16.793,24.649,12.698,18.391,8.844
32.118,24.973,26.707,24.739,28.477,21.263,22.107,15.734
36.782,27.873,31.837,32.488,33.083,31.201,29.707,27.241
27.336,19.898,26.668,27.077,27.549,27.569,27.39,21.983
7.975,2.994,12.098,8.079,13.024,9.213,13.454,-1.369
-1.838,-8.228,0.904,-7.898,1.935,-6.852,1.542,-19.635
3.534,-7.682,1.315,-8.822,2.491,-7.547,3.604,-16.019
8.78,-4.834,5.88,-2.082,7.557,0.032,12.808,-1.468
6.796,-4.47,9.584,3.254,11.717,5.301,21.126,9.065
4.88,-3.796,13.73,5.281,15.794,5.323,25.487,10.84
2.336,-5.711,8.634,-0.483,10.599,-3.06,13.768,-1.842
-5.635,-11.838,-9.109,-12.269,-6.934,-16.581,-10.119,-21.732
-16.04,-18.24,-25.424,-21.477,-23.226,-26.366,-26.531,-34.231
-26.991,-26.93,-34.945,-29.991,-33.037,-34.234,-38.409,-44.225
-35.232,-37.57,-37.421,-37.623,-35.624,-40.411,-45.206,-50.633
-32.155,-38.898,-24.951,-32.893,-22.924,-34.513,-26.357,-37.098
-22.214,-30.66,-9.262,-21.332,-7.058,-22.71,0.085,-17.619
-23.005,-30.124,-18.36,-25.637,-16.456,-27.418,-13.073,-27.255
-35.682,-41.328,-45.386,-44.88,-44.119,-46.367,-53.863,-58.364
-42.592,-46.854,-55.365,-53.162,-54.551,-52.885,-65.321,-67.308
-40.046,-41.018,-44.852,-44.895,-44.125,-42.612,-42.894,-47.163
-42.988,-39.889,-40.686,-42.616,-39.978,-39.433,-32.444,-37.165
-53.803,-49.446,-49.929,-55.011,-49.536,-52.761,-48.942,-55.483
-55.649,-53.043,-52.436,-61.555,-52.643,-62,-58.873,-70.362
-41.061,-40.179,-37.898,-47.074,-38.457,-50.006,-38.959,-53.165
-25.556,-24.653,-23.836,-26.927,-24.054,-30.441,-14.892,-25.686
-25.657,-23.503,-29.23,-24.7,-28.892,-27.929,-22.123,-26.88
-36.696,-33.791,-45.598,-38.972,-45.35,-42.78,-49.432,-53.13
-41.201,-39.235,-50.017,-48.084,-50.389,-52.894,-57.95,-66.704
-31.598,-31.416,-38.295,-40.72,-38.983,-45.385,-41.966,-53.358
-16.777,-17.369,-23.992,-25.739,-24.397,-28.873,-24.082,-32.298
-9.395,-7.871,-15.069,-15.504,-14.829,-17.039,-12.104,-18.996
-12.64,-5.944,-13.393,-13.93,-12.367,-15.267,-6.291,-16.5
-20.883,-8.936,-21.562,-19.15,-19.936,-21.372,-15.479,-26.939
-26.378,-11.645,-33.571,-24.863,-31.859,-27.524,-34.086,-41.912
-22.51,-6.977,-33.886,-21.882,-32.488,-24.16,-36.76,-41.657
-10,5.067,-17.292,-9.695,-16.171,-10.923,-13.645,-21.462
-0.123,13.318,-0.086,-0.734,1.139,-0.554,10.847,-2.482
-1.508,10.548,0.389,-3.279,2.069,-2.683,9.724,-4.023
-7.701,4.028,-10.088,-9.567,-8.024,-10.288,-9.248,-18.276
-9.427,1.654,-16.342,-11.194,-14.267,-14.183,-21.872,-28.458
-8.715,1.747,-16.951,-10.062,-15.069,-15.059,-22.224,-30.737
-8.143,3.61,-14.198,-6.496,-12.376,-12.396,-12.722,-23.418
-5.379,8.432,-7.468,0.5,-5.444,-5.582,3.324,-8.012
-7.347,8.074,-8.057,0.682,-5.911,-6.041,6.668,-4.233
-21.636,-4.301,-24.732,-13.523,-23.038,-21.315,-13.99,-23.064
-34.362,-16.795,-38.743,-26.892,-37.808,-35.178,-31.497,-37.252
-31.714,-17.556,-33.839,-25.375,-33.168,-33.262,-23.855,-26.976
-28.116,-17.587,-28.46,-23.019,-27.619,-29.321,-17.117,-20.31
-38.577,-27.966,-39.466,-32.969,-39.037,-36.41,-34.171,-38.158
-51.508,-38.249,-51.733,-43.208,-52.512,-44.533,-53.388,-57.578
-53.459,-38.172,-51.447,-44.074,-53.261,-45.747,-55.398,-60.641
-51.023,-34.135,-48.161,-42.981,-50.214,-45.389,-49.836,-56.737
-52.178,-32.378,-48.26,-42.961,-49.93,-43.818,-42.953,-51.716
-50.713,-29.046,-41.934,-37.57,-42.982,-35.561,-30.017,-40.448
-44.244,-24.88,-28.447,-29.281,-28.991,-25.637,-17.296,-27.215
-43.354,-27.954,-25.243,-29.091,-25.509,-26.04,-18.217,-25.495
-50.177,-36.629,-37.122,-36.234,-37.282,-35.42,-29.461,-34.34
-54.244,-41.074,-46.426,-38.955,-46.639,-40.5,-34.726,-38.67
-53.789,-40.632,-46.699,-35.486,-46.973,-38.589,-33.393,-36.817
-55.738,-41.061,-48.178,-33.859,-48.379,-38.093,-36.622,-39.042
-58.077,-40.84,-48.488,-33.261,-48.616,-37.925,-39.298,-41.408
-53.57,-35.277,-39.137,-26.899,-39.406,-30.242,-31.658,-34.166
-46.061,-28.387,-30.513,-20.118,-31.202,-21.26,-24.959,-26.32
-45.498,-27.424,-35.66,-22.887,-36.967,-23.431,-31.664,-30.438
-49.771,-29.299,-44.699,-29.856,-46.761,-31.512,-41.34,-40.083
-48.19,-26.615,-41.524,-29.017,-44.548,-31.236,-39.748,-42.759
-39.167,-20.552,-28.472,-18.963,-32.463,-20.052,-27.188,-34.04
-29.401,-14.816,-15.676,-5.468,-20.057,-4.134,-10.145,-17.448
-22.883,-10.195,-6.944,3.738,-10.979,6.246,3.119,-5.268
-19.87,-8.74,-4.791,1.965,-8.18,1.699,4.146,-6.624
-18.642,-8.889,-8.095,-5.433,-10.918,-9.704,-3.661,-11.81
-17.841,-6.581,-10.178,-7.295,-12.668,-13.002,-7.312,-8.019
-19.096,-5.519,-10.232,-6.845,-12.562,-12.75,-4.926,-4.139
-23.581,-10.549,-13.189,-12.49,-15.31,-18.714,-6.906,-13.193
-30.287,-17.8,-20.78,-19.452,-22.664,-24.429,-16.477,-26.122
-34.121,-18.604,-27.426,-19.244,-29.123,-21.147,-23.909,-28.749
-27.012,-8.818,-23.447,-11.848,-24.916,-11.791,-19.791,-21.469
-14.181,1.586,-11.009,-5.361,-12.404,-6.361,-8.571,-12.013
-10.436,-0.108,-3.253,-6.575,-4.977,-9.316,-2.426,-6.645
-15.013,-8.658,-4.595,-10.96,-6.763,-13.479,-5.659,-8.529
-21.547,-15.59,-14.1,-15.678,-16.686,-17.349,-16.838,-19.755
-31.69,-22.817,-28.696,-24.941,-32.036,-27.884,-30.332,-36.029
-36.249,-24.158,-32.343,-29.133,-36.741,-34.373,-31.619,-40.344
-23.279,-11.132,-15.766,-15.684,-21.076,-20.215,-15.934,-23.313
-5.175,3.75,3.553,2.196,-2.508,1.486,-0.447,-2.271
-2.724,2.419,7.328,3.497,0.596,5.517,0.862,1.803
-13.395,-9.766,2.026,-6.871,-5.033,-5.383,-4.595,-6.928
-17.117,-11.956,3.361,-7.678,-3.774,-8.543,-4.681,-9.863
-6.879,0.458,11.542,4.977,4.09,2.541,0.619,-1.198
5.362,11.681,16.508,15.809,8.538,13.74,5.507,8.507
10.419,12.936,17.109,17.589,8.917,16.374,9.609,11.095
9.696,12.321,19.633,18.22,11.647,17.067,17.383,12.42
6.218,14.969,22.809,21.027,15.242,19.761,24.658,16.84
0.696,13.451,17.802,17.835,10.8,17.001,17.866,14.732
-5.416,5.034,4.671,6.899,-1.578,6.586,-2.133,2.177
-6.991,1.115,-4.782,0.738,-10.188,-0.146,-17.301,-8.877
-1.274,8.148,-2.926,7.355,-7.552,5.377,-16.097,-8.474
5.558,15.463,5.461,16.494,1.452,14.868,-4.613,-1.006
4.744,12.117,7.521,14.067,4.001,13.601,-0.611,-1.087
-4.483,2.318,-1.973,2.828,-4.942,2.65,-9.808,-11.633
-11.986,-1.944,-9.01,-1.291,-11.339,-1.87,-13.779,-13.847
-8.209,3.793,-2.455,7.798,-4.32,6.085,-3.25,0.726
1.615,12.471,6.269,17.599,4.619,14.469,4.303,13.156
5.645,16.028,4.659,16.905,3.34,13.943,-0.086,9.534
4.608,16.607,0.107,13.908,-0.683,12.446,1.477,3.961
7.581,20.56,4.982,20.022,4.442,19.603,19.704,13.162
11.713,23.178,10.138,25.291,9.483,25.383,28.883,21.987
6.616,15.773,-0.94,15.708,-1.545,16.409,6.804,8.473
-3.425,5.303,-15.366,2.681,-15.692,3.561,-17.228,-9.45
-3.327,6.623,-10.771,4.204,-11.121,3.512,-11.037,-4.788
10.607,19.835,6.731,15.425,6.07,12,7.744,10.963
23.218,28.101,15.847,19.162,15.301,15.284,10.649,12.203
18.367,20.559,6.647,10.584,6.72,9.854,-1.869,-1.871
3.55,10.034,-8.697,2.84,-8.267,5.253,-8.564,-9.391
-2.605,10.526,-13.315,5.089,-13.009,7.547,-2.536,-2.56
0.546,14.231,-12.857,7.408,-12.714,8.388,-6.495,-2.172
3.916,12.699,-17.824,2.518,-17.838,2.265,-25.183,-14.989
5.057,11.055,-22.882,-2.743,-23.232,-5.493,-32.576,-22.934
5.502,12.268,-20.402,-3.132,-20.987,-9.423,-21.587,-20.047
8.246,13.39,-8.684,0.693,-9.1,-6.822,-5.946,-11.594
11.585,12.263,3.254,4.737,3.102,-0.929,3.817,-1.781
8.276,8.636,0.153,3.312,0.002,0.221,-1.212,-1.09
0.552,5.911,-14.559,-2.382,-14.762,-4.391,-18.631,-13.588
-1.186,7.725,-19.494,-4.29,-19.512,-7.173,-26.532,-21.904
1.526,9.845,-10.653,-2.207,-10.322,-5.699,-15.452,-14.058
-0.543,6.632,-8.204,-5.226,-7.629,-7.198,-9.58,-9.293
-1.161,5.43,-13.181,-8.063,-12.764,-7.621,-16.107,-14.259
11.7,15.822,-1.481,5.125,-1.535,6.978,-4.372,-1.068
27.589,27.856,20.641,22.342,20.468,23.7,21.036,22.249
28.397,27.66,21.727,19.447,21.978,18.78,19.16,15.445
20.15,23.473,7.233,8.397,7.723,5.996,-1.53,-7.004
19.005,28.013,7.227,13.775,7.394,10.974,1.21,-2.645
24.449,35.778,22.889,28.904,22.681,26.294,27.312,23.362
26.485,36.986,32.518,34.855,32.273,32.34,44.552,39.94
21.407,31.663,26.378,29.593,26.218,27.471,37.534,34.102
12.607,23.48,14.481,21.744,14.297,21.154,19.472,17.274
5.606,15.569,9.202,17.156,8.966,18.501,12.174,11.732
3.956,12.048,8.226,14.835,7.904,15.926,15.192,17.647
6.415,14.529,3.839,12.306,3.238,11.313,11.127,15.159
7.883,18.159,-0.23,11.631,-0.984,10.815,2.626,7.199
4.815,16.946,2.197,12.728,1.868,14.693,6.199,10.264
-1.204,10.97,5.957,9.688,6.133,12.604,14.458,13.937
-4.203,5.675,5.086,3.955,5.082,4.64,9.99,4.713
1.942,7.85,7.741,8.87,7.181,7.286,7.327,3.895
13.23,17.442,19.239,26.639,18.514,24.615,24.306,25.9
15.441,22.462,22.307,35.61,21.85,33.982,34.258,37.269
5.277,15.794,5.404,21.978,5.104,20.687,11.614,13.482
-0.203,10.849,-9.574,7.228,-10.115,6.473,-13.92,-10.014
12.192,21.211,1.741,16.199,0.788,16.235,-3.438,5.414
31.207,36.242,28.262,36.443,26.962,36.493,30.172,39.794
39.12,38.064,40.509,41.087,39.063,39.739,45.797,51.545
37.242,29.761,34.451,31.342,33.304,29.018,35.618,38.913
37.737,26.879,32.45,27.347,31.922,26.229,29.285,30.878
43.06,33.308,41.208,34.105,40.98,34.743,39.398,37.944
48.275,41.967,43.725,39.402,43.24,40.324,43.733,43.726
51.784,48.178,37.15,38.309,36.316,38.675,34.489,41.472
53.011,51.032,37.861,38.205,36.971,38.875,33.902,43.468
48.577,49.076,45.175,38.952,44.452,41.38,43.552,48.883
40.047,43.762,43.322,34.076,42.706,38.396,39.982,43.806
39.133,43.762,37.863,30.845,37.088,36.151,29.004,35.769
50.582,52.862,44.62,39.635,43.61,45.754,36.197,43.089
59.661,60.578,55.282,52.354,54.287,59.196,54.311,59.683
53.531,57.341,52.617,54.012,51.84,60.8,57.798,64.683
38.607,45.954,39.06,43.24,38.439,49.507,44.767,51.822
27.812,35.731,29.698,31.97,29.025,37.835,34.23,36.504
26.653,34.354,32.218,30.06,31.36,35.21,38.482,35.146
32.515,40.598,40.318,34.719,39.376,37.918,47.982,42.384
38.988,45.632,45.161,38.134,44.262,38.714,49.205,45.644
40.816,44.109,46.029,38.223,45.091,36.894,44.157,44.837
35.985,38.2,44.067,36.764,42.994,33.748,37.831,40.761
27.468,32.963,40.162,35.944,39.006,30.587,32.371,34.318
23.094,31.745,39.618,38.531,38.48,31.814,34.829,35.901
25.157,32.066,43.081,42.545,42.093,38.311,44.77,48.092
26.116,29.412,42.781,41.338,42.001,42.691,49.409,56.419
22.214,25.475,35.828,33.394,35.121,38.223,42.963,49.693
19.097,23.96,27.56,23.3,26.875,27.584,32.077,33.376
22.118,23.991,23.303,17.5,22.658,21.028,24.798,22.825
31.178,23.136,23.471,19.515,22.68,23.265,23.463,24.67
38.772,20.456,23.849,24.336,22.912,27.326,23.943,29.433
33.589,17.045,22.486,26.257,21.691,28.522,23.629,31.041
17.286,14.835,21.284,25.661,20.489,29.095,24.592,33.459
5.489,14.982,20.451,23.941,19.266,29.468,26.686,35.913
4.593,17.666,19.87,21.873,18.46,29.532,26.964,33.884
6.414,19.714,20.479,19.034,19.209,29.548,24.615,29.263
6.42,16.63,21.201,14.55,19.968,27.321,21.866,27.805
7.739,10.026,19.671,10.596,18.242,22.554,20.301,28.831
11.551,8.781,18.34,12.803,16.799,21.917,21.678,29.517
15.758,18.55,22.648,23.585,21.034,30.884,27.251,33.454
18.086,31.023,29.339,33.607,27.351,40.988,31.336,38.193
20.054,34.658,31.175,34.017,28.549,41.631,29.253,35.683
25.802,31.354,29.251,30.742,25.961,37.696,24.939,30.357
29.88,28.636,26.36,30.398,22.431,37.213,21.155,30.147
20.563,27.274,21.735,29.106,17.346,36.546,16.933,30.491
4.356,26.555,19.011,24.539,14.527,31.484,13.607,25.445
1.041,28.308,21.952,21.723,17.538,27.463,13.82,20.612
9.839,31.024,24.312,22.153,19.978,28.772,17.409,23.428
12.939,30.835,20.89,21.579,16.779,31.297,20.783,30.168
6.414,27.712,16.704,19.129,12.841,30.719,21.166,31.882
0.382,24.493,15.634,17.695,11.722,27.978,19.473,26.732
1.448,24.274,17.14,19.394,13.077,26.755,18.776,19.837
8.553,28.259,22.199,23.786,18.364,28.575,21.609,16.757
16.256,32.557,28.093,26.77,24.727,30.722,24.343,19.127
19.405,32.302,27.565,24.582,24.489,29.877,21.234,23.036
18.175,28.756,21.623,20.091,18.83,26.914,17.766,25.307
16.535,26.728,19.409,19.286,17.174,26.288,20.9,27.186
17.162,28.791,24.551,23.076,22.825,30.089,24.961,28.341
20.258,34.189,32.775,28.11,31.187,35.646,26.047,27.411
22.972,37.556,36.244,29.346,34.685,37.336,27.001,24.558
21.507,33.254,29.395,22.753,28.023,31.556,24.278,18.862
18.032,26.031,19.661,14.841,18.48,25.477,17.749,15.164
18.394,26.217,21.859,17.339,20.835,29.389,21.317,23.54
22.204,32.493,34.242,25.787,33.579,35.892,36.886,35.828
25.116,34.668,38.457,25.64,38.246,30.696,42.212,31.078
26.752,31.918,29.916,19.669,29.86,21.73,30.653,16.729
27.827,31.979,24.049,21.729,23.911,25.161,24.514,18.446
26.262,35.653,27.188,29.957,27.081,34.413,30.339,32.06
21.987,36.771,30.481,33.891,30.481,36.287,32.964,38.494
19.509,34.355,31.96,34.759,31.896,35.726,33.376,40.95
20.64,32.844,32.891,34.901,32.65,36.878,35.861,42.082
21.362,34.069,27.351,29.515,26.965,32.014,27.391,30.579
19.735,36.189,18.255,22.575,17.743,24.502,11.814,15.14
19.451,37.451,17.279,24.47,16.658,27.158,12.791,19.088
24.243,38.584,24.63,33.08,23.951,37.212,28.641,38.086
31.553,40.043,30.006,37.056,29.315,40.269,34.294,45.716
34.776,40.413,29.477,34.248,28.851,34.49,27.115,37.498
33.376,40.328,29.087,32.524,28.538,30.488,26.978,31.664
32.89,41.345,32.453,35,31.873,32.291,36.315,32.915
33.489,40.882,35.663,37.508,35.083,35.265,41.37,33.618
29.42,35.044,34.59,35.818,34.263,34.41,38.864,32.895
21.023,26.293,29.735,30.042,29.796,28.765,35.48,32.379
15.993,21.32,24.385,24.68,24.584,23.221,33.81,31.033
17.887,21.862,21.371,22.2,21.251,21.185,29.576,26.247
22.136,24.523,21.788,21.211,21.208,20.204,23.115,18.455
23.535,26.14,24.776,21.649,24.084,19.678,23.408,16.248
21.483,24.508,27.585,22.868,27.118,20.958,31.842,24.095
16.711,18.319,25.336,19.378,25.047,19.852,34.073,29.518
10.465,10.906,15.909,9.265,15.626,13.232,21.326,21.787
10.448,11.629,9.236,3.739,9.046,9.713,9.666,13.44
25.14,25.999,18.867,14.495,19.005,19.354,18.574,21.85
44.517,43.542,37.764,33.512,38.167,35.63,37.857,39.571
46.438,46.946,42.871,41.107,43.223,41.297,41.614,43.994
31.61,35.286,30.728,33.05,31.001,32.135,28.647,31.235
23.651,24.533,22.184,23.903,22.681,21.59,20.254,19.692
31.299,26.135,28.035,24.939,28.91,21.437,26.075,22.384
42.583,37.506,38.978,34.025,40.044,31.176,38.419,36.234
49.627,48.752,47.032,43.692,47.982,43.61,49.547,52.129
52.864,51.837,52.264,48.071,52.991,50.835,56.658,60.565
52.646,48.089,52.743,46.03,53.441,49.136,55.675,55.169
51.486,46.11,46.452,41.6,47.261,42.23,43.808,39.073
53.529,49.372,42.133,40.662,42.817,38.787,33.005,27.556
56.129,51.754,46.532,43.545,46.861,41.748,35.747,30.456
53.652,49.109,48.034,42.847,48.263,42.838,40.09,35.592
48.791,46.654,40.194,38.119,40.659,39.432,36.274,34.907
47.171,49.949,37.675,40.018,38.262,42.263,39.293,41.685
48.231,57.406,47.166,49.912,47.614,53.624,53.438,57.022
49.077,63.608,54.2,55.95,54.58,60.779,58.093,60.385
49.016,64.992,50.45,52.832,50.995,57.231,46.269,47.105
49.03,62.781,45.84,47.188,46.475,50.326,36.674,35.958
46.854,58.963,44.906,43.968,45.357,47.139,38.262,36.553
37.838,52.757,38.811,40.546,39.167,45.349,37.791,38.581
28.195,47.63,29.898,36.673,30.503,41.445,30.088,34.479
29.665,50.488,32.356,38.795,33.153,40.213,28.57,32.862
38.715,59.402,45.465,48.908,45.979,46.84,39.546,42.505
44.225,65.65,54.464,58.649,54.367,55.53,50.525,53.983
45.881,65.155,53.24,59.33,52.635,57.048,49.686,52.994
47.89,61.084,49.226,53.748,48.527,53.155,43.908,45.386
46.911,57.66,48.011,50.382,47.526,51.166,43.512,44.024
38.613,53.958,46.033,49.78,45.648,51.097,43.256,45.866
28.202,46.971,41.705,47.501,41.256,48.986,38.547,44.956
23.999,39.216,39.504,43.505,39.096,44.695,37.822,44.499
27.493,38.443,41.054,41.831,40.789,42.048,44.797,46.522
33.44,45.922,41.712,43.792,41.634,43.024,49.068,46.596
34.121,50.308,37.208,44.351,37.471,43.153,42.847,41.334
27.539,43.441,31,39.93,31.559,38.604,33.492,34.723
21.668,32.834,30.12,34.902,30.511,33.096,30.821,32.566
22.373,26.627,33.682,32.81,33.58,29.45,32.839,33.296
23.365,22.48,35.042,31.624,34.694,26.384,33.573,33.005
18.132,19.086,33.348,31.49,33.212,26.545,33.458,34.134
12.636,19.46,32.062,32.865,32.261,30.355,33.56,36.396
15.969,22.206,32.453,31.808,32.717,30.34,32.32,32.204
24.571,23.163,33.26,27.924,33.322,24.756,29.068,21.961
25.146,20.858,29.932,24.594,29.74,20.129,22.28,14.67
14.341,17.154,21.61,22.073,21.168,18.832,14.386,13.118
4.902,16.739,17.044,21.735,16.377,20.116,13.582,15.508
5.62,20.443,20.071,25.678,19.353,24.472,19.055,21.164
10.216,21.993,23.245,30.009,22.778,28.773,22.312,26.945
13.498,19.157,24.43,31.159,24.35,29.362,24.77,31.22
20.174,18.479,30.197,32.804,30.231,29.957,33.712,38.262
29.237,22.694,38.554,36.85,38.367,34.197,44.803,47.342
29.596,25.402,37.813,36.535,37.509,35.937,44.18,48.19
22.09,23.94,27.967,28.891,27.904,30.723,29.929,37.96
21.87,24.005,22.018,21.991,22.254,25.427,17.751,27.392
30.945,26.817,22.186,19.77,22.375,23.657,16.478,21.633
33.794,24.868,17.214,15.35,17.113,18.545,14.071,13.818
22.817,15.528,5.7,7.102,5.646,9.305,3.016,5.426
10.335,8.614,2.66,5.54,2.976,7.508,-0.373,10.631
10.433,10.647,14.026,13.873,14.237,16.092,13.625,26.991
18.355,13.123,21.921,17.248,21.546,18.439,22.696,28.452
19.917,8.338,12.466,6.594,11.872,4.947,7.75,6.462
12.492,0.404,-2.361,-5.847,-2.784,-9.125,-13.719,-13.144
3.918,-6.033,-8.344,-9.21,-8.803,-10.599,-19.147,-12.258
0.862,-11.158,-8.21,-9.497,-8.985,-8.504,-14.558,-4.987
4.108,-14.166,-7.179,-13.319,-8.351,-13.327,-12.842,-6.605
8.163,-12.824,-4.612,-16.205,-6.1,-19.179,-11.44,-10.546
6.682,-7.637,-1.253,-13.117,-2.821,-16.596,-6.43,-7.295
0.134,-3.795,-1.334,-9.535,-2.881,-10.437,-5.24,-3.877
-6.289,-6.63,-7.916,-13.986,-9.517,-13.21,-15.665,-11.05
-10.664,-14.327,-17.267,-23.332,-18.9,-23.713,-30.923,-23.247
-13.629,-19.371,-21.04,-26.22,-22.792,-28.047,-35.886,-26.783
-12.495,-16.407,-15.555,-18.745,-17.754,-20.901,-25.576,-18.79
-4.327,-6.547,-4.741,-7.132,-7.393,-10.152,-8.249,-6.514
6.026,3.655,3.994,1.725,1.438,-2.285,4.368,3.976
8.239,6.542,4.09,3.427,2.119,1.107,3.547,8.101
1.206,0.251,-4.318,-4.582,-5.743,-3.397,-9.776,-0.26
-3.146,-7.983,-12.43,-16.978,-13.717,-14.469,-21.89,-16.99
0.258,-10.36,-13.561,-22.869,-15.015,-22.024,-21.852,-26.052
2.214,-7.401,-10.733,-20.021,-12.246,-21.343,-14.977,-21.678
-0.396,-3.594,-7.187,-15.078,-8.489,-17.022,-9.526,-12.922
0.181,-2.002,-1.817,-11.814,-2.811,-12.847,-4.681,-6.483
3.784,-5.152,0.702,-11.221,0.015,-11.82,-1.081,-3.808
1.727,-12.053,-6.807,-14.862,-7.177,-16.494,-5.269,-6.905
-5.684,-16.725,-17.587,-19.369,-17.728,-21.703,-14.521,-13.072
-9.651,-15.759,-18.525,-17.946,-18.648,-19.714,-15.782,-13.609
-6.071,-11.488,-11.146,-10.791,-11.304,-11.85,-7.223,-6.871
3.634,-6.728,-3.776,-4.73,-3.836,-5.512,1.77,-0.882
13.137,-4.045,1.691,-4.606,1.663,-5.832,5.721,-1.896
11.259,-7.639,0.465,-10.757,0.223,-12.954,-0.385,-9.756
-2.476,-16.55,-9.355,-17.384,-9.815,-19.858,-12.253,-15.736
-13.427,-22.237,-15.582,-16.443,-15.99,-19.062,-12.224,-10.063
-13.063,-21.127,-12.271,-10.089,-12.469,-14.07,-2.106,-0.03
-6.838,-18.577,-8.278,-6.604,-8.291,-12.113,-0.072,1.127
-1.918,-18.16,-8.531,-7.336,-8.363,-13.39,-4.898,-3.505
-1.071,-18.084,-11.001,-10.115,-10.814,-15.777,-6.957,-6.919
-4.183,-17.139,-14.234,-14.08,-14.264,-18.32,-8.775,-11.715
-10.12,-18.696,-16.221,-17.816,-16.223,-20.592,-11.988,-17.55
-15.969,-23.797,-14.058,-19.149,-13.626,-21.997,-10.15,-16.148
-15.336,-24.067,-7.605,-15.156,-6.961,-19.104,-1.669,-5.953
-4.645,-14.121,-0.633,-6.529,-0.213,-10.607,5.462,3.907
9.683,-1.134,4.283,1.045,4.528,-1.831,6.731,9.578
16.634,6.884,7.735,4.703,8.089,2.61,6.824,14.469
11.91,7.453,8.036,4.211,8.657,1.991,8.34,14.252
4.559,3.105,5.781,0.586,6.6,-0.975,10.408,6.526
7.873,3.058,8.379,1.127,9.127,1.25,14.924,4.554
18.774,10.501,15.691,8.612,16.253,9.389,19.482,13.463
23.425,16.128,17.55,13.399,18.08,13.143,17.624,18.575
22.028,15.329,12.293,10.68,12.919,9.771,11.112,12.424
23.161,13.253,10.269,7.937,11.063,8.25,10.189,6.043
25.052,11.429,16.577,9.287,17.575,11.296,19.109,8.841
22.13,5.542,20.354,8.027,21.399,10.543,24.075,13.839
17.278,-3.265,11.678,0.858,12.543,3.099,12.576,10.8
16.047,-7.19,-0.263,-3.899,0.411,-2.468,-1.843,3.269
16.121,-5.291,-2.937,-1.555,-2.236,-2.125,-1.467,0.718
11.807,-5.078,1.175,1.003,2.087,-1.813,7.982,3.761
6.066,-7.688,4.698,0.181,5.782,-3.304,13.209,7.19
7.019,-6.122,7.426,1.824,8.56,-0.748,15.432,10.821
11.507,-0.858,9.069,6.048,10.115,4.993,18.199,15.436
9.215,-0.729,5.235,4.659,6.051,5.256,13.535,14.831
4.666,-6.144,0.335,-0.878,1.067,0.538,3.33,8.862
8.239,-10.843,2.581,-2.849,3.496,-2.148,3.129,7.494
12.942,-14.14,5.944,-3.958,6.873,-4.388,10.273,9.986
8.398,-15.499,2.635,-7.653,3.275,-8.794,9.832,7.765
-1.938,-13.443,-2.573,-9.893,-2.084,-11.585,3.096,2.639
-10.717,-12.413,-4.416,-9.699,-3.77,-11.562,-0.894,-0.971
-13.351,-15.442,-4.146,-9.501,-3.27,-11.278,-0.871,-4.256
-8.997,-19.2,-4.927,-10.115,-3.983,-12.235,-0.429,-7.146
-3.103,-20.463,-8.225,-11.661,-7.461,-14.362,-2.284,-7.253
-1.531,-19.153,-11.278,-13.343,-10.748,-16.083,-3.313,-3.821
-5.867,-19.025,-11.286,-16.12,-10.729,-17.839,0.662,-0.694
-15.634,-24.926,-12.687,-22.849,-11.868,-22.828,1.463,-5.11
-27.23,-35.151,-20.335,-30.218,-19.485,-28.687,-10.767,-16.003
-33.711,-42.98,-27.196,-31.03,-26.767,-28.415,-23.71,-21.184
-34.159,-47.024,-26.898,-27.673,-26.785,-24.4,-21.944,-18.007
-38.099,-52.43,-30.498,-30.564,-30.091,-27.22,-19.287,-20.944
-50.659,-61.422,-45.968,-42.365,-45.07,-38.906,-33.372,-36.712
-62.373,-69.443,-59.08,-54.747,-57.998,-51.435,-51.095,-52.586
-62.267,-70.856,-56.012,-58.621,-54.796,-56.789,-52.197,-56.135
-52.195,-65.502,-44.002,-52.243,-42.425,-52.004,-40.146,-47.677
-44.179,-59.835,-38.016,-43.339,-36.222,-43.676,-30.348,-34.973
-45.385,-59.082,-41.941,-41.813,-40.345,-42.721,-30.081,-29.374
-50.212,-61.832,-48.701,-48.934,-47.306,-50.078,-36.776,-38.499
-51.707,-65.723,-51.52,-57.104,-50.01,-56.991,-42.112,-52.038
-51.98,-69.883,-52.873,-60.416,-51.264,-58.613,-44.868,-54.65
-54.328,-71.759,-58.493,-61.062,-57.08,-59.208,-54.662,-53.67
-55.357,-69.663,-62.061,-60.645,-60.87,-60.886,-64.711,-58.655
-51.946,-65.353,-53.649,-55.765,-52.426,-58.211,-54.848,-57.109
-44.164,-59.136,-37.715,-46.038,-36.402,-48.836,-30.588,-42.644
-32.029,-50.094,-25.691,-35.777,-24.519,-37.605,-16.388,-28.979
-21.575,-42.713,-23.424,-30.261,-22.422,-30.905,-19.484,-25.9
-19.781,-39.811,-27.057,-29.721,-25.92,-29.519,-25.436,-27.109
-19.743,-34.353,-27.324,-28.37,-25.978,-28.053,-24.378,-25.303
-10.669,-21.82,-20.703,-22.469,-19.533,-22.594,-21.663,-22.542
2.514,-9.779,-10.652,-12.757,-9.875,-13.507,-18.058,-18.135
5.4,-7.494,-4.125,-5.268,-3.372,-6.623,-11.07,-11.028
-1.202,-11.716,-3.869,-3.757,-2.681,-5.589,-5.106,-6.749
-2.28,-11.297,-3.916,-1.384,-2.357,-2.918,-1.981,-4.988
0.537,-8.194,-4.692,1.198,-3.203,1.36,-4.388,-5.421
-6.346,-12.875,-12.583,-6.633,-11.323,-5.012,-14.608,-13.957
-13.983,-18.56,-18.912,-18.368,-17.605,-16.907,-20.005,-23.12
-4.966,-10.825,-9.383,-15.704,-7.921,-14.445,-7.092,-15.97
10.448,4.176,8.171,-0.552,9.46,1.407,13.177,3.257
12.657,9.845,13.785,7.859,14.717,10.243,18.034,11.319
7.897,6.783,7.596,4.875,8.509,6.466,7.297,2.376
11.125,6.503,4.092,2.429,5.398,2.443,0.358,-5.568
17.374,9.9,5.618,5.064,7.227,4.147,3.992,-1.834
18.654,12.367,8.273,9.157,9.821,8.646,10.504,8.116
20.829,14.558,11.915,12.106,13.467,12.226,13.5,14.658
26.672,16.441,12.14,9.974,14.016,9.711,8.474,8.133
30.689,17.216,8.758,3.927,10.881,2.781,-0.033,-6.996
30.658,18.621,10.197,2.706,12.493,1.145,1.91,-10.909
26.259,18.53,14.427,6.798,17.147,5.232,13.371,0.394
18.491,13.58,12.939,8.447,15.911,7.247,19.946,10.945
12.55,6.873,8.327,6.126,10.865,5.882,18.815,12.495
9.409,1.38,2.564,0.116,4.357,1.423,10.539,4.838
4.987,-4.768,-8.712,-11.362,-7.342,-8.089,-9.051,-12.514
0.123,-11.574,-20.006,-22.824,-18.542,-17.923,-27.84,-28.592
-3.315,-16.419,-22.642,-27.353,-20.715,-22.116,-28.564,-30.638
-9.17,-19.593,-20.946,-27.599,-18.628,-23.211,-19.263,-26.05
-18.361,-23.845,-23.713,-29.035,-21.497,-25.474,-19.758,-28.163
-24.905,-29.046,-30.916,-31.55,-29.07,-28.513,-31.815,-34.933
-25.685,-31.145,-35.926,-32.794,-34.113,-31.136,-41.093,-38.248
-22.792,-27.971,-34.802,-31.939,-32.616,-32.053,-39.095,-35.57
-17.504,-22.431,-29.345,-27.925,-26.871,-27.748,-30.728,-27.395
-10.391,-17.36,-23.63,-20.656,-21.277,-17.969,-24.235,-17.647
-2.903,-11.792,-19.081,-12.691,-17.076,-8.813,-20.788,-11.202
2.912,-6.068,-13.539,-6.322,-11.695,-5.012,-15.03,-7.655
4.852,-4.223,-7.132,-2.972,-5.122,-5.721,-6.464,-5.433
4.435,-5.876,-3.632,-3.213,-1.342,-8.396,-1.821,-6.047
6.951,-3.551,-2.802,-3.59,-0.381,-9.784,-2.479,-8.225
14.649,5.833,1.876,0.69,4.197,-6.021,-0.527,-6.155
23.08,14.673,10.956,7.203,13.181,1.424,6.002,-0.637
26.745,16.903,14.423,9.467,16.739,5.959,7.486,1.074
28.367,18.278,12.055,10.156,14.382,7.566,5.092,2.651
34.321,24.567,16.654,16.179,18.72,11.921,13.013,12.278
40.712,29.049,26.146,22.272,27.979,15.873,25.444,20.826
39.258,25.155,26.016,20.211,27.902,13.516,22.539,16.556
34.009,20.592,19.731,17.001,21.778,11.937,12.106,9.93
34.406,24.08,21.291,21.203,23.352,17.731,17.142,14.951
38.925,30.916,27.015,25.911,28.905,22.33,30.859,23.515
40.78,33.836,24.351,23.556,25.916,19.146,29.475,20.924
39.68,33.529,15.473,17.995,16.717,13.918,14.428,9.397
37.314,31.28,9.078,12.962,10.36,9.959,2.917,0.385
31.684,25.225,3.49,6.426,5.153,3.662,-3.742,-3.981
24.751,18.63,-2.501,0.582,-0.631,-2.922,-9.132,-6.277
24.333,19.237,-0.913,2.37,0.835,-2.268,-5.749,-2.597
30.491,26.59,8.207,9.211,9.876,3.755,6.182,6.142
33.19,31.24,12.026,10.133,13.708,5.069,11.041,7.84
27.803,27.571,4.826,3.169,6.376,-0.504,0.879,-1.852
20.931,19.74,-3.805,-3.319,-2.402,-5.727,-10.952,-11.419
18.188,14.404,-6.1,-5.14,-4.663,-7.365,-10.41,-13.321
16.336,12.346,-7.993,-6.817,-6.459,-9.879,-6.601,-14.321
13.245,11.582,-12.478,-9.688,-10.849,-13.716,-11.676,-17.536
14.571,13.095,-9.221,-6.89,-7.517,-11.879,-14,-14.571
21.36,16.986,4.441,1.997,5.927,-3.283,-1.853,-3.235
24.431,20.243,14.635,7.299,15.65,3.664,12.496,6.023
19.227,21.571,12.041,5.427,12.956,4.31,12.828,5.547
13.274,21.903,2.803,1.062,4.138,1.305,0.801,-0.83
14.444,22.309,-1.81,-1.757,-0.163,-1.972,-7.673,-4.427
20.147,23.577,1.934,-0.463,3.507,-1.741,-2.895,-1.235
23.507,25.077,8.772,5.154,10.251,4.326,7.869,5.642
24.854,26.162,14.114,11.513,15.531,11.965,15.273,11.519
25.562,25.833,15.156,12.311,16.229,12.693,16.041,12.069
21.214,22.006,10.186,5.625,10.917,4.988,9.819,5.969
13.222,17.043,5.336,-0.012,6.19,-1.208,2.097,-0.386
7.033,13.705,3.038,-1.352,4.055,-2.854,-4.077,-4.424
-1.349,6.851,-6.708,-8.711,-6.18,-11.019,-13.239,-13.446
-13.026,-4.178,-21.979,-21.889,-22.37,-24.113,-21.41,-25.384
-16.494,-7.563,-23.826,-24.827,-24.757,-24.806,-16.828,-25.83
-7.983,1.657,-10.385,-14.538,-11.323,-12.794,-4.433,-14.266
0.115,10.495,-2.519,-7.533,-3.613,-7.035,-2.824,-7.949
-2.699,5.202,-10.011,-13.148,-11.732,-15.335,-12.946,-13.4
-12.93,-10.822,-20.22,-22.42,-22.492,-25.974,-18.734,-19.935
-19.73,-22.776,-21.681,-25.688,-24.074,-28.277,-16.493,-21.854
-16.724,-22.99,-17.852,-24.428,-20.281,-25.412,-14.419,-22.318
-7.318,-16.555,-14.454,-23.04,-17.019,-23.174,-13.339,-21.34
-2.575,-11.873,-10.99,-21.181,-13.487,-20.391,-10.703,-17.065
-6.726,-10.365,-7.375,-17.609,-9.482,-16.226,-9.079,-10.924
-11.951,-10.407,-7.295,-15.652,-8.984,-15.296,-10.584,-6.533
-16.543,-15.979,-13.527,-19.073,-14.862,-19.847,-14.833,-7.938
-22.602,-25.675,-20.072,-22.841,-20.934,-23.157,-19.377,-14.036
-21.7,-27.69,-15.82,-18.296,-16.248,-18.49,-18.286,-15.971
-12.663,-21.419,-3.086,-8.57,-3.447,-10.399,-10.275,-9.907
-11.517,-21.906,1.801,-6.356,1.37,-9.024,-4.932,-5.832
-25.572,-34.718,-7.681,-15.648,-7.84,-16.926,-10.679,-12.356
-41.72,-47.641,-18.833,-26.463,-18.48,-26.408,-20.748,-22.168
-45.725,-49.604,-18.294,-28.868,-17.683,-29.022,-22.289,-24.058
-39.047,-44.632,-10.37,-25.466,-9.775,-25.77,-16.916,-20.318
-35.173,-44.552,-8.806,-25.095,-8.221,-23.83,-15.737,-19.182
-40.555,-51.713,-15.323,-28.283,-14.662,-25.129,-18.417,-19.852
-47.647,-58.106,-21.176,-29.936,-20.258,-26.769,-18.093,-19.581
-50.297,-59.689,-24.063,-30.656,-22.848,-28.839,-17.787,-22.312
-48.497,-56.565,-23.896,-31.197,-22.836,-30.73,-18.793,-25.795
-41.572,-48.187,-15.823,-26.858,-15.221,-27.167,-12.311,-19.622
-35.188,-42.542,-6.726,-21.428,-6.241,-20.664,-4.854,-10.113
-39.529,-50.542,-12.282,-27.323,-11.669,-23.805,-14.239,-15.426
-50.917,-64.627,-27.384,-41.497,-26.902,-36.742,-31.456,-30.225
-56.594,-68.172,-34.956,-47.727,-34.703,-44.501,-37.579,-37.452
-55.205,-61.893,-35.989,-43.366,-35.587,-42.299,-39.423,-39.82
-54.182,-57.935,-37.035,-37.654,-36.159,-38.128,-42.382,-41.894
-56.204,-60.084,-36.178,-35.66,-34.953,-36.944,-38.23,-39.302
-59.012,-64.435,-37.992,-39.489,-36.79,-40.747,-37.088,-40.223
-59.273,-66.568,-46.082,-46.687,-45.146,-47.896,-48.673,-51.289
-55.3,-64.221,-50.697,-49.224,-50.017,-50.884,-56.342,-58.36
-48.928,-58.242,-45.14,-44.428,-44.601,-46.351,-48.747,-50.849
-41.656,-50.44,-33.074,-35.609,-32.595,-37.455,-34.866,-36.463
-35.994,-45.599,-22.067,-27.127,-21.468,-29.078,-24.012,-25.728
-37.586,-50.318,-19.336,-24.143,-18.389,-26.421,-17.868,-21.304
-45.81,-61.539,-24.959,-28.053,-23.714,-30.959,-17.475,-22.73
-52.353,-67.812,-32.657,-35.047,-31.437,-38.854,-25.376,-30.204
-51.44,-64.138,-36.018,-39.206,-35.06,-43.289,-35.019,-37.887
-43.224,-54.177,-30.842,-35.008,-30.121,-37.793,-32.811,-35.43
-33.341,-44.581,-20.477,-25.447,-20.038,-25.609,-20.205,-24.822
-28.446,-41.914,-15.919,-22.055,-16.172,-20.038,-14.008,-20.83
-25.908,-44.704,-21.165,-27.077,-22.762,-24.88,-20.349,-26.952
-17.698,-42.592,-24.056,-28.024,-27.812,-27.131,-25.225,-27.43
-9.734,-32.931,-14.7,-19.086,-21.366,-19.603,-17.362,-14.266
-19.818,-29.088,-5.668,-12.963,-15.153,-14.178,-8.242,-3.486
-43.255,-41.931,-11.421,-20.532,-22.28,-21.062,-12.288,-7.617
-48.554,-60.119,-21.93,-33.274,-32.037,-31.589,-22.263,-17.925
-29.555,-61.864,-21.187,-34.868,-29.053,-30,-22.561,-22.019
-22.654,-50.021,-16.008,-25.542,-21.44,-17.251,-14.156,-17.338
-38.517,-50.569,-23.692,-24.392,-27.432,-14.086,-14.694,-13.976
-29.978,-60.468,-37.582,-33.313,-40.494,-23.451,-30.013,-21.134
12.345,-48.999,-36.535,-27.21,-38.995,-18.225,-41.855,-29.375
12.63,-30.396,-29.693,-9.329,-31.619,-0.114,-42.537,-30.503
-57.831,-53.181,-44.076,-21.169,-45.294,-13.264,-48.531,-35.789
-116.785,-103.485,-70.339,-65.47,-70.751,-63.062,-61.437,-49.921
-119.184,-122.222,-80.038,-94.669,-79.835,-99.211,-64.323,-59.704
-118.214,-108.557,-74.502,-90.235,-74.453,-97.507,-54.886,-56.362
-131.949,-101.488,-66.351,-76.52,-67.461,-80.819,-41.756,-43.885
-116.574,-101.589,-58.004,-69.145,-60.586,-68.399,-35.987,-36.961
-77.556,-89.737,-53.365,-62.815,-56.803,-58.015,-45.378,-45.204
-66.641,-74.26,-52.176,-54.095,-55.947,-47.189,-54.746,-53.697
-88.184,-73.882,-50.248,-52.016,-54.486,-46.078,-50.274,-50.537
-97.172,-83.537,-48.35,-60.158,-52.868,-57.456,-44.017,-46.15
-76.873,-87.747,-48.54,-66.813,-52.34,-65.628,-47.629,-48.368
-59.025,-85.243,-53.687,-64.053,-56.152,-61.125,-60.84,-55.76
-64.771,-79.18,-61.349,-54.95,-62.91,-50.332,-74.142,-60.735
-79.308,-72.365,-65.03,-48.245,-66.16,-44.595,-74.62,-55.911
-83.981,-72.094,-66.895,-51.562,-67.359,-49.815,-66.906,-49.754
-74.021,-75.221,-66.974,-56.35,-66.438,-54.54,-61.023,-47.774
-57.918,-69.242,-57.294,-48.39,-56.054,-45.07,-51.239,-40.261
-53.69,-58.828,-44.255,-37.211,-42.996,-33.93,-39.82,-32.964
-66.111,-60.789,-43.997,-42.027,-42.973,-40.603,-41.905,-39.925
-76.109,-73.394,-53.583,-57.264,-52.446,-56.574,-53.503,-50.44
-70.775,-79.212,-57.801,-63.146,-56.278,-60.781,-56.883,-50.566
-61.266,-71.386,-52.475,-54.478,-50.728,-49.905,-48.037,-45.249
-60.954,-60.781,-44.866,-42.767,-43.183,-36.77,-36.196,-39.561
-67.154,-60.129,-43.016,-41.298,-41.485,-34.183,-31.898,-35.596
-68.435,-65.872,-46.966,-49.702,-45.418,-41.909,-38.713,-39.807
-59.235,-62.587,-46.88,-52.425,-45.13,-44.57,-45.99,-46.259
-45.216,-46.498,-35.301,-40.325,-33.396,-32.058,-38.852,-38.943
-39.198,-34.518,-23.357,-28.814,-21.403,-19.971,-25.334,-26.306
-47.072,-40.124,-28.305,-35.376,-26.228,-27.41,-28.189,-31.351
-55.829,-49.887,-42.067,-47.43,-39.737,-41.951,-42.369,-45.863
-52.372,-46.249,-43.118,-43.697,-40.554,-40.6,-43.526,-45.508
-45.457,-36.784,-33.771,-30.918,-31.05,-28.672,-32.847,-33.628
-45.458,-34.219,-29.547,-26.768,-26.692,-23.948,-28.215,-27.582
-44.675,-34.121,-30.423,-30.647,-27.629,-27.282,-30.854,-28.926
-37.616,-30.81,-30.34,-33.101,-27.999,-30.197,-32.254,-30.409
-34.265,-28.621,-31.117,-31.838,-29.243,-29.206,-31.354,-29.449
-38.889,-28.999,-32.043,-27.629,-30.146,-24.034,-29.343,-25.565
-39.663,-25.951,-27.683,-19.433,-25.451,-14.902,-24.575,-18.274
-31.553,-19.408,-20.863,-10.738,-18.541,-6.498,-17.907,-10.434
-26.225,-17.737,-20.647,-10.46,-18.684,-7.571,-15.93,-9.555
-29.448,-21.532,-27.635,-20.143,-26.054,-19.071,-23.771,-20.936
-32.358,-21.684,-32.61,-28.909,-30.84,-28.485,-34.101,-35.176
-29.566,-16.97,-29.507,-28.374,-27.166,-26.469,-35.113,-36.707
-23.501,-12.965,-20.467,-20.957,-17.88,-18.146,-25.354,-25.004
-15.634,-8.366,-10.607,-11.44,-8.162,-10.8,-12.387,-12.381
-10.77,-2.676,-7.334,-5.035,-5.003,-7.079,-7.29,-9.058
-15.302,-2.914,-15.413,-7.428,-13.132,-8.936,-15.423,-15.512
-25.545,-11.445,-29.302,-18.097,-27.077,-16.651,-29.869,-26.365
-32.747,-21.014,-39.534,-29.649,-37.182,-26.647,-40.664,-36.314
-33.476,-23.206,-40.565,-33.605,-37.952,-32.042,-42.284,-38.529
-28.683,-17.392,-32.015,-27.944,-29.408,-28.772,-33.86,-30.246
-22.314,-11.853,-21.999,-20.153,-19.813,-22.149,-22.122,-19.1
-19.958,-13.229,-21.297,-17.91,-19.517,-19.902,-18.133,-14.074
-22.99,-18.032,-28.234,-19.242,-26.366,-20.681,-23.787,-15.882
-28.536,-20.787,-32.992,-18.923,-30.83,-19.467,-30.306,-18.312
-33.963,-22.332,-33.722,-18.812,-31.648,-18.896,-31.975,-17.535
-37.469,-24.344,-34.216,-23.352,-32.379,-24.271,-30.069,-18
-39.905,-26.346,-35.511,-31.026,-33.571,-32.903,-27.313,-23.07
-44.097,-29.108,-38.787,-37.429,-36.648,-38.142,-29.117,-30.144
-48.441,-32.969,-46.116,-41.35,-44.019,-39.356,-40.938,-38.737
-48.581,-35.555,-54.142,-43.011,-52.154,-39.798,-56.28,-47.386
-44.281,-34.539,-55.995,-41.807,-54.07,-40.545,-61.441,-51.548
-36.899,-28.73,-49.5,-36.62,-47.735,-39.048,-53.441,-49.987
-26.129,-17.567,-38.393,-26.592,-36.785,-30.979,-40.513,-42.681
-15.007,-4.797,-28.629,-15.395,-26.998,-18.424,-30.404,-31.872
-10.117,2.101,-23.975,-10.17,-22.273,-10.741,-25.019,-23.566
-11.599,1.917,-23.003,-10.815,-21.233,-10.639,-22.264,-19.205
-10.889,1.456,-20.914,-8.664,-19.004,-9.388,-19.059,-14.193
-3.922,4.277,-15.226,-0.449,-13.269,-1.744,-13.68,-6.347
2.733,7.57,-9.801,6.931,-7.905,5.225,-8.974,-0.559
3.83,9.731,-8.326,9.322,-6.422,5.944,-7.47,-0.65
3.769,12.824,-5.9,12.08,-4.038,7.449,-3.288,1.472
6.721,17.048,-0.785,17.235,0.899,13.733,3.106,9.854
8.357,18.888,-2.117,16.493,-0.482,14.676,-1.777,8.782
5.642,18.169,-9.445,8.335,-7.577,6.81,-13.724,-6.425
2.81,17.772,-11.129,3.033,-8.962,1.196,-13.975,-15.529
4.425,17.485,-5.787,4.699,-3.559,3.061,-5.447,-9.89
10.629,17.611,0.808,9.129,2.803,8.262,0.1,-0.352
15.893,19.399,5.847,13.869,7.635,13.74,4.356,6.226
15.365,20.902,8.391,18.672,10.271,18.189,9.354,10.673
12.875,20.842,10.459,22.054,12.45,20.108,12.738,14.204
13.486,20.509,12.33,20.319,14.062,17.561,12.78,13.964
16.288,21.369,11.034,13.694,12.357,11.642,8.306,6.849
20.74,25.226,10.422,11.498,11.632,10.495,5.393,1.251
25.679,30.893,15.022,18.825,16.373,18.723,11.087,7.591
23.965,31.384,16.209,24.332,17.628,25.46,15.565,16.049
14.092,23.338,7.474,18.244,8.82,20.322,8.004,12.213
7.711,15.687,1.206,11.216,2.467,13.428,1.894,7.233
12.239,17.347,7.303,14.863,8.486,17.073,11.094,15.66
18.065,21.704,12.76,18.592,13.806,20.745,19.25,20.688
15.227,19.179,3.759,10.007,4.718,11.601,7.092,4.708
9.197,13.906,-10.963,-1.772,-9.867,-0.806,-13.424,-15.736
6.539,11.132,-17.156,-5.711,-15.826,-5.168,-21.118,-22.033
2.636,7.967,-16.359,-6.037,-15.06,-5.768,-17.319,-20.026
-4.113,6.341,-16.6,-6.936,-15.675,-6.182,-15.478,-18.797
-5.529,12.345,-17.349,-4.56,-16.72,-2.634,-17.311,-16.302
0.997,21.92,-13.879,0.896,-13.139,3.134,-14.873,-9.855
6.505,24.793,-8.768,1.75,-7.819,3.092,-8.855,-5.916
4.54,20.196,-8.992,-4.353,-8.212,-2.655,-8.174,-10.476
-1.171,15.904,-13.703,-9.575,-13.349,-4.751,-12.671,-16.401
-6.745,13.944,-16.061,-8.909,-15.996,-0.896,-13.977,-15.611
-12.913,10.334,-14.788,-6.198,-14.972,1.602,-10.986,-11.894
-18.796,5.132,-14.633,-5.794,-15.163,-1.176,-10.632,-12.037
-22.747,0.878,-19.462,-9.172,-20.104,-7.103,-18.849,-19.926
-24.126,-0.928,-26.706,-14.883,-27.105,-12.669,-32.589,-33.443
-21.521,1.421,-28.199,-17.566,-28.387,-14.376,-38.351,-39.338
-18.859,4.383,-23.8,-15.996,-24.026,-13.065,-31.732,-32.167
-23.775,0.445,-23.995,-17.028,-24.282,-14.761,-27.042,-27.939
-33.195,-8.612,-29.706,-21.998,-29.8,-19.844,-29.82,-33.558
-36.711,-13.629,-30.904,-23.002,-30.682,-21.543,-29.928,-35.284
-33.367,-12.493,-26.774,-18.185,-26.429,-18.683,-27.4,-30.921
-28.391,-8.46,-22.969,-12.099,-22.613,-14.025,-27.755,-28.181
-21.677,-1.655,-18.783,-5.762,-18.407,-7.308,-25.955,-22.988
-14.049,5.243,-14.573,-2.48,-14.368,-3.415,-21.264,-16.383
-11.903,5.562,-14.189,-6.905,-14.267,-7.978,-19.871,-17.671
-15.942,0.225,-14.795,-12.964,-14.872,-13.388,-17.031,-19.945
-18.871,-3.365,-11.475,-12.25,-11.229,-10.513,-6.175,-12.061
-17.529,-2.901,-7.623,-7.745,-7.137,-3.909,2.616,-2.328
-15.043,-0.808,-9.104,-5.748,-8.713,-1.768,-3.131,-3.497
-12.222,2.047,-12.502,-4.516,-12.293,-2.742,-13.827,-10.106
-9.098,4.88,-10.398,-0.518,-10.203,-1.028,-11.663,-8.819
-9.956,4.421,-6.844,1.06,-6.657,0.849,-4.051,-4.013
-14.352,1.153,-10.327,-5.21,-10.274,-3.933,-9.544,-9.37
-14.173,0.798,-16.072,-12.168,-16.181,-11.023,-20.427,-18.569
-9.533,3.039,-15.821,-12.02,-16.112,-11.964,-18.99,-17.357
-7.718,3.76,-11.466,-7.615,-11.926,-8.08,-9.724,-10.549
-5.992,6.531,-6.034,-1.557,-6.561,-2.168,-4.376,-7.03
-0.117,12.619,0.176,5.438,-0.313,4.935,-2.258,-3.182
5.34,16.527,7.23,11.322,6.985,11.393,3.734,6.623
11.352,21.553,19.6,20.088,19.81,20.907,19.41,23.805
23.866,33.964,37.151,33.656,37.528,34.464,40.228,43.285
37.225,46.685,45.083,41.244,45.012,40.284,47.055,49.76
41.069,50.604,33.639,36.222,33.02,32.855,29.504,34.963
37.323,48.821,17.984,29.19,17.359,25.483,8.041,17.738
34.062,46.971,16.423,29.673,16.267,27.566,7.867,19.408
32.206,44.109,23.239,31.652,23.407,30.472,21.06,29.2
30.307,40.388,23.923,28.472,23.927,27.01,22.705,25.506
31.323,40.868,20.807,25.312,20.544,22.981,13.042,13.526
35.05,45.606,23.774,26.903,23.528,22.796,11.673,11.191
35.278,46.829,29.972,28.705,29.767,23.22,19.817,17.628
31.336,42.381,31.175,28.268,30.83,23.912,23.195,21.63
29.481,39.145,27.618,28.722,27.339,26.774,19.911,20.954
32.013,41.157,24.841,31.336,25.017,30.312,19.289,20.878
38.152,48.119,28.573,38.093,29.058,36.411,26.945,28.016
46.201,56.655,37.364,47.082,37.569,44.864,36.126,38.169
48.759,58.506,38.963,46.49,38.698,44.702,31.853,36.005
43.75,53.918,30.745,36.507,30.462,35.233,17.952,24.675
41.893,54.096,27.904,34.695,27.928,32.541,17.492,25.166
46.223,59.441,34.35,43.039,34.433,38.744,30.005,35.451
46.97,60.09,36.25,46.422,36.105,39.892,33.009,35.916
42.679,54.512,29.207,41.328,28.872,33.229,23.314,26.43
39.618,47.341,20.664,34.849,20.266,26.848,11.962,17.733
36.99,41.451,15.921,31.383,15.62,25.337,4.131,12.801
31.312,37.167,15.61,29.825,15.533,25.981,2.064,11.912
25.871,33.155,16.123,25.73,16.086,22.388,2.825,12.578
27.613,32.362,17.213,22.308,16.838,17.068,3.99,13.346
38.201,38.694,24.532,27.222,23.661,19.269,11.853,18.615
49.883,45.746,36.218,35.909,34.995,26.624,26.776,27.773
50.722,45.156,41.156,39.15,39.787,30.21,35.804,33.599
37.488,39.985,33.533,37.031,32.127,29.396,28.856,31.194
21.434,35.439,20.777,32.035,19.277,25.806,13.224,21.623
15.207,31.296,17.095,26.276,15.255,20.55,7.392,15.379
19.142,29.279,26.695,25.022,24.418,19.276,17.933,21.962
23.624,29.598,34.318,26.133,31.94,21.018,27.613,30.12
21.408,26.879,25.943,20.65,23.936,16.43,19.28,23.103
17.685,22.901,14.697,14.333,13.287,9.883,6.241,11.993
22.386,26.225,21.807,22.915,20.782,17.052,13.855,21.296
32.854,34.966,42.6,42.99,41.495,36.082,39.783,47.588
35.435,36.487,53.168,51.313,51.854,44.449,54.927,58.532
24.405,24.627,37.493,33.526,36.228,27.253,33.752,30.683
10.704,10.837,7.562,5.625,6.474,0.56,-9.908,-14.622
6.938,10.617,-5.876,-3.897,-6.846,-7.658,-29.375,-30.752
11.436,20.412,4.998,6.738,4.177,3.08,-11.12,-9.783
16.024,25.342,18.889,17.752,18.359,13.381,12.883,15.305
19.32,24.279,23.326,23.18,23.054,18.191,23.132,26.008
23.279,26.822,24.936,29.358,24.608,24.061,27.101,29.135
24.036,31.869,25.576,32.374,25.104,27.402,26.973,27.953
18.2,30.567,19.155,25.162,18.838,21.05,16.548,19.516
15.802,27.517,15.291,18.21,15.081,15.024,8.859,14.994
26.19,32.735,28.162,24.439,27.601,21.376,21.801,25.595
35.944,37.466,40.722,32.081,39.804,27.639,35.987,34.063
28.754,28.773,29.831,25.746,29.034,19.992,24.649,22.552
14.193,15.882,10.766,16.486,10.151,11.21,5.309,6.753
12.2,16.636,10.704,22.148,9.807,18.363,8.765,11.142
25.397,32.036,27.614,39.638,26.472,37.385,31.826,35.333
40.142,46.363,40.241,49.845,39.613,49.017,46.636,52.355
46.268,46.82,36.746,40.591,36.924,40.73,36.219,39.925
49.391,38.153,25.445,22.202,25.792,22.686,15.152,13.766
57.017,32.404,19.633,12.301,19.47,12.697,6.31,2.909
59.933,32.212,20.837,14.224,20.086,14.222,11.283,9.522
47.079,32.778,24.46,21.915,23.514,21.38,22.079,20.93
26.855,29.04,26.769,27.701,26.125,27.005,32.312,28.609
14.293,20.708,24.229,26.064,24.052,25.42,33.673,27.456
12.658,13.797,17.34,19.477,17.299,18.256,24.216,18.762
17.28,10.886,12.626,12.84,12.374,10.987,13.884,11.451
24.125,10.536,17.174,10.112,16.76,8.601,15.829,14.978
29.504,13.428,27.51,13.573,26.985,13.113,28.64,26.44
30.554,16.112,29.36,17.518,28.531,17.905,33.696,30.532
29.194,15.204,19.395,16.733,18.411,16.238,23.682,22.4
27.828,17.603,13.535,18.058,12.863,14.837,16.682,16.746
27.454,26.993,22.046,28.731,21.559,24.279,27.11,25.406
31.206,32.079,32.547,39.351,31.728,38.004,40.051,37.745
36.465,24.248,29.804,33.294,28.746,36.35,33.424,34.644
34.281,11.943,19.013,12.586,18.132,15.56,14.847,17.525
24.215,5.996,13.671,-3.112,12.886,-3.559,9.148,6.648
13.557,5.658,13.819,-3.618,12.832,-4.837,18.713,11.869
2.643,6.485,12.689,3.413,11.48,3.702,26.224,22.492
-12.541,7.107,8.873,7.692,7.489,7.943,23.789,24.806
-24.24,6.035,4.199,7.515,2.613,7.526,17.328,19.06
-18.802,3.665,2.193,7.506,0.512,9.238,13.99,15.659
-1.219,2.186,4.852,7.873,3.199,10.946,14.278,16.25
8.287,0.434,8.829,3.943,7.233,5.709,14.798,14.376
3.226,-2.362,10.945,-1.661,9.587,-1.929,15.326,11.309
-5.425,-4.608,9.556,-3.01,8.537,-2.726,13.633,9.253
-9.485,-7.617,2.611,-2.884,1.664,0.415,5.412,5.197
-8.942,-11.254,-4.993,-4.474,-5.99,0.237,-1.542,1.774
-6.812,-10.432,-6.198,-5.19,-7.056,-2.704,0.413,1.428
-6.806,-3.468,-4.595,-4.189,-5.299,-4.064,0.975,-0.387
-6.205,5.782,-3.001,-0.692,-3.751,-0.309,-3.768,-1.739
2.955,13.203,5.375,7.03,4.371,7.885,0.188,4.586
19.74,17.498,20.783,15.344,19.479,14.826,15.664,15.734
32.496,20.637,32.169,19.972,30.941,18.131,29.34,23.901
33.099,24.048,33.058,23.161,32.377,21.825,34.216,27.914
27.472,28.247,29.377,29.143,29.161,29.067,34.274,30.043
28.655,35.138,30.016,37.477,29.793,37.764,35.722,32.609
36.905,40.733,34.175,41.899,33.701,41.785,39.49,36.525
39.433,37.568,34.513,37.817,33.816,37.541,40.819,37.487
36.279,32.02,33.551,32.754,32.666,32.445,41.812,35.065
40.228,35.454,41.461,37.294,40.416,36.494,51.307,39.108
48.825,42.17,54.878,46.121,53.744,44.711,64.832,50.724
49.497,41.697,58.834,46.57,57.66,45.023,67.774,56.156
44.635,37.441,51.218,40.972,49.971,39.916,60.7,52.552
42.916,35.555,43.915,39.83,42.409,39.907,55.638,51.082
42.192,34.499,41.181,42.22,39.268,43.892,52.833,52.273
39.984,34.016,38.566,42.529,36.564,45.245,46.616,49.244
40.9,37.107,36.409,42.003,34.801,43.799,40.102,43.498
44.685,41.736,36.95,41.819,35.669,41.198,37.527,39.318
46.329,44.788,40.152,41.991,38.942,39.908,40.616,41.193
45.725,47.612,45.506,44.667,44.578,43.107,50.048,51.727
43.9,49.341,47.799,46.973,47.305,46.303,56.521,60.151
41.469,48.464,42.958,44.902,42.434,43.99,49.657,54.852
43.573,50.549,39.992,45.376,39.05,43.384,40.959,47.671
53.61,60.146,50.01,56.489,48.939,53.496,50.234,57.311
67.214,72.552,68.267,72.012,67.364,68.862,72.234,77.222
77.543,81.029,79.921,79.771,79.03,77.906,84.462,87.32
79.82,82.488,76.876,76.226,75.952,76.653,77.823,81.58
75.761,79.282,66.001,68.298,65.287,70.237,63.639,68.762
74.208,79.717,60.911,66.514,60.501,67.621,57.631,60.61
77.63,86.021,62.743,71.811,62.471,70.775,60.233,61.05
79.233,89.87,62.557,74.505,62.22,72.792,60.771,64.081
77.579,88.02,59.711,70.37,59.286,69.467,56.472,61.894
76.702,85.721,58.557,64.139,58.111,63.218,51.642,52.928
77.035,84.463,58.786,59.179,58.208,57.575,49.086,44.692
76.292,80.118,58.45,54.565,57.507,52.913,48.976,43.176
72.178,71.613,56.34,49.931,55.037,48.272,49.218,44.38
65.21,63.745,53.221,47.668,51.932,45.987,49.448,45.645
60.104,59.993,51.231,48.14,50.283,47.027,51.357,49.01
59.814,58.983,50.687,48.066,49.905,46.906,54.727,51.963
61.574,59.16,51.299,46.485,50.293,43.564,57.833,51.587
62.111,59.991,51.274,44.732,50.06,39.779,55.498,48.406
61.043,58.391,46.274,40.902,45.134,36.306,42.884,41.619
57.256,51.144,36.307,33.155,35.158,31.736,27.477,32.665
48.771,40.69,25.83,23.628,24.423,25.113,18.906,23.312
35.949,30.123,15.274,13.054,13.806,14.789,12.285,10.215
22.83,19.631,5.439,3.554,4.312,4.046,4.582,-1.648
17.846,15.076,5.454,5.18,4.726,4.115,8.42,2.984
25.532,22.261,18.69,20.952,18.154,18.075,26.648,23.327
36.345,31.494,29.451,33.632,28.979,29.963,36.219,34.665
37.736,28.979,24.44,27.482,24.041,24.684,22.936,21.71
30.484,17.616,13.641,11.542,13.259,9.518,7.15,3.102
22.464,8.469,10.175,3.024,9.58,0.727,8.502,2.431
16.532,2.82,11.353,2.674,10.404,0.18,18.054,14.525
11.963,-3.257,9.816,1.428,8.892,-0.828,19.634,19.595
7.119,-9.829,1.124,-4.377,0.792,-6.31,6.709,9.385
-1.56,-16.431,-13.814,-12.211,-13.649,-12.523,-15.332,-9.687
-12.143,-22.095,-23.949,-17.378,-23.883,-14.774,-28.519,-23.586
-14.262,-22.938,-21.238,-17.922,-21.514,-14.457,-23.016,-22.523
-7.263,-18.459,-13.009,-16.41,-13.463,-15.107,-11.735,-11.733
-5.104,-15.405,-9.605,-15.784,-10.032,-16.078,-7.926,-4.665
-14.636,-22.068,-15.096,-20.457,-15.342,-20.127,-13.341,-11.18
-28.492,-36.729,-27.976,-31.923,-28.089,-30.79,-27.438,-28.503
-36.719,-44.917,-36.416,-38.319,-36.651,-37.244,-38.79,-36.75
-34.541,-39.732,-30.465,-30.843,-31.012,-29.723,-33.273,-25.549
-26.625,-32.341,-20.057,-22.025,-20.974,-20.303,-21.908,-15.473
-23.53,-30.154,-17.334,-23.376,-18.5,-21.072,-21.113,-21.549
-26.167,-26.444,-16.492,-26.239,-17.504,-23.75,-21.854,-25.738
-25.743,-19.986,-12.193,-23.253,-12.738,-20.488,-15.262,-15.698
-21.671,-19.497,-12.152,-21.372,-12.35,-17.473,-13.023,-8.268
-20.195,-24.865,-16.484,-22.72,-16.655,-17.462,-16.48,-11.707
-22.406,-28.708,-15.603,-21.688,-15.941,-16.905,-11.509,-12.772
-25.543,-30.179,-11.662,-19.934,-12.146,-17.154,-4.169,-10.883
-27.814,-31.506,-13.322,-22.193,-13.799,-19.52,-12.858,-18.43
-30.949,-33.826,-18.926,-27.757,-19.253,-22.649,-29.761,-30.024
-34.137,-36.266,-21.651,-32.596,-21.718,-25.353,-32.541,-29.426
-29.26,-33.588,-19.013,-31.941,-18.848,-23.897,-21.547,-18.547
-18.927,-26.445,-15.219,-25.612,-15.087,-17.548,-13.741,-11.677
-20.051,-24.549,-17.192,-19.719,-17.41,-12.069,-14.043,-12.44
-31.712,-29.31,-23.147,-18.257,-23.779,-10.79,-15.507,-16.024
-36.505,-33.502,-24.878,-19.985,-25.7,-12.668,-16.337,-20.272
-35.569,-36.196,-21.89,-22.578,-22.69,-16.181,-18.185,-22.124
-36.967,-37.43,-17.614,-22.928,-18.377,-17.897,-16.288,-17
-32.51,-33.405,-11.432,-20.067,-12.088,-16.354,-8.825,-9.937
-24.47,-30.192,-7.364,-20.8,-7.716,-18.412,-6.987,-13.64
-32.806,-38.725,-13.344,-30.16,-13.404,-28.823,-17.4,-26.966
-53.453,-50.901,-23.401,-37.761,-23.315,-36.627,-25.881,-31.406
-60.807,-51.095,-23.55,-32.849,-23.349,-31.166,-19.236,-20.159
-55.455,-47.584,-18.645,-26.133,-18.453,-24.198,-9.809,-11.745
-58.003,-56.298,-24.027,-32.46,-24.004,-31.068,-16.285,-21.075
-67.403,-68.591,-35.032,-44.862,-35.147,-43.889,-32.739,-36.563
-68.514,-69.157,-36.778,-49.183,-36.979,-47.56,-39.878,-41.78
-62.835,-64.049,-32.927,-48.884,-33.134,-45.584,-37.317,-41.605
-61.756,-66.187,-36.755,-55.248,-36.811,-50.182,-39.564,-48.456
-65.12,-72.75,-46.678,-65.322,-46.698,-59.414,-47.88,-58.545
-65.44,-74.322,-51.771,-67.925,-52.066,-62.257,-51.11,-60.746
-63.268,-71.806,-49.723,-62.228,-50.272,-57.503,-46.808,-55.16
-63.69,-70.541,-44.485,-54.94,-45.015,-51.335,-41.48,-48.16
-64.571,-69.861,-37.915,-49.168,-38.394,-46.188,-37.817,-41.891
-61.854,-67.758,-31.923,-45.183,-32.491,-41.894,-34.774,-36.541
-57.107,-65.63,-28.728,-43.316,-29.351,-39.042,-33.128,-33.027
-52.131,-65.319,-28.226,-44.164,-28.791,-39.386,-33.732,-31.361
-46.657,-66.222,-29.287,-47.327,-29.781,-43.394,-34.955,-31.32
-41.555,-64.639,-29.709,-48.391,-30.191,-45.989,-33.744,-32.143
-39.41,-58.529,-26.19,-42.818,-26.757,-41.32,-26.89,-29.424
-41.907,-52.504,-18.771,-33.354,-19.445,-31.419,-14.663,-20.069
-45.011,-51.06,-11.628,-26.685,-12.288,-23.426,-2.886,-10.631
-41.117,-50.852,-6.981,-24.38,-7.664,-19.876,2.929,-9.095
-30.09,-47.636,-4.205,-24.259,-5.236,-19.054,1.986,-13.149
-21.757,-44.688,-4.763,-27.41,-6.2,-22.347,-3.064,-16.491
-23.173,-46.462,-9.748,-33.521,-11.078,-29.125,-7.428,-17.203
-30.006,-49.332,-15.169,-35.416,-16.053,-31.114,-7.605,-16.179
-35.403,-47.705,-17.054,-29.946,-17.819,-25.017,-5.795,-15.44
-39.116,-44.212,-15.413,-23.37,-16.373,-17.819,-5.136,-15.119
-41.243,-43.457,-10.666,-19.001,-11.624,-13.534,-2.801,-10.636
-38.773,-43.61,-5.603,-15.009,-6.413,-10.872,1.785,-1.872
-32.582,-41.385,-4.941,-12.689,-5.899,-10.352,2.711,2.077
-26.01,-37.433,-5.896,-13.413,-7.208,-11.584,0.595,-1.439
-20.977,-35.91,-3.751,-15.972,-5.073,-13.284,0.459,-4.562
-19.377,-38.21,-2.207,-18.803,-3.169,-15.815,0.69,-3.358
-19.908,-38.23,-3.53,-17.722,-4.209,-16.323,0.719,0.802
-19.085,-32.588,-3.915,-10.91,-4.395,-12.244,1.892,4.288
-17.301,-26.993,-2.793,-3.823,-3.021,-7.356,-0.171,1.584
-16.973,-26.059,-1.908,-1.216,-2.089,-5.859,-6.488,-6.972
-17.949,-27.162,-0.45,-1.904,-0.738,-6.895,-9.847,-13.458
-15.873,-24.715,3.411,-1.766,3.227,-5.866,-5.717,-10.866
-6.517,-17.96,10.115,0.182,10.122,-1.816,2.488,-2.061
3.81,-13.891,15.646,-0.68,15.702,-0.956,8.442,3.389
1.706,-17.191,12.905,-6.282,13.076,-6.193,8.071,1.913
-11.58,-20.666,2.253,-9.752,2.633,-10.408,1.975,-2.609
-17.528,-16.074,-5.473,-5.422,-5.201,-7.207,-4.247,-5.89
-11.703,-11.07,-5.582,-0.759,-5.78,-3.009,-6.749,-7.661
-12.316,-18.447,-6.99,-5.78,-7.385,-7.644,-9.369,-10.503
-23.37,-31.929,-12.397,-14.009,-12.398,-15.185,-13.464,-12.206
-25.316,-33.954,-10.21,-11.479,-9.747,-11.563,-9.746,-6.29
-11.006,-22.694,2.684,-0.412,3.279,0.658,3.49,4.556
3.994,-12.343,10.429,3.982,11.03,4.734,8.545,7.082
7.327,-10.988,2.676,-1.829,3.33,-3.025,-3.238,-2.025
3.436,-11.769,-8.723,-4.964,-8.043,-8.006,-14.312,-9.442
2.89,-6.68,-9.321,2.07,-8.663,-1.904,-10.856,-6.909
5.62,-0.991,-2.292,10.443,-1.656,6.423,-1.796,-1.225
2.829,-3.693,1.877,11.264,2.526,8.411,1.697,0.55
-1.728,-8.415,3.3,9.393,3.908,7.873,2.066,0.413
3.667,-3.894,7.328,11.413,7.727,9.983,4.469,2.352
14.4,4.885,11.962,13.78,12.223,12.195,7.304,5.935
19.608,8.51,14.518,14.372,14.896,13.127,10.081,10.051
23.273,11.424,19.624,19.269,20.119,17.349,16.976,16.549
33.528,20.984,29.735,30.192,30.267,26.766,28.018,26.604
46.52,32.756,38.616,39.949,39.286,36.659,36.407,35.679
51.198,36.645,40.72,42.081,41.458,40.838,36.945,36.046
42.33,28.969,36.401,35.859,36.895,36.435,31.035,26.846
26.857,15.475,27.575,25.022,27.768,26.073,23.261,17.21
17.584,6.732,18.966,17.221,19.157,17.945,18.496,16.685
19.266,8.217,17.119,18.415,17.476,18.886,19.561,25.547
25.978,14.399,20.881,24.462,21.216,25.178,22.768,33.398
32.616,18.221,23.288,26.693,23.349,27.723,21.563,29.916
38.135,20.612,22.968,25.138,22.713,25.596,17.394,20.141
40.025,24.309,23.385,26.009,22.959,25.167,17.393,17.797
38.209,27.506,25.35,29.193,24.898,28.118,21.188,22.793
36.716,27.53,27.047,29.019,26.611,29.525,22.704,24.461
36.107,25.441,27.177,24.988,26.819,27.131,22.086,22.462
34.348,25.358,26.059,22.549,25.951,25.064,23.269,23.315
31.125,27.331,24.214,22.622,24.394,25.093,24.103,24.095
26.46,24.962,20.481,19.3,20.689,21.741,19.739,17.678
23.079,18.04,16.309,13.137,16.315,14.914,13.469,8.804
26.091,16.874,16.784,13.522,16.661,14.681,13.361,9.368
32.942,25.05,21.3,21.786,21.219,23.424,19.159,19.47
34.187,32.915,23.601,28.438,23.557,30.946,23.614,27.437
29.476,33.524,22.542,28.665,22.395,31.727,24.151,27.41
29.812,32.036,23.244,27.9,22.969,31.691,24.863,26.201
39.801,35.524,29.324,32.192,29.064,36.798,29.503,31.974
49.98,41.162,37.169,38.433,37.009,43.244,35.505,40.859
51.141,41.919,39.48,39.562,39.232,44.169,37.089,42.558
45.455,38.503,35.83,36.546,35.219,40.895,34.868,37.503
40.119,36.516,32.443,35.344,31.478,38.751,33.915,34.254
38.771,38.434,31.584,38.021,30.374,39.454,33.541,34.689
40.159,42.797,31.355,42.494,29.717,42.09,31.398,35.485
40.737,45.541,32.07,44.088,29.818,43.303,30.309,35.65
39.376,44.603,34.591,40.514,31.99,40.484,31.862,36.136
40.164,44.386,38.934,37.699,36.361,38.261,35.002,38.732
46.074,48.577,44.963,41.329,42.309,42.18,39.231,42.845
52.527,53.502,49.694,47.335,46.608,49.117,41.577,44.204
55.926,56.181,50.927,50.406,47.522,53.282,40.313,42.526
59.839,58.663,50.977,51.051,47.745,53.115,38.637,41.421
65.336,60.726,51.208,49.699,48.21,48.87,38.218,40.272
67.347,59.098,50.849,46.022,47.678,42.934,38.015,37.581
62.84,53.721,50.672,42.768,47.283,39.936,38.114,36.059
55.309,48.715,52.065,42.625,48.835,41.675,39.002,37.409
50.689,47.292,54.313,44.437,51.32,45.296,39.847,38.936
49.942,48.333,54.86,45.053,51.844,46.742,39.354,37.894
49.564,48.858,52.836,42.673,49.59,44.385,37.751,35.014
48.714,47.661,49.962,38.581,46.311,40.028,35.924,32.083
49.188,46.291,47.336,36.421,43.099,37.218,33.932,29.76
50.81,47.095,44.734,37.774,39.743,37.225,32.055,28.507
51.523,49.764,41.906,39.826,36.076,37.489,30.003,27.732
50.244,51.654,38.722,39.542,32.319,35.884,26.565,25.893
47.835,50.909,35.59,36.279,28.876,32.855,22.334,23.11
45.001,47.549,33.234,30.697,25.834,29.519,19.511,20.797
41.546,43.467,31.841,25.719,23.17,28.093,19.211,20.355
38.115,40.84,31.46,24.926,21.55,30.174,20.611,22.755
36.744,40.493,32.717,28.09,22.093,33.458,22.276,26.785
40.428,43.397,36.356,32.776,25.362,35.542,24.642,30.302
49.395,49.929,42.352,37.809,30.969,37.424,29.894,33.619
58.649,57.849,51.005,43.473,39.238,41.149,40.573,38.981
64.743,64.697,61.801,50.488,49.89,47.805,55.616,47.063
68.589,69.054,67.082,55.99,55.21,54.705,61.749,52.233
69.137,69.478,59.14,54.825,47.253,56.329,47.144,46.79
65.503,66.267,47.892,49.293,36.085,53.255,29.473,36.204
62.7,62.87,49.353,47.554,38.032,52.141,34.25,34.679
62.86,60.935,56.661,49.044,46.113,52.146,48.991,39.992
57.262,53.595,47.025,41.279,37.272,41.898,39.536,33.015
38.832,29.021,13.034,14.62,4.085,14.45,-0.35,3.334
11.785,-19.62,-37.003,-28.774,-45.209,-26.456,-53.438,-43.679
-20.836,-93.316,-106.172,-87.9,-113.868,-81.435,-120.522,-106.472
-65.845,-193.384,-209.535,-172.801,-216.939,-162.268,-218.748,-195.504
-130.79,-319.667,-345.549,-288.629,-352.77,-273.906,-346.047,-313.781
-215.275,-462.063,-492.467,-421.951,-499.531,-403.539,-483.229,-446.742
-310.43,-600.991,-633.956,-552.575,-640.787,-532.684,-621.927,-578.661
-401.368,-724.368,-768.479,-671.371,-775.091,-651.909,-762.94,-705.22
-480.155,-854.174,-911.364,-794.575,-918.233,-775.507,-913.219,-840.4
-567.893,-1045.451,-1103.845,-965.996,-1111.832,-944.864,-1104.338,-1022.612
-706.37,-1324.335,-1375.492,-1214.122,-1384.999,-1186.655,-1365.094,-1278.102
-907.707,-1631.473,-1682.927,-1497.953,-1693.089,-1462.936,-1662.156,-1564.44
-1125.834,-1866.605,-1931.361,-1730.37,-1940.623,-1692.748,-1911.233,-1793.237
-1292.446,-1974.961,-2051.775,-1851.414,-2059.232,-1817.323,-2038.973,-1906.543
-1369.56,-1960.171,-2034.002,-1853.741,-2039.563,-1825.953,-2023.41,-1900.706
-1360.912,-1852.741,-1915.569,-1764.229,-1919.292,-1743.592,-1902.704,-1804.896
-1293.143,-1697.682,-1753.501,-1626.325,-1755.496,-1612.692,-1740.363,-1661.772
-1201.111,-1539.396,-1590.744,-1480.819,-1591.342,-1471.872,-1578.054,-1510.291
-1111.998,-1391.213,-1436.895,-1342.026,-1436.417,-1335.251,-1423.985,-1365.631
-1024.385,-1230.384,-1270.439,-1192.114,-1268.944,-1188.356,-1259.046,-1210.387
-915.584,-1036.79,-1069.369,-1011.123,-1066.782,-1013.466,-1059.99,-1022.67
-777.154,-826.997,-848.252,-811.351,-844.565,-820.846,-838.613,-815.998
-629.816,-636.193,-647.041,-627.06,-642.336,-641.827,-636.586,-628.422
-500.022,-476.307,-481.956,-473.396,-476.386,-491.257,-472.907,-474.327
-391.299,-328.701,-331.289,-333.025,-324.913,-353.182,-324.756,-331.526
-286.796,-176.218,-174.637,-186.994,-167.267,-209.316,-169.247,-180.321
-176.151,-27.42,-22.97,-42.752,-14.631,-66.814,-17.762,-33.635
-68.085,97.478,102.165,79.626,110.845,54.64,106.965,86.44
22.468,194.563,199.526,175.712,208.022,150.724,204.718,181.13
92.791,279.512,285.868,258.286,294.497,233.357,292.475,266.923
155.73,365.754,374.664,339.391,383.997,313.396,381.962,353.416
221.098,447.497,461.509,417.353,471.403,389.91,468.568,435.775
281.283,509.017,529.548,479.553,539.346,452.126,536.297,499.77
325.721,548.907,573.101,521.153,582.613,495.005,579.16,540.67
358.535,584.345,606.688,555.182,616.337,529.458,611.514,572.99
392.328,628.088,645.708,595.579,655.757,568.494,649.073,611.691
431.94,673.083,689.662,639.557,699.884,610.894,691.846,654.899
468.176,704.069,724.559,673.074,734.641,644.294,726.768,688.747
488.911,717.573,739.616,689.419,749.528,661.506,742.549,704.249
495.758,724.819,743.212,697.924,753.105,670.669,745.988,709.9
501.968,735.926,751.485,709.89,761.27,683.151,752.702,719.204
514.897,750.068,765.196,723.627,774.552,697.509,763.779,730.694
530.212,762.359,775.373,732.614,784.268,706.734,771.548,736.79
542.877,771.719,781.514,738.168,790.363,712.645,777.181,740.463
554.436,780.842,789.349,745.756,798.562,722.1,785.876,748.846
567.024,791.633,800.319,756.026,809.871,734.776,797.123,761.605
578.05,801.565,811.206,765.214,820.841,744.479,807.5,773.338
585.021,806.515,819.345,771.253,829.046,749.616,815.177,780.417
589.488,806.093,823.74,774.333,833.566,752.44,818.891,782.636
592.034,802.544,821.574,773.177,831.275,751.864,815.189,781.011
589.751,796.614,810.585,766.232,819.894,745.698,802.264,774.688
583.567,789.446,797.429,756.883,806.456,736.871,788.649,764.957
578.889,783.099,790.952,750.314,799.996,730.295,784.034,758.002
575.366,774.392,786.802,743.798,795.896,724.424,781.528,754.051
569.486,759.77,776.952,732.626,785.851,715.787,771.11,747.123
565.48,746.766,766.531,722.695,775.18,708.664,760.044,739.1
567.054,743.591,762.325,720.093,770.992,706.586,757.771,735.842
566.969,743.103,759.498,718.551,768.304,703.76,758.571,734.787
560.074,735.264,752.718,711.612,761.436,696.145,753.912,729.666
552.173,723.148,743.612,701.59,752.128,686.413,744.081,718.747
546.375,712.187,731.816,689.743,740.446,674.753,730.253,703.415
537.227,699.427,713.466,673.39,722.456,658.937,710.308,685.396
522.98,682.864,691.043,654.828,699.984,641.829,687.888,667.708
509.141,666.657,672.683,640.303,680.94,628.835,671.064,653.195
496.618,650.587,657.296,627.807,664.913,617.545,656.787,638.458
480.933,629.847,635.691,609.311,643.211,599.868,635.479,617.325
464.824,609.046,610.3,587.145,617.94,577.424,611.054,592.961
455.196,597.458,592.732,571.212,600.506,560.749,594.686,574.468
450.811,592.355,584.912,562.369,592.942,552.445,587.647,563.871
445.65,584.699,579.452,553.839,587.529,545.496,583.2,556.262
437.351,572.674,569.054,541.836,576.647,534.535,572.501,545.73
428.007,559.625,553.004,527.755,559.996,520.365,553.456,530.801
421.321,548.673,539.587,516.086,546.376,507.808,537.593,517.94
417.851,540.719,534,509.226,540.932,500.271,532.613,512.022
413.588,532.586,530.484,503.863,537.596,495.744,530.709,508.614
403.324,519.869,522.253,494.83,529.351,489.305,524.089,501.571
385.652,502.38,508.261,480.219,515.071,477.753,513.173,489.07
366.452,484.218,490.092,462.65,496.538,462.046,497.95,472.946
352.28,468.851,469.063,446.119,475.38,445.865,476.021,457.078
342.167,455.547,448.616,431.731,455.025,430.975,453.109,443.003
332.641,441.276,434.344,418.539,440.801,416.454,440.466,428.424
324.003,426.294,425.828,407.071,432.295,403.377,435.607,413.863
316.642,414.282,416.541,398.187,423.136,394.354,426.303,403.939
308.732,405.725,404.75,389.845,411.332,387.686,412.444,397.651
299.417,396.516,393.555,379.003,399.616,378.821,401.991,388.656
288.942,383.642,382.303,365.324,387.652,366.494,394.067,376.487
276.923,367.624,368.485,350.103,373.515,352.5,382.548,364.579
262.287,349.223,352.687,333.265,357.759,337.289,367.041,351.505
244.29,327.803,335.478,313.84,340.671,319.274,350.977,334.365
225.202,304.195,315.993,292.418,321.264,298.326,334.555,314.188
208.59,281.029,294.612,271.127,299.694,277.097,314.477,293.51
193.584,259.927,272.924,251.755,277.46,258.431,290.269,274.081
177.46,242.223,253.119,235.228,257.156,243.073,267.985,256.87
161.731,228.999,237.172,221.606,241.162,229.697,253.066,241.511
149.875,217.871,225.015,210.09,229.241,217.273,242.876,227.856
142.98,205.458,215.783,200.331,220.114,206.767,232.724,217.607
139.301,192.728,208.863,192.469,213.071,199.102,223.078,211.28
135.085,182.293,200.953,184.756,204.88,192.312,214.289,204.956
127.094,172.849,187.325,173.922,190.846,182.333,202.074,193.328
116.738,161.911,169.57,160.182,172.64,168.509,185.263,176.643
107.901,150.172,154.803,147.041,157.432,154.595,169.791,160.33
99.525,138.512,144.687,134.445,146.991,141.354,158.838,146.686
90.361,128.232,135.577,121.212,137.823,127.661,148.999,134.632
86.052,123.418,127.707,111.037,129.989,117.161,139.094,125.553
87.46,123.156,121.851,105.765,123.9,111.992,131.277,120.307
85.187,119.304,113.338,100.516,114.916,107.31,122.967,114.596
74.786,107.98,99.348,90.746,100.529,98.493,108.828,103.143
62.331,93.805,85.324,77.309,86.289,86.035,91.676,86.8
53.619,81.986,77.126,64.013,77.918,72.52,79.477,71.598
48.16,73.09,71.253,53.262,71.679,60.028,71.31,60.02
43.329,66.139,61.82,45.566,61.637,51.35,60.867,50.264
38.525,60.987,52.302,41.558,51.59,48.755,50.112,43.293
33.78,56.15,48.503,40.365,47.565,49.208,44.548,40.663
28.012,49.743,47.156,37.864,46.132,46.569,41.353,38.059
21.461,42.793,42.407,31.227,41.405,39.629,34.62,30.489
17.869,38.487,36.658,23.715,35.805,32.927,26.854,21.739
19.884,37.725,35.347,20.507,34.495,30.27,24.159,18.909
22.737,36.051,35.09,19.946,34.056,29.441,23.566,18.881
19.019,28.654,27.692,14.841,26.584,24.568,17.069,12.264
10.68,19.013,14.722,4.497,13.723,15.775,5.713,-0.838
5.593,13.282,4.951,-4.379,4.149,9.177,-3.568,-12.151
1.505,7.164,-1.683,-11.301,-2.281,4.33,-11.976,-19.89
-8.923,-5.65,-10.764,-21.431,-11.216,-4.726,-23.554,-28.913
-21.333,-19.432,-20.29,-32.988,-20.601,-17.143,-32.454,-38.603
-28.797,-28.898,-29.379,-42.734,-29.472,-29.402,-36.29,-46.26
-36.42,-39.871,-44.843,-54.491,-44.709,-43.663,-47.531,-57.348
-48.892,-54.257,-63.869,-67.828,-63.739,-58.782,-68.437,-73.483
-58.592,-64.194,-72.662,-74.375,-72.857,-66.18,-80.451,-82.892
-60.66,-68.936,-70.485,-73.557,-70.964,-64.503,-76.467,-79.74
-63.937,-78.2,-71.483,-74.903,-71.776,-64.084,-72.437,-75.301
-74.937,-93.871,-81.987,-83.151,-81.757,-71.733,-80.425,-80.655
-86.873,-106.198,-95.711,-94.312,-95.204,-83.736,-95.559,-94.076
-92.844,-110.787,-107.358,-103.77,-107.044,-94.417,-108.636,-107.878
-95.146,-112.892,-115.965,-109.915,-115.891,-101.757,-116.552,-116.701
-98.212,-116.107,-120.7,-113.591,-120.585,-105.719,-120.634,-119.625
-104.103,-121.353,-124.024,-118.838,-123.861,-108.435,-123.434,-121.011
-112.604,-130.191,-130.823,-128.769,-130.854,-113.835,-127.345,-125.975
-120.313,-140.407,-140.077,-139.877,-140.31,-122.898,-132.36,-133.521
-125.379,-148.228,-147.278,-147.444,-147.559,-132.598,-138.535,-140.415
-130.19,-154.018,-152.058,-152.076,-152.35,-139.494,-146.889,-146.287
-135.224,-157.978,-155.65,-155.559,-155.841,-142.309,-153.267,-150.502
-136.845,-157.207,-156.835,-156.609,-156.739,-141.717,-150.919,-151.787
-134.155,-152.921,-156.386,-155.008,-156.147,-139.685,-143.797,-150.979
-131.691,-151.801,-159.078,-155.027,-159.133,-140.015,-145.05,-151.064
-130.856,-154.563,-164.903,-159.137,-165.366,-145.057,-155.89,-154.446
-128.47,-155.997,-168.533,-164.501,-169.021,-152.323,-163.461,-159.952
-125.576,-156.433,-169.523,-168.916,-169.716,-158.032,-163.184,-164.649
-124.909,-159.125,-170.771,-172.929,-170.765,-161.318,-162.872,-167.921
-128.075,-164.938,-173.124,-178.081,-173.221,-164.593,-167.685,-171.898
-139.602,-173.883,-177.81,-184.349,-178.192,-169.167,-174.915,-177.167
-155.905,-181.598,-184.951,-187.437,-185.566,-171.669,-179.969,-180.119
-163.796,-182.384,-190.519,-185.289,-191.411,-170.581,-182.053,-178.484
-161.727,-178.859,-191.668,-183.757,-193.18,-170.98,-183.515,-176.002
-157.032,-177.868,-191.254,-187.789,-193.493,-176.397,-185.905,-177.593
-152.515,-181.43,-192.814,-194.393,-195.329,-183.017,-189.353,-183.145
-156.321,-189.534,-197.242,-200.46,-199.71,-188.173,-194.218,-189.644
-175.078,-201.958,-204.878,-208.153,-207.515,-195.436,-200.241,-196.763
-193.017,-211.803,-213.101,-216.017,-216.123,-202.909,-205.364,-203.815
-190.911,-210.689,-216.179,-216.579,-219.446,-201.267,-207.946,-206.21
-173.144,-200.203,-210.988,-207.546,-214.313,-189.545,-205.851,-201.144
-154.801,-188.199,-199.039,-195.462,-202.384,-177.935,-195.37,-190.549
-143.405,-181.278,-187.493,-188.602,-190.692,-175.207,-181.188,-180.041
-140.407,-181.799,-185.969,-189.375,-188.724,-180.129,-177.439,-177.034
-142.638,-184.382,-193.188,-191.778,-195.532,-183.865,-186.325,-181.434
-141.861,-180.582,-195.319,-188.23,-197.634,-180.726,-191.536,-182.531
-133.403,-170.501,-186.8,-179.641,-189.368,-174.193,-183.966,-175.21
-124.618,-163.725,-180.821,-175.535,-183.598,-171.875,-177.426,-170.955
-125.98,-166.062,-188.619,-181.173,-191.239,-176.494,-186.157,-179.583
-135.071,-171.576,-200.374,-188.729,-202.486,-182.276,-199.824,-190.466
-141.899,-174.589,-203.174,-190.652,-204.876,-184.458,-202.532,-191.706
-144.813,-179.299,-203.341,-192.89,-204.934,-187.044,-202.067,-191.524
-146.779,-187.127,-209.031,-200.502,-210.617,-192.364,-210.005,-198.25
-147.48,-191.225,-213.182,-206.329,-214.806,-195.45,-216.775,-203.602
-148.269,-190.51,-211.854,-206.145,-213.582,-195.342,-214.188,-202.449
-151.106,-190.79,-212.62,-205.651,-214.369,-196.909,-212.905,-202.949
-152.36,-192.711,-216.4,-206.86,-217.958,-199.864,-219.103,-207.558
-148.23,-191.866,-214.259,-204.243,-215.423,-198.115,-220.949,-206.616
-141.526,-186.73,-204.439,-196.052,-205.221,-189.835,-210.282,-196.95
-135.361,-178.765,-194.232,-186.516,-195.089,-178.819,-196.349,-186.943
-126.122,-168.151,-185.31,-177.127,-186.858,-167.182,-189.001,-180.199
-110.858,-155.457,-173.272,-166.353,-175.602,-155.666,-183.646,-171.427
-95.166,-143.833,-157.956,-154.136,-160.523,-145.735,-169.685,-156.855
-87.483,-136.753,-145.07,-142.148,-147.295,-136.95,-149.886,-140.288
-91.422,-137.571,-144.109,-136.988,-145.89,-132.967,-145.59,-134.044
-103.087,-146.165,-158.322,-145.835,-159.877,-142.117,-167.165,-147.518
-112.546,-154.312,-173.96,-161.729,-175.421,-159.387,-191.428,-169.79
-113.271,-154.818,-176.33,-168.802,-177.69,-166.954,-194.731,-179.451
-109.789,-152.303,-169.497,-165.003,-170.734,-161.006,-183.709,-172.77
-110.24,-154.349,-164.749,-162.261,-165.973,-155.749,-174.541,-165.423
-115.09,-159.599,-163.619,-165.292,-165.007,-158.568,-170.191,-166.587
-119.46,-163.304,-164.265,-167.831,-165.606,-162.589,-169.797,-170.06
-120.329,-164.233,-168.345,-166.732,-169.162,-162.706,-176.735,-171.431
-116.71,-161.486,-172.422,-163.784,-172.712,-160.974,-185.272,-171.888
-109.824,-154.65,-168.731,-158.705,-168.932,-158.288,-181.477,-167.894
-102.998,-146.919,-157.778,-151.076,-158.123,-153.182,-163.579,-155.464
-98.5,-142.68,-149.277,-144.627,-149.699,-148.284,-145.332,-140.352
-97.113,-143.137,-151.988,-144.774,-152.419,-149.824,-145.141,-136.772
-97.832,-144.5,-163.191,-151.269,-163.606,-157.364,-166.868,-150.57
-98.001,-142.637,-169.349,-156.092,-169.627,-161.678,-185.618,-165.06
-97.908,-140.321,-165.942,-155.564,-166.013,-159.879,-181.346,-164.772
-101.916,-144.236,-165.729,-157.466,-165.758,-161.387,-171.989,-161.307
-111.689,-154.65,-175.978,-166.691,-176.174,-171.335,-179.613,-169.361
-121.398,-164.309,-186.766,-176.289,-187.171,-182.302,-196.472,-182.459
-124.695,-168.501,-188.899,-179.722,-189.402,-187.191,-203.756,-188.24
-123.99,-170.32,-184.917,-179.034,-185.257,-187.146,-195.925,-184.015
-123.286,-171.435,-178.204,-175.402,-178.104,-182.617,-178.431,-170.774
-121.57,-169.347,-171.831,-168.659,-171.463,-174.192,-164.868,-155.436
-123.232,-169.996,-179.382,-170.46,-179.431,-175.787,-178.021,-161.098
-132.066,-179.234,-202.116,-187.121,-202.822,-194.255,-213.365,-193.351
-137.956,-185.519,-213.798,-198.89,-214.449,-207.163,-229.159,-215.32
-135.19,-179.662,-205.533,-192.951,-205.562,-200.355,-215.166,-206.596
-132.474,-171.676,-197.909,-183.882,-197.627,-190.485,-201.698,-192.041
-132.078,-169.606,-195.478,-179.697,-195.333,-186.75,-194.515,-184.895
-127.627,-168.688,-187.311,-172.559,-187.366,-180.739,-181.592,-174.004
-121.414,-166.524,-179.651,-164.766,-179.839,-174.978,-174.877,-165.217
-121.969,-167.428,-183.463,-165.938,-183.723,-178.812,-186.416,-173.459
-129.418,-171.906,-190.149,-171.814,-190.453,-185.983,-198.355,-187.043
-135.448,-174.136,-186.613,-170.406,-186.944,-183.533,-191.769,-183.543
-135.402,-171.333,-177.911,-162.132,-178.053,-173.465,-177.693,-167.47
-132.704,-168.408,-176.347,-157.449,-176.119,-167.93,-175.075,-159.318
-131.322,-169.618,-182.082,-160.107,-181.805,-170.144,-184.423,-164.185
-130.597,-171.871,-187.375,-164.848,-187.471,-173.972,-196.826,-173.707
-127.275,-169.598,-185.07,-164.722,-185.389,-173.595,-200.005,-176.955
-120.784,-162.906,-174.073,-157.392,-174.195,-167.155,-186.301,-167.537
-116.921,-158.827,-167.059,-150.859,-166.99,-161.024,-172.951,-157.477
-120.436,-162.019,-174.507,-154.11,-174.563,-164.006,-179.104,-163.469
-125.563,-167.124,-181.672,-160.858,-181.866,-171.275,-186.567,-174.167
-124.981,-167.353,-171.83,-159.179,-171.966,-170.633,-170.741,-166.234
-123.462,-165.988,-161.075,-153.748,-161.301,-164.861,-153.064,-150.693
-128.172,-168.851,-170.078,-157.402,-170.72,-166.406,-165.814,-157.062
-133.191,-171.346,-183.407,-165.774,-184.359,-173.185,-189.321,-177.583
-128.768,-165.251,-178.808,-163.826,-179.647,-171.294,-186.284,-179.041
-117.759,-153.578,-164.3,-151.573,-164.81,-158.638,-163.215,-158.215
-111.807,-148.385,-156.993,-143.077,-157.177,-148.822,-148.858,-141.892
-116.489,-155.052,-158.224,-145.724,-158.217,-151.427,-151.227,-145.379
-125.889,-166.051,-161.902,-154.019,-162.06,-160.723,-160.994,-158.476
-131.069,-172.381,-165.643,-160.548,-166.149,-167.169,-168.478,-165.736
-131.772,-174.284,-169.623,-164.209,-170.231,-169.358,-169.403,-165.645
-133.482,-175.287,-171.998,-165.88,-172.468,-169.434,-165.492,-164.407
-135.255,-174.629,-170.311,-164.124,-170.643,-167.018,-161.511,-161.89
-133.91,-173.1,-167.949,-160.709,-168.203,-163.267,-161.096,-157.08
-133.647,-175.011,-169.546,-159.981,-169.696,-161.478,-162.527,-154.321
-137.598,-179.676,-171.421,-161.142,-171.363,-161.93,-160.096,-154.767
-141.785,-182.502,-170.009,-162.565,-169.827,-164.131,-155.107,-155.967
-144.31,-183.032,-169.626,-165.368,-169.631,-168.135,-154.703,-157.412
-146.265,-183.271,-170.401,-166.606,-170.732,-169.918,-156.779,-157.708
-146.318,-184.275,-167.848,-164.698,-168.365,-167.751,-156.275,-157.154
-145.685,-187.635,-166.549,-166.318,-167.091,-168.556,-158.498,-160.372
-148.832,-193.415,-172.522,-173.481,-173.011,-175.132,-166.038,-166.222
-154.581,-197.866,-180.382,-177.546,-180.9,-178.871,-171.044,-166.541
-158.77,-198.972,-183.696,-174.319,-184.407,-174.93,-170.653,-160.772
-163.415,-201.39,-185.272,-171.889,-186.12,-172.001,-171.22,-160.177
-170.047,-208.679,-188.641,-177.689,-189.374,-178.495,-175.326,-171.086
-172.454,-214.758,-191.147,-186.479,-191.761,-188.63,-178.186,-183.205
-169.06,-213.232,-192.336,-190.074,-193.147,-192.563,-178.591,-185.431
-168.875,-208.41,-197.142,-190.686,-198.258,-191.693,-181.109,-182.123
-174.551,-206.189,-203.422,-192.072,-204.608,-191.261,-184.291,-180.833
-176.637,-204.458,-201.651,-189.918,-202.765,-188.83,-180.394,-178.646
-170.695,-200.429,-191.079,-181.814,-192.092,-181.56,-168.535,-170.979
-162.842,-195.332,-180.012,-172.216,-180.783,-172.55,-156.441,-160.336
-157.651,-190.115,-172.253,-164.582,-172.827,-164.99,-150.102,-151.606
-155.139,-186.259,-167.165,-160.038,-167.904,-160.26,-149.247,-147.448
-155.726,-186.373,-167.182,-160.031,-168.286,-160.082,-152.919,-148.743
-158.519,-189.256,-173.78,-163.898,-175.057,-163.871,-162.57,-154.452
-160.447,-190.834,-180.809,-167.064,-181.992,-166.673,-173.416,-159.62
-159.185,-189.218,-180.938,-165.154,-182.039,-164.01,-174.752,-159.038
-155.026,-185.114,-176.592,-159.97,-177.822,-158.196,-168.067,-155.394
-152.268,-180.595,-175.788,-156.457,-177.171,-154.573,-165.806,-153.905
-153.269,-177.301,-178.242,-154.23,-179.542,-152.605,-168.776,-151.366
-151.872,-173.605,-176.468,-149.492,-177.575,-147.71,-167.287,-143.504
-144.399,-168.6,-171.136,-144.418,-172.262,-141.204,-162.477,-136.368
-139.199,-167.268,-171.608,-146.022,-172.953,-141.131,-164.393,-138.985
-141.971,-171.657,-178.423,-153.305,-179.875,-148.699,-172.154,-149.009
-145.997,-175.043,-181.421,-156.984,-182.847,-154.139,-175.436,-155.566
-146.021,-173.388,-176.867,-154.412,-178.249,-152.464,-171.249,-154.475
-145.672,-170.451,-171.235,-151.45,-172.393,-149.356,-165.679,-150.958
-147.285,-169.021,-169.453,-151.152,-170.357,-149.074,-163.776,-149.775
-146.921,-166.746,-169.096,-150.701,-170.223,-148.585,-164.248,-149.941
-142.383,-162.529,-166.094,-148.389,-167.704,-145.317,-162.23,-148.209
-137.947,-160.55,-161.301,-146.945,-162.944,-142.777,-155.367,-144.531
-136.655,-161.859,-156.905,-146.296,-158.235,-142.434,-145.894,-140.874
-135.024,-159.842,-151.05,-141.12,-152.322,-138.395,-137.329,-135.547
-131.284,-152.42,-143.401,-132.128,-144.81,-129.283,-132.669,-127.458
-130.42,-147.988,-139.138,-128.358,-140.516,-123.981,-134.226,-123.884
-134.829,-152.52,-140.602,-133.197,-141.942,-127.838,-139.475,-129.853
-139.029,-160.676,-144.045,-140.162,-145.588,-135.26,-141.645,-137.357
-137.86,-163.056,-146.31,-142.796,-148.111,-138.531,-138.703,-138.184
-132.087,-156.657,-145.174,-139.18,-147.048,-134.665,-133.463,-132.915
-124.832,-146.899,-139.306,-131.804,-141.16,-126.789,-128.827,-125.824
-118.363,-140.507,-132.57,-126.534,-134.434,-121.992,-128.75,-123.846
-113.941,-137.919,-128.31,-125.108,-130.181,-122.462,-132.319,-128.938
-111.766,-135.392,-124.496,-123.32,-126.406,-123.413,-132.099,-131.951
-111.101,-131.691,-120.608,-119.439,-122.554,-121.861,-126.702,-127.7
-110.578,-127.859,-117.882,-115.122,-119.716,-118.284,-120.015,-121.37
-108.777,-123.193,-113.548,-109.508,-115.277,-111.791,-110.669,-114.395
-105.143,-116.188,-105.399,-101.064,-107.233,-102.38,-98.952,-104.394
-101.021,-109.158,-98.453,-93.475,-100.382,-94.913,-94.591,-97.34
-99.883,-107.387,-100.319,-92.931,-102.145,-94.351,-103.748,-101.034
-103.23,-111.016,-110.541,-98.937,-112.334,-98.838,-116.604,-110.547
-106.453,-112.92,-118.331,-103.089,-120.359,-101.211,-118.734,-113.135
-104.281,-109.004,-114.97,-99.453,-117.193,-97.392,-108.926,-104.86
-98.355,-103.919,-104.648,-91.637,-106.774,-91.033,-96.623,-93.871
-93.904,-102.385,-97.868,-86.421,-99.759,-87.778,-89.727,-88.085
-92.649,-102.737,-98.781,-86.025,-100.45,-88.855,-91.389,-88.834
-92.822,-101.496,-101.989,-88.314,-103.52,-91.747,-97.363,-93.695
-92.182,-97.77,-100.599,-89.135,-102.141,-92.255,-97.904,-96.811
-90.19,-93.11,-95.35,-85.972,-97.071,-88.102,-91.756,-94.108
-87.703,-89.208,-90.374,-80.065,-92.537,-81.077,-85.745,-87.994
-83.399,-85.23,-84.312,-72.804,-86.96,-73.037,-79.71,-80.087
-76.532,-80.124,-76.859,-65.812,-79.428,-65.45,-71.813,-70.545
-71.601,-76.592,-75.454,-63.444,-77.418,-61.919,-69.31,-64.552
-71.523,-77.743,-82.244,-67.293,-83.752,-64.241,-75.073,-66.371
-72.883,-81.221,-87.249,-71.813,-88.742,-68.286,-79.637,-71.575
-72.594,-81.104,-83.958,-70.574,-85.776,-67.687,-77.335,-72.441
-71.379,-75.913,-77.858,-64.153,-80.129,-61.434,-73.559,-68.206
-69.933,-69.934,-74.696,-58.119,-77.113,-54.732,-72.131,-64.301
-66.109,-65.196,-71.573,-54.659,-73.632,-51.079,-69.039,-61.736
-59.589,-60.566,-65.696,-53,-67.371,-50.262,-62.689,-58.553
-55.597,-58.036,-61.713,-54.462,-63.465,-52.943,-58.795,-58.026
-55.634,-58.645,-61.858,-57.9,-63.88,-57.513,-59.421,-61.14
-54.094,-58.239,-61.785,-58.591,-63.845,-59.131,-59.726,-62.106
-49.578,-54.992,-60.043,-56.02,-62.036,-57.301,-58.359,-59.848
-46.528,-51.403,-58.427,-52.545,-60.461,-54.796,-57.747,-58.807
-46.43,-48.127,-56.191,-48.269,-58.41,-51.649,-56.141,-57.753
-46.073,-44.275,-51.606,-43.4,-54.179,-47.003,-50.107,-51.238
-44.396,-42.002,-45.889,-40.139,-48.693,-42.855,-42.2,-41.769
-45.024,-44.004,-41.869,-39.861,-44.421,-42.091,-38.376,-39.027
-47.068,-46.372,-38.877,-39.703,-41.085,-42.728,-38.008,-43.29
-42.834,-42.059,-33.726,-35.404,-35.907,-39.604,-34.417,-43.823
-30.297,-31.535,-26.224,-27.442,-28.26,-32.25,-25.974,-37.055
-17.425,-21.284,-18.871,-19.41,-20.528,-23.979,-18.503,-29.04
-11.276,-14.704,-13.184,-13.469,-14.831,-16.88,-15.673,-22.295
-10.312,-11.297,-8.962,-10.146,-10.965,-12.127,-13.782,-15.568
-9.891,-10.09,-5.549,-8.219,-7.716,-9.671,-8.59,-10.6
-10.338,-10.937,-3.265,-6.597,-5.265,-8.763,-3.019,-9.788
-14.325,-14.129,-2.492,-6.217,-4.236,-9.341,-1.65,-10.811
-18.376,-16.376,-0.732,-4.666,-2.244,-7.782,-0.993,-7.506
-16.331,-13.112,3.021,1.392,1.769,-0.716,2.144,0.009
-11.679,-8.907,3.056,5.428,1.912,4.116,1.202,1.089
-13.251,-11.412,-3.698,0.261,-5.11,-1.497,-6.607,-8.181
-18.481,-16.114,-10.244,-7.094,-12.022,-10.11,-12.309,-15.548
-16.904,-14.244,-9.243,-6.913,-10.995,-10.794,-9.083,-12.275
-8.718,-7.565,-1.624,-0.755,-2.928,-4.347,-0.199,-4.265
-3.811,-2.964,6.517,5.45,5.552,3.272,7.775,1.91
-4.927,-2.199,9.955,8.988,8.881,8.294,11.493,5.87
-6.494,-2.961,8.104,8.84,6.822,8.557,10.901,6.73
-7.211,-4.194,3.569,4.907,2.219,4.529,6.202,2.73
-9.903,-6.204,-1.3,-0.264,-2.743,0.193,-1.043,-3.035
-11.388,-6.775,-2.453,-1.322,-3.832,0.629,-4.045,-3.087
-5.49,-2.032,4.699,5.313,3.752,7.739,3.465,5.643
6.14,8.222,17.738,16.498,17.139,17.915,17.691,16.846
17.384,20.078,29.765,25.911,29.069,26.044,30.209,24.078
26.918,29.899,38.028,31.48,37.111,31.354,38.439,29.232
34.877,36.058,42.424,35.264,41.436,36.084,42.584,34.938
38.508,38.221,43.431,38.826,42.336,40.881,42.606,39.289
37.162,37.727,44.185,42.233,42.825,45.244,41.872,41.847
33.924,36.726,45.894,44.653,44.321,48.511,42.86,43.304
31.592,35.781,46.289,45.214,44.848,49.123,44.462,43.182
30.875,34.602,46.012,44.629,45.111,46.725,46.628,42.384
30.695,34.442,47.343,44.478,46.865,43.873,48.886,41.256
31.577,37.192,50.134,46.426,49.373,44.639,50.101,40.339
35.848,41.891,53.336,51.105,52.043,50.332,51.168,42.399
41.409,45.178,55.877,55.603,54.671,56.436,52.576,47.31
44.781,48.054,58.717,58.093,58.056,59.815,54.883,52.286
47.893,54.84,64.042,61.673,63.554,63.668,59.145,55.721
52.664,63.5,70.219,67.18,69.364,68.759,64.542,57.13
56.91,68.693,74.547,71.208,73.315,71.435,70.317,58.242
58.347,70.507,76.03,72.079,74.711,71.187,73.369,59.798
57.141,70.72,72.988,70.325,71.727,69.805,67.847,58.498
56.418,69.68,68.329,67.839,67.182,68.357,59.064,54.715
58.933,69.367,69.541,67.633,68.582,68.491,60.307,54.595
62.221,70.77,75.153,69.371,74.338,70.442,68.587,59.015
62.637,72.183,77.518,69.62,76.712,71.646,71.384,62.011
61.842,73.482,78.462,68.566,77.628,71.064,72.199,61.791
62.727,75.43,83.08,69.43,82.281,71.144,79.691,62.522
63.18,75.98,86.795,71.636,86.08,73.042,86.365,65.73
59.372,72.47,82.635,70.999,81.981,73.34,80.631,67.214
53.074,66.658,73.268,67.154,72.572,69.732,66.383,63.59
52.024,65.032,69.899,66.323,68.983,67.44,59.497,59.369
59.744,70.671,77.582,72.123,76.304,71.868,67.803,61.848
68.751,77.606,86.375,78.569,84.895,78.621,80.365,69.482
71.113,79.097,87.688,80.073,86.44,81.392,85.914,75.701
68.501,75.616,87.068,79.329,86.214,81.279,89.021,79.686
65.64,71.092,89.433,78.332,88.694,79.616,93.769,81.434
63.716,68.333,90.209,74.763,89.452,74.814,92.92,77.48
62.351,68.634,87.478,70.489,86.772,69.992,84.416,70.109
61.474,71.586,86.481,70.798,85.677,70.593,78.61,67.126
61.917,75.587,90.175,75.963,89.166,76.033,83.133,71.3
63.837,78.722,95.04,81.812,93.998,81.942,92.893,79.429
65.085,78.856,96.917,84.533,96.005,85.198,98.284,86.302
65.326,76.093,96.22,83.037,95.533,84.763,96.769,88.091
67.943,75.245,96.369,80.853,95.862,83.113,93.98,87.169
73.571,80.176,98.855,82.061,98.204,84,95.294,88.334
77.916,87.503,100.243,85.159,99.348,87.004,96.58,90.795
78.517,91.554,96.051,86.163,95.385,88.191,88.997,89.951
77.028,91.195,87.846,84.041,87.744,85.242,75.327,84.413
74.591,88.32,80.979,80.186,81.081,80.339,67.357,78.017
70.967,84.226,77.154,76.265,76.926,77.36,67.261,74.934
67.692,80.279,75.655,73.832,75.064,76.998,68.808,75.234
66.722,78.48,76.57,73.495,75.949,77.246,70.096,75.602
66.62,78.274,78.094,72.886,77.551,75.875,71.894,72.864
65.667,77.661,78.403,69.883,77.855,72.258,73.491,68.498
65.752,77.509,79.925,67.763,79.547,69.564,74.901,67.181
67.98,78.428,83.553,69.943,83.53,71.359,75.225,69.53
70.133,78.671,85.819,73.827,85.9,76.399,73.233,72.072
70.434,77.846,85.478,75.145,85.355,79.416,71.037,71.433
68.55,75.916,83.253,72.613,83.061,75.982,69.674,65.989
65.772,72.899,79.966,68.592,79.921,68.702,68.594,60.08
65.644,71.799,79.707,67.472,79.634,65.411,70.899,60.68
69.489,74.794,85.453,70.825,85.133,68.926,77.669,66.836
75.184,80.812,94.173,77.232,93.758,76.547,84.606,73.743
81.897,89.375,102.298,86.182,101.998,86.647,90.387,81.559
88.372,98.781,108.548,95.23,108.384,96.042,96.371,89.715
91.054,104.187,111.029,99.107,111.006,99.412,99.858,93.563
89.72,103.613,108.89,98.088,108.983,98.318,98.427,93.15
87.423,99.76,104.94,97.134,105.018,98.182,95.402,93.798
85.875,95.468,102.856,95.781,102.853,96.8,94.696,95.316
85.16,92.011,102.237,90.657,102.176,90.26,94.936,91.198
83.009,88.854,98.768,82.946,98.618,81.705,92.07,80.385
76.727,84.486,92.048,75.8,91.832,75.065,86.991,71.775
69.298,80.058,88.333,71.684,88.133,71.981,85.825,72.823
66.975,78.891,90.174,72.369,89.933,74.118,89.357,79.101
70.691,81.4,92.06,76.109,91.779,79.62,91.267,82.172
76.204,84.917,91.138,78.594,91.001,83.293,89.902,81.945
80.114,87.814,90.373,78.316,90.265,83.007,88.174,82.423
80.978,89.374,89.401,76.973,88.939,80.716,84.511,82.345
78.128,87.739,85.215,75.409,84.328,78.223,77.876,78.488
73.476,83.455,80.503,74.12,79.397,76.852,73.766,73.556
71.006,81.033,79.904,75.161,78.799,78.535,76.03,73.395
70.797,81.178,81.05,77.456,80.257,81.068,80.279,76.75
68.877,79.337,78.86,76.802,78.603,79.216,79.979,76.376
64.752,75.236,74.431,73.912,74.539,74.562,74.463,71.073
60.652,72.621,71.814,72.334,71.899,72.613,68.19,66.462
56.571,71.471,71.277,71.204,71.091,72.414,64.822,65.801
53.526,70.323,71.788,69.447,71.296,71.093,65.148,68.111
54.18,70.505,74.552,69.799,73.873,71.258,68.663,71.395
57.696,72.752,79.089,72.727,78.395,74.833,72.957,73.832
61.212,75.67,82.507,74.678,81.952,78.284,75.694,74.97
64.585,78.675,84.56,74.459,84.288,79.032,78.441,76.026
68.52,81.713,85.659,73.612,85.633,78.209,81.53,76.897
71.722,84.026,84.542,72.803,84.56,77.111,81.257,76.272
73.474,86.374,83.455,73.343,83.435,77.292,78.254,75.676
75.079,90.258,86.235,76.805,86.071,80.247,77.727,77.235
77.332,94.286,90.775,81.775,90.322,84.752,79.984,79.927
79.379,96.037,92.515,85.729,92.037,88.507,81.421,82.566
80.637,96.187,92.324,88.29,92.27,90.947,82.766,85.143
82.575,97.497,94.393,91.041,94.746,93.169,87.169,87.839
85.898,100.444,99.167,95.108,99.431,96.445,92.447,91.292
87.174,101.597,102.874,98.694,102.62,99.65,93.657,94.196
83.169,98.145,102.798,98.685,102.149,99.357,91.2,93.629
76.489,91.929,100.276,94.758,99.768,94.734,90.146,90.12
72.634,86.406,98.9,89.923,98.794,90.089,92.948,87.551
72.835,83.144,99.086,86.566,99.168,88.863,95.135,87.521
72.978,82.015,96.044,83.428,96.144,88.072,90.875,87.006
68.834,80.714,85.939,77.665,86.153,82.861,80.86,82.139
59.956,75.66,70.954,68.169,71.339,72.757,69.205,72.953
49.846,67.176,57.621,57.26,58.036,61.676,59.144,63.124
42.337,59.644,50.493,49.04,50.747,53.459,53.079,55.575
38.807,56.273,49.075,45.91,49.182,49.426,51.008,51.068
40.415,59.117,53.311,48.725,53.431,51.171,53.037,50.469
46.306,67.39,62.244,55.369,62.407,58.06,59.215,53.711
51.419,74.752,68.697,60.087,68.902,63.824,65.098,58.572
52.734,76.944,68.031,60.363,68.42,64.303,66.703,62.874
51.641,75.394,64.575,58.433,65.109,61.331,64.984,64.147
50.489,72.118,64.112,56.606,64.356,58.098,63.092,60.792
51.77,70,68.042,57.086,67.741,57.953,65.026,56.939
55.619,72.002,72.861,60.458,72.473,62.006,70.7,58.33
57.312,75.057,71.954,62.259,72.138,64.993,71.658,61.911
53.145,72.788,63.481,57.538,64.281,60.651,63.135,59.592
47.27,66.03,55.499,49.321,56.426,52.092,54.467,52.631
46.398,62.739,56.133,46.434,56.82,49.304,54.747,50.662
50.771,66.577,62.791,51.888,63.258,55.003,59.942,56.568
56.258,72.865,68.144,59.975,68.604,62.026,63.709,63.552
60.279,76.188,70.917,65.611,71.438,65.759,67.07,67.245
62.207,76.413,73.67,69.308,74.013,68.82,71.988,69.873
63.492,77.386,77.52,74.054,77.627,74.431,78.201,74.398
65.818,80.826,83.32,80.997,83.632,81.656,86.122,81.813
66.558,82.826,89.003,86.199,89.719,85.419,92.498,88.246
63.849,81.4,90.337,86.289,91.008,83.622,92.556,88.226
62.603,81.462,89.659,85.463,89.936,82.173,90.126,85.46
65.423,84.53,91.595,87.029,91.659,84.747,91.274,86.758
67.985,85.604,94.313,87.64,94.46,87.112,94.12,89.936
70.771,86.076,97.909,88.608,98.126,89.453,97.609,93.157
78.867,92.606,106.367,96.026,106.391,97.421,105.227,100.553
87.011,101.521,113.868,105.404,113.588,106.722,112.006,108.532
85.645,103.897,111.439,106.747,110.944,107.514,109.3,108.636
79.806,102.485,104.768,103.195,104.083,103.193,101.936,104.564
80.714,104.739,104.16,104.425,103.435,104.124,99.851,105.045
86.157,107.433,107.609,108.538,107.366,108.615,102.497,108.194
86.593,103.826,107.378,107.529,107.938,108.297,102.862,107.912
80.644,95.685,102.104,101.231,103.056,102.682,97.365,104.071
73.066,87.663,95.711,93.623,96.405,94.925,89.737,99.152
65.204,79.243,89.672,84.981,89.927,84.839,84.924,92.87
56.509,69.816,82.885,76.065,82.989,74.434,81.586,84.984
51.158,64.438,77.2,71.856,77.404,69.837,76.812,79.883
52.263,65.907,74.105,73.546,74.283,71.754,71.102,80.128
54.787,68.46,71.832,74.675,71.815,72.818,66.473,80.032
54.435,67.638,71.135,71.52,71.106,69.408,66.059,74.774
53.993,65.846,73.126,68.178,73.356,66.574,70.121,68.548
55.844,64.87,74.439,68.014,74.916,67.455,71.774,67.349
56.988,63.554,73.321,68.584,73.736,67.676,67.001,69.366
53.675,61.361,71.834,67.072,71.88,64.403,62.287,68.71
48.322,59.026,70.727,65.054,70.44,62.125,62.57,65.955
46.744,58.165,70.604,65.1,70.385,64.25,65.197,66.939
49.595,60.964,74.113,67.702,74.358,68.452,69.398,73.055
53.492,66.862,80.051,71.915,80.753,72.429,75.267,79.271
55.519,70.324,81.661,74.317,82.466,74.312,77.831,80.494
54.83,68.189,77.965,72.573,78.538,72.591,75.681,77.391
53.601,64.197,76.079,69.299,76.432,69.589,74.42,74.494
52.666,61.191,77.627,66.51,78.081,67.22,75.826,73.916
50.746,59.206,78.469,64.41,79.181,65.285,77.014,74.342
49.388,59.394,78.582,64.604,79.398,65.143,77.129,73.608
49.245,60.656,77.855,66.003,78.641,65.778,75.545,70.771
47.406,59.792,72.542,65.209,73.356,63.519,70.882,67.343
45.247,57.851,64.808,63.138,65.771,59.521,65.478,64.709
47.02,57.982,61.939,62.398,63.034,57.526,63.469,61.831
49.882,58.942,62.511,61.336,63.642,56.607,62.693,58.003
48.884,59.142,60.207,58.904,61.417,55.469,58.496,55.875
46.354,61.331,57.844,59.346,59.187,57.545,55.262,59.446
45.876,64.929,59.801,63.1,61.116,62.162,59.155,66.788
46.368,64.337,62.352,63.853,63.506,62.623,65.817,70.021
46.466,59.642,62.881,61.249,64.067,59.758,68.52,67.618
46.203,56.686,63.475,61.121,64.932,60.118,67.838,66.148
45.267,57.294,63.597,63.131,65.167,62.176,66.676,67.583
42.757,56.755,58.841,60.908,60.193,59.074,62.035,66.137
38.058,50.497,47.78,52.171,48.928,49.824,49.834,58.12
33.725,42.453,38.254,43.499,39.458,41.217,37.723,48.893
33.097,40.24,38.346,41.795,39.653,39.307,35.711,45.874
33.952,42.495,43.078,43.715,44.326,41.091,38.843,46.922
32.222,42.885,44.089,42.622,45.283,40.234,39.763,44.951
30.271,42.526,44.796,41.106,46.099,38.724,43.479,42.447
32.546,45.007,49.474,43.552,50.905,40.745,51.663,46.396
35.603,45.634,48.952,43.255,50.399,39.729,50.675,49.474
34.638,41.126,38.577,35.086,39.982,30.961,35.452,40.354
34.489,40.087,33.807,30.494,35.225,26.811,26.51,30.586
40.755,48.449,44.925,39.638,46.509,37.563,39.711,38.85
49.71,58.611,59.394,54.061,61.168,53.211,60.799,57.928
56.231,63.286,64.805,62.707,66.46,61.409,69.409,69.514
60.46,64.856,65.353,67.146,66.654,64.432,67.482,73.148
62.5,66.347,67.85,70.983,68.992,66.799,68.167,75.901
60.318,65.571,68.359,70.181,69.545,64.504,70.253,74.333
53.68,60.085,60.227,61.49,61.328,54.855,62.721,63.641
46.885,53.216,49.33,52.106,50.249,45.412,49.932,52.254
46.438,52.085,49.438,52.517,50.305,45.653,49.201,53.428
50.931,55.897,59.204,59.469,60.121,51.907,60.876,63.283
50.996,55.516,60.782,59.173,61.808,51.413,63.991,63.478
44.685,49.127,48.399,49.548,49.673,42.606,49.273,50.216
39.134,43.91,38.487,42.115,39.953,36.245,35.464,40.149
37.766,42.771,42.532,42.465,43.876,37.063,39.087,42.816
38.313,42.539,50.507,45.026,51.604,39.258,49.14,49.419
40.559,43.058,53.207,46.679,54.303,39.634,52.532,52.935
46.756,47.669,57.153,51.253,58.543,42.44,56.595,57.42
53.926,54.236,63.538,57.547,65.101,48.047,62.945,62.36
55.456,56.254,61.139,58.056,62.376,49.86,56.892,59.346
52.662,54.07,50.912,53.463,51.679,47.487,40.877,50.052
52.748,53.319,47.256,51.732,47.984,47.34,35.222,45.973
55.692,53.996,52.605,53.644,53.535,49.299,42.598,49.594
55.952,52.069,56.624,54.058,57.563,48.133,50.796,54.077
52.964,47.363,54.763,51.634,55.662,43.444,56.018,54.856
50.552,43.237,51.306,49.7,52.351,39.987,58.274,53.378
50.484,42.251,50.072,51.599,51.288,41.784,54.529,53.931
50.431,43.223,50.017,55.059,51.243,46.073,47.016,55.207
46.751,42.272,48.023,53.625,49.147,45.929,42.05,51.105
38.395,37.234,40.722,45.123,41.8,39.245,37.189,41.029
29.153,30.416,29.068,34.622,30.23,30.375,27.822,30.667
26.19,27.387,23.354,29.848,24.56,26.073,23.397,27.42
31.373,30.281,28.857,32.338,29.922,28.578,30.414,33.509
37.609,34.122,35.116,34.953,36.055,31.698,36.408,40.427
40.102,34.979,35.417,33.873,36.486,31.065,35.343,41.192
41.015,35.093,35.44,33.466,36.704,30.769,36.952,40.005
40.369,35.783,35.194,34.376,36.4,32.083,40.133,38.671
35.791,34.505,28.253,31.266,29.248,29.367,33.659,31.872
29.891,30.75,18.6,24.242,19.476,21.814,22.147,21.993
27.84,27.514,16.869,19.482,17.681,16.197,20.064,18.453
29.899,26.231,22.565,19.147,23.303,16.116,25.933,21.643
31.489,25.032,25.85,19.714,26.568,17.801,27.418,23.462
30.249,23.248,24.011,18.942,24.794,17.61,24.099,21.067
28.893,22.798,22.675,18.25,23.626,16.581,23.805,18.853
29.517,23.823,24.568,18.974,25.731,16.615,26.991,19.417
29.742,23.742,27.519,20.132,28.702,17.147,29.979,21.16
27.095,21.175,28.933,20.09,29.849,16.477,30.931,22.805
23.21,17.884,26.689,18.524,27.365,14.265,27.397,22.562
20.552,15.594,20.31,15.801,21.163,11.603,19.656,18.112
18.335,12.859,12.165,11.724,13.506,8.956,12.032,11.846
14.218,7.696,3.775,5.835,5.373,5.049,4.219,6.79
8.469,1.653,-3.864,-0.081,-2.44,0.021,-4.714,3.002
4.929,-1.167,-5.357,-1.314,-4.107,-1.989,-5.597,4.075
6.405,1.35,2.158,3.125,3.441,1.023,5.995,11.07
10.087,6.514,9.155,6.566,10.39,3.721,14.383,14.315
11.505,9.862,6.035,3.909,7.171,1.031,7.19,8.558
11.428,10.486,-0.579,-0.435,0.537,-3.495,-2.121,3.66
12.612,9.758,-0.447,-0.518,0.504,-3.596,2.236,7.134
13.388,7.344,2.408,0.801,3.125,-1.548,11.193,10.407
10.431,2.655,-1.613,-2.843,-0.844,-4.808,7.754,4.225
3.576,-2.871,-11.421,-9.961,-10.345,-12.447,-4.278,-5.281
-3.187,-6.433,-17.299,-13.654,-15.955,-16.353,-8.473,-7.985
-3.973,-5.392,-14.776,-11.744,-13.408,-14.034,-2.322,-3.967
2.854,1.021,-8.315,-6.486,-7.227,-8.462,3.523,2.395
13.375,11.139,-1.705,0.988,-1.049,-0.772,5.112,9.191
24.549,22.209,7.324,9.975,7.703,8.236,9.582,15.323
35.071,31.156,17.842,17.343,18.282,15.146,18.259,19.93
41.058,34.855,20.443,18.8,21.106,16.587,18.761,21.455
40.56,33.549,13.969,14.543,14.766,13.336,8.072,18.378
38.988,31.979,11.941,10.595,12.791,9.906,2.801,13.367
40.598,32.52,18.833,10.338,19.629,8.608,10.355,10.537
40.624,31.803,22.237,10.125,22.833,7.216,17.843,9.097
35.089,28.294,16.674,7.835,17.231,5.074,17.427,7.404
29.866,25.96,11.289,7.322,12.052,5.385,15.146,8.717
30.282,26.32,10.694,9.392,11.528,7.647,14.292,13.355
31.884,25.719,9.02,8.746,9.728,6.368,11.432,13.334
29.985,22.901,3.819,3.919,4.433,0.965,6.768,5.624
27.672,20.929,0.076,0.353,0.64,-2.206,4.448,-0.488
28.818,21.769,0.287,1.855,0.855,0.588,4.795,2.202
31.959,24.199,2.003,5.968,2.653,5.889,5.845,9.521
34.179,26.728,4.255,8.877,4.906,8.702,9.185,14.916
34.256,28.386,5.742,9.049,6.256,7.216,12.96,15.009
30.083,25.634,0.316,4.405,0.716,0.668,6.179,5.897
21.53,16.987,-10.705,-3.616,-10.306,-8.221,-9.942,-8.968
15.336,9.78,-12.92,-5.363,-12.464,-9.955,-13.524,-13.316
15.924,10.258,-3.099,2.313,-2.712,-1.779,0.075,-2.119
