EEG 1,EEG 2,EEG 3,EEG 4,EEG 5,EEG 6,EEG 7,EEG 8
-27.252,-31.217,-12.294,-12.685,-12.316,-13.016,-4.778,-0.27
-25.333,-26.55,-13.675,-13.199,-13.466,-12.994,-6.851,-3.075
-27.623,-26.17,-20.322,-17.709,-19.385,-16.284,-17.01,-10.269
-28.873,-27.679,-27.984,-21.751,-26.623,-18.774,-28.229,-14.997
-26.113,-26.932,-26.074,-19.183,-24.869,-15.042,-25.896,-11.352
-22.148,-23.158,-13.809,-10.782,-12.787,-6.215,-9.388,-1.607
-19.72,-19.509,-3.02,-3.666,-1.946,0.623,5.206,6.959
-16.415,-15.966,-0.764,0.061,0.332,4.015,7.053,10.797
-8.737,-9.985,-0.771,4.43,0.252,8.395,1.711,11.254
-0.992,-4.886,3.229,9.151,4.263,12.523,-0.108,10.843
-1.45,-5.898,6.572,9.683,7.729,11.276,2.756,10.134
-7.92,-10.426,4.138,6.424,5.546,6.528,5.09,8.418
-12.097,-13.95,-0.575,2.999,1.191,3.144,5.585,6.429
-14.202,-17.656,-3.748,-0.31,-1.781,0.263,4.131,4.158
-17.895,-22.146,-6.492,-3.851,-4.489,-3.569,-1.015,-0.211
-20.693,-23.972,-9.337,-5.515,-7.075,-4.941,-7.389,-4.317
-19.739,-22.03,-10.804,-4.694,-8.176,-2.057,-10.259,-3.279
-17.676,-20.261,-10.791,-4.643,-8.274,0.057,-9.79,0.142
-17.47,-21.497,-9.347,-7.089,-7.312,-2.652,-7.318,-0.415
-17.149,-22.525,-6.232,-8.824,-4.411,-6.273,-2.838,-3.59
-13.778,-19.483,-4.406,-7.894,-2.51,-6.871,-1.312,-5.313
-9.304,-14.745,-6.976,-6.462,-5.097,-6.45,-7.036,-5.975
-7.035,-13.184,-10.845,-5.635,-8.994,-6.621,-12.611,-5.634
-5.317,-13.957,-9.983,-4.093,-8.064,-5.285,-8.915,-2.534
-2.376,-12.364,-5.135,-1.702,-3.351,-1.134,-1.31,1.634
-1.435,-8.762,-3.764,-1.14,-2.219,2.227,-1.342,1.73
-3.187,-6.972,-7.249,-3.621,-5.488,0.628,-6.935,-2.884
-4.841,-7.704,-9.655,-6.445,-7.353,-3.86,-8.616,-6.529
-7.854,-10.684,-10.951,-8.579,-8.376,-6.933,-8.334,-7.509
-13.144,-15.964,-14.574,-11.627,-12.001,-8.362,-11.12,-9.654
-16.098,-21.1,-16.775,-14.321,-14.232,-9.641,-11.497,-11.853
-13.523,-22.129,-13.592,-13.328,-11.031,-9.806,-5.618,-9.598
-7.298,-16.988,-9.847,-8.556,-7.012,-6.841,-1.191,-5.13
-2.093,-8.366,-11.165,-3.844,-7.831,-2.072,-4.402,-3.831
-1.425,-2.568,-14.27,-2.906,-10.686,0.085,-9.38,-5.04
-2.974,-2.309,-12.303,-5.271,-8.866,-1.843,-7.628,-5.092
-2.414,-3.344,-5.37,-6.519,-2.245,-3.465,0.173,-3.673
-1.203,-2.264,-0.743,-4.83,2.031,-1.818,5.095,-3.129
-2.482,-1.955,-3.386,-4.451,-0.82,-0.955,0.262,-5.378
-4.107,-4.275,-9.314,-7.38,-6.682,-3.367,-9.133,-9.148
-3.305,-5.052,-11.228,-8.75,-8.559,-4.499,-12.069,-10.91
-1.084,-1.284,-7.636,-5.805,-5.169,-1.713,-7.435,-9.543
2.095,3.893,-1.732,-2.199,0.603,1.278,-1.255,-6.527
6.685,5.448,3.543,-1.777,6.053,0.259,4.319,-3.857
9.115,2.096,4.949,-4.602,7.726,-4.342,6.656,-4.131
6.2,-1.786,0.377,-7.618,3.179,-7.434,0.973,-7.676
2.837,-2.13,-6.029,-8.87,-3.52,-6.891,-8.786,-10.977
4.777,-1.331,-7.618,-10.527,-5.463,-7.312,-12.838,-11.736
9.075,-1.676,-4.642,-13.438,-2.601,-9.942,-10.278,-10.857
10.717,-0.386,-3.011,-14.726,-0.793,-10.44,-8.183,-9.443
10.444,2.442,-5.396,-14.405,-2.95,-9.263,-10.558,-8.784
10.067,2.263,-9.186,-15.549,-6.776,-10.271,-15.175,-10.37
8.113,-0.849,-11.238,-17.607,-9.211,-12.202,-17.096,-12.723
4.722,-1.096,-10.575,-16.465,-8.956,-10.853,-13.903,-12.096
3.576,2.842,-9.538,-12.394,-7.88,-7.381,-10.845,-9.377
4.657,3.878,-12.7,-12.153,-10.616,-8.523,-16.507,-10.469
3.932,-1.429,-18.473,-17.161,-16.14,-14.415,-27.156,-15.446
1.666,-6.944,-19.3,-19.642,-17.047,-16.125,-29.227,-17.207
-0.318,-10.238,-17.24,-18.705,-15.132,-13.259,-24.564,-15.629
-5.906,-17.004,-22.756,-23.365,-20.763,-16.836,-28.271,-18.937
-17.433,-27.677,-35.107,-34.391,-33.126,-28.775,-40.456,-28.301
-29.276,-35.373,-44.09,-42.941,-41.833,-38.861,-48.661,-37.551
-35.48,-37.087,-46.91,-45.926,-44.189,-42.271,-50.547,-45.004
-35.088,-35.36,-46.666,-46.05,-43.76,-42.239,-51.152,-50.431
-31.106,-32.73,-43.721,-43.688,-41.194,-40.314,-49.759,-50.33
-29.502,-31.207,-40.336,-40.425,-38.41,-37.612,-46.44,-46.653
-33.826,-32.697,-41.898,-41.076,-40.228,-37.97,-47.613,-46.675
-39.901,-35.899,-47.091,-45.165,-45.324,-40.91,-53.539,-50.448
-42.584,-37.972,-51.649,-48.362,-50.033,-43.032,-58.274,-53.642
-44.393,-40.595,-58.208,-52.404,-57.154,-47.482,-62.558,-58.022
-49.123,-46.525,-67.478,-59.487,-66.601,-56.308,-68.424,-64.471
-55.52,-53.861,-74.389,-65.122,-72.926,-62.223,-72.98,-68.07
-64.635,-61.487,-80.419,-68.226,-78.436,-62.983,-77.86,-69.399
-80.521,-72.571,-92.001,-76.261,-90.186,-69.443,-88.799,-77.023
-99.696,-88.202,-108.379,-93.445,-106.965,-88.086,-105.035,-95.051
-113.767,-104.671,-123.862,-113.633,-122.582,-109.852,-121.182,-116.582
-122.078,-118.777,-136.462,-129.497,-135.267,-125.125,-135.36,-132.527
-130.699,-131.197,-148.754,-141.803,-147.81,-136.819,-149.559,-143.134
-142.426,-143.316,-162.767,-154.092,-161.926,-149.688,-164.242,-154.19
-154.471,-153.817,-174.636,-164.55,-173.63,-159.635,-174.368,-165.371
-163.001,-160.415,-179.303,-169.819,-178.191,-162.57,-176.168,-171.986
-166.874,-163.342,-179.096,-171.628,-178.129,-162.876,-174.518,-174.121
-167.283,-165.251,-178.926,-173.747,-178.353,-166.054,-174.333,-175.318
-165.128,-167.012,-179.128,-175.469,-179.069,-170.229,-174.794,-176.301
-161.446,-166.687,-179.55,-174.452,-179.834,-171.196,-176.954,-176.577
-159.189,-163.933,-181.709,-172.837,-182.009,-170.117,-181.946,-177.517
-159.616,-160.83,-185.109,-173.794,-185.157,-170.821,-185.701,-179.727
-159.399,-159.226,-188.221,-177.145,-187.843,-174.597,-186.879,-182.631
-156.082,-159.377,-189.116,-180.133,-188.385,-178.071,-187.36,-185.279
-152.998,-159.956,-185.498,-179.582,-184.86,-176.669,-185.146,-184.672
-155.586,-161.794,-180.967,-177.648,-180.933,-173.739,-181.148,-180.973
-163.901,-167.454,-183.011,-180.394,-183.615,-176.617,-182.015,-180.882
-171.443,-173.378,-189.941,-186.003,-190.694,-182.472,-187.268,-186.247
-172.833,-172.907,-192.033,-186.559,-192.633,-182.6,-188.287,-189.359
-168.107,-167.061,-186.231,-181.282,-186.901,-176.571,-182.602,-185.158
-159.858,-161.016,-178.015,-175.177,-178.907,-169.862,-175.75,-177.297
-151.327,-155.583,-171.356,-170.103,-172.254,-164.858,-170.587,-171.123
-144.973,-150.436,-166.046,-165.946,-166.862,-161.131,-165.761,-167.795
-141.78,-147.257,-162.498,-163.35,-163.436,-158.25,-161.893,-165.372
-141.359,-144.854,-161.886,-160.97,-162.975,-155.14,-160.806,-161.692
-139.936,-139.896,-161.804,-156.487,-162.803,-150.652,-160.719,-156.537
-133.265,-133.417,-157.851,-150.753,-158.634,-145.554,-157.639,-151.974
-124.24,-129.165,-150.231,-145.716,-150.915,-141.196,-150.841,-148.236
-119.617,-127.051,-143.128,-140.6,-143.836,-136.727,-143.444,-142.371
-118.486,-123.712,-137.971,-134.017,-138.667,-130.37,-137.992,-134.352
-115.226,-118.912,-133.413,-127.572,-133.975,-123.785,-134.533,-128.413
-110.67,-115.207,-128.888,-123.278,-129.357,-120.38,-131.053,-125.43
-107.465,-111.31,-123.982,-119.488,-124.599,-118.487,-125.818,-121.743
-102.414,-104.511,-118.401,-114.86,-119.261,-114.324,-120.661,-116.844
-92.973,-96.319,-111.455,-110.858,-112.306,-108.688,-115.682,-112.878
-82.014,-87.805,-101.694,-106.045,-102.253,-102.549,-106.784,-108.264
-74.423,-78.044,-92.578,-98.254,-92.911,-94.969,-97.382,-101.755
-74.165,-70.446,-90.627,-91.489,-91.036,-88.478,-96.111,-96.659
-79.481,-68.604,-93.57,-89.456,-94.098,-85.977,-99.498,-94.251
-81.919,-67.525,-91.773,-87.738,-92.155,-84.258,-96.45,-90.814
-75.509,-60.759,-81.397,-80.543,-81.599,-77.624,-85.443,-83.142
-63.291,-51.484,-68.355,-70.383,-68.677,-66.902,-74.223,-73.166
-52.561,-46.241,-60.052,-64.217,-60.553,-59.313,-68.083,-66.029
-45.925,-43.307,-55.8,-61.743,-56.217,-56.9,-64.003,-62.409
-40.203,-37.38,-49.843,-56.898,-50.153,-54.144,-56.747,-57.701
-34.182,-30.288,-42.726,-49.803,-43.207,-49.493,-48.18,-50.933
-30.662,-26.253,-39.344,-45.127,-40.014,-46.331,-43.943,-45.948
-28.726,-22.163,-37.807,-41.133,-38.214,-42.913,-42.672,-42.772
-22.587,-13.279,-31.816,-32.508,-31.596,-34.182,-37.535,-36.63
-12.113,-3.566,-22.287,-21.621,-21.68,-22.494,-28.109,-27.481
-4.605,-0.549,-16.32,-16.434,-15.872,-16.167,-21.212,-21.97
-2.756,-3.39,-15.604,-17.942,-15.651,-16.957,-19.852,-22.189
-2.966,-5.751,-16.595,-20.002,-17.141,-19.061,-21.849,-22.995
-3.986,-5.874,-17.995,-20.266,-18.73,-20.024,-25.193,-22.125
-4.895,-4.457,-17.812,-19.615,-18.228,-20.511,-25.544,-20.921
-2.409,-0.557,-12.355,-15.476,-12.26,-17.42,-18.518,-17.471
2.69,5.015,-3.103,-6.321,-2.763,-8.778,-7.412,-9.382
7.222,10.536,4.636,3.24,5.053,0.289,0.363,-0.331
13.245,17.038,9.185,8.89,9.692,4.644,2.557,4.399
22.667,24.912,12.785,12.623,13.11,6.798,3.567,6.567
29.538,30.508,16.415,17.469,16.228,11.154,7.367,10.909
30.712,32.641,21.292,23.304,20.787,17.724,15.024,17.853
33.611,36.106,30.154,30.293,29.8,25.598,26.43,25.892
40.017,41.283,38.472,37.071,38.327,32.846,34.713,32.235
40.77,42.448,38.638,39.642,38.405,35.698,32.599,33.876
35.426,41.034,35.758,39.623,35.281,35.87,28.143,34.426
34.534,43.917,39.85,42.664,39.274,38.791,33.222,39.072
40.022,48.911,48.503,47.004,48.025,42.905,44.167,44.367
43.613,49.402,53.498,47.651,53.079,43.936,51.025,45.766
43.313,48.173,54.088,47.49,53.692,44.872,52.418,46.424
45.254,50.961,53.518,51.17,53.326,49.21,51.248,49.026
51.684,55.946,53.419,56.706,53.399,53.644,49.34,51.05
57.824,59.619,54.957,60.581,54.773,54.95,49.216,51.323
59.261,61.809,56.827,61.987,56.36,54.239,50.309,50.808
58.49,63.536,57.161,62.432,56.644,54.636,49.827,50.691
60.93,66.791,59.044,65.217,58.761,59.41,51.02,53.709
65.264,71.569,63.636,69.759,63.636,66.636,56.228,59.555
66.522,74.676,65.596,71.14,65.656,69.912,58.98,63.021
66.58,76.291,64.854,70.078,64.834,69.182,57.702,62.854
70.611,79.726,68.414,72.022,68.492,70.014,60.284,63.188
77.69,84.493,76.469,76.699,76.745,73.051,67.409,65.118
82.915,87.071,81.736,79.477,81.955,74.784,71.283,66.131
83.895,85.966,81.544,79.383,81.47,74.474,70.738,65.793
82.355,83.514,79.885,79.44,79.529,74.331,71.282,66.056
82.145,82.717,79.674,80.923,79.032,75.137,74.015,67.81
84.862,82.752,79.357,81.162,78.254,74.935,74.766,69.6
87.768,81.581,77.101,78.475,75.329,72.933,71.348,69.355
89.061,80.739,75.492,75.768,73.061,71.835,67.777,67.711
90.717,82.477,78.684,76.391,75.866,74.019,69.557,68.113
92.018,85.064,84.506,78.54,81.573,77,74.309,70.889
89.645,85.428,86.245,77.606,83.334,76.049,74.978,71.311
86.285,84.431,83.632,73.997,80.789,71.691,72.624,67.914
87.127,84.844,83.524,73.16,80.677,69.732,74.879,66.363
89.731,86.226,88.499,77.387,85.586,73.292,82.759,70.701
88.345,85.972,92.479,82.74,89.652,79.089,88.077,76.655
84.827,84.52,91.576,85.596,89.047,82.908,86.312,78.992
86.281,86.537,92.493,88.94,90.219,86.302,85.914,81.399
93.523,93.502,100.262,96.125,97.973,92.293,93.649,88.949
101.047,99.442,106.992,102.41,104.582,97.482,100.179,96.36
105.577,99.619,105.048,102.212,102.812,97.135,96.737,96.422
105.992,96.608,99.147,98.356,97.549,93.342,90.677,91.724
102.41,94.819,97.56,96.956,96.675,91.813,91.727,89.419
100.485,96.269,101.96,99.801,101.245,94.73,98.413,92.06
105.821,100.274,108.62,104.032,107.469,99.057,104.407,96.758
113.51,102.618,112.678,105.316,111.031,100.232,106.569,99.268
115.856,101.165,112.254,103.467,110.592,98.286,105.407,98.608
114.721,99.98,110.59,102.865,109.552,97.547,104.417,97.443
113.85,100.723,110.104,104.23,109.88,99.048,105.59,97.475
112.526,100.766,109.54,105.096,109.609,100.957,106.807,98.632
112.528,101.359,109.979,106.809,109.658,103.804,107.813,101.446
115.041,104.141,112.204,109.565,111.213,106.425,109.244,104.383
115.427,105.919,111.754,108.903,110.288,105.083,107.693,103.549
113.368,106.923,108.028,105.381,106.506,102.017,103.067,100.031
115.385,112.426,107.501,105.376,106.167,103.306,102.008,99.74
122.63,122.602,112.654,110.168,111.485,108.989,108.223,104.539
130.394,133.139,119.526,116.085,118.454,115.622,117.483,111.424
135.894,141.475,124.148,121.123,123.191,121.578,121.956,116.993
138.301,145.087,125.076,124.003,124.194,124.572,118.77,118.854
138.797,143.674,124.214,123.835,123.233,123.369,114.412,117.696
141.33,143.727,126.407,123.515,125.302,122.253,116.905,117.813
148.029,150.722,134.318,126.989,133.261,125.76,126.423,122.519
155.997,160.726,143.182,133.173,142.18,131.793,135.794,129.695
160.6,166.873,145.157,137.734,144.148,135.788,137.888,133.91
160.853,168.017,140.001,139.084,139.234,136.784,133.308,132.966
160.687,166.953,134.701,138.503,134.367,135.774,129.108,129.182
162.785,164.688,132.168,136.188,131.761,132.503,128.083,124.653
164.404,160.706,130.255,131.706,129.095,127.16,127.313,120.205
163.295,156.943,128.9,127.388,127.147,122.839,126.048,117.258
160.806,154.796,128.533,125.556,126.88,121.67,125.152,116.261
158.054,151.513,128.89,125.144,127.592,121.509,125.599,116.421
154.611,144.888,129.695,124.057,128.527,119.497,127.651,116.721
149.324,136.219,126.147,120.424,124.859,114.859,125.023,114.663
143.294,128.797,115.987,114.375,114.52,109.286,114.435,109.57
139.909,125.367,108.073,109.546,106.542,105.669,107.014,105.698
138.1,124.182,108.166,107.456,106.676,103.906,109.683,105.351
134.122,121.069,109.648,105.527,108.2,101.556,112.275,105.553
130.86,116.777,108.458,103.912,106.994,99.572,108.839,105.415
133.469,115.369,109.609,105.341,108.098,100.489,107.803,106.88
137.464,115.113,113.423,107.047,111.929,101.49,112.129,107.766
134.229,110.609,112.112,103.741,110.644,98.326,112.967,104.701
125.035,102.659,104.254,97.538,102.747,93.558,107.721,100.624
116.458,95.314,97.567,93.847,96.153,91.226,103.841,99.703
109.344,88.699,96.18,92.721,95.022,89.63,104.128,100.109
102.694,82.699,96.955,92.274,95.809,86.94,103.947,99.17
98.877,79.579,95.611,92.017,94.08,84.896,99.687,97.476
98.739,78.652,91.094,89.792,89.166,82.991,92.969,94.72
98.508,75.927,86.974,84.628,85.014,79.107,90.069,91.142
94.928,70.565,86.88,80.742,85.271,75.814,94.355,90.544
88.623,64.646,88.108,80.645,86.863,75.96,99.323,93.013
81.614,58.369,86.085,80.73,84.782,76.284,97.574,92.625
75.427,51.581,82.496,78.573,80.767,73.329,91.947,87.831
70.333,45.677,80.773,75.734,78.711,69.301,88.434,83.719
66.231,41.769,79.533,72.981,77.571,67.604,86.899,83.181
64.54,40.831,77.775,70.758,76.238,68.523,86.02,84.865
65.46,43.484,77.867,71.066,76.573,70.821,86.455,87.275
67.065,48.072,79.693,73.964,78.168,73.466,86.764,88.919
69.53,52.176,80.668,76.722,78.753,75.622,85.369,88.041
72.914,54.615,80.91,78.042,78.762,76.536,84.185,85.511
72.882,53.917,81.276,78.863,79.023,75.726,84.174,84.282
67,49.355,80.206,79.312,77.952,73.843,82.511,84.823
61.35,45.234,78.829,79.632,76.737,73.191,80.375,85.791
63.14,47.504,82.388,82.451,80.62,76.082,84.571,88.398
69.164,53.884,89.715,87.795,88.249,81.154,93.537,93.17
69.061,54.912,90.997,89.222,89.569,82.291,95.467,94.597
60.388,47.85,83.346,82.93,81.766,76.058,87.607,88.452
52.456,41.519,77.136,76.051,75.366,69.057,81.919,81.206
51.869,42.759,79.89,76.496,77.819,69.158,86.518,81.607
54.609,47.329,85.55,80.562,83.175,72.791,94.586,87.143
56.062,49.37,85.263,80.142,82.802,71.771,94.869,88.325
56.207,48.967,79.171,75.418,76.771,66.968,86.069,83.063
54.553,47.078,73.37,71.851,71.151,64.464,77.019,78.188
50.568,43.312,70.544,70.089,68.694,64.051,72.982,76.627
47.009,39.99,68.717,67.541,67.066,62.463,70.416,73.89
46.828,41.099,67.545,65.654,65.705,61.574,68.248,69.502
48.427,45.732,68.316,66.181,66.526,62.687,70.084,68.199
48.378,48.309,69.581,66.119,68.332,62.13,74.179,69.869
47.117,47.506,70.11,64.296,69.074,59.898,75.921,71.27
46.374,47.368,71.217,64.026,69.812,60.508,76.014,72.898
45.204,48.613,72.962,65.848,71.296,63.932,77.002,75.871
44.268,48.759,75.019,67.674,73.266,67.141,79.556,79.212
46.868,49.205,78.381,70.26,76.306,70.377,83.344,82.548
51.742,51.96,80.894,73.43,78.657,72.814,85.275,84.777
53.657,54.085,79.955,73.306,78.175,70.61,83.327,83.352
52.928,54.43,80.038,71.184,78.782,66.571,82.911,80.896
54.688,57.074,85.282,73.711,84.045,68.516,88.166,83.132
58.522,61.71,89.903,79.338,88.426,74.312,92.447,86.947
58.096,61.759,86.713,79.021,85.004,74.296,87.891,84.29
51.948,55.368,77.997,71.12,76.015,66.907,77.097,75.994
46.788,49.002,71.96,64.076,69.881,60.17,69.87,70.083
46.563,47.938,71.692,64.119,69.902,60.267,70.248,70.238
46.345,49.73,72.133,67.733,70.737,64.39,71.623,72.726
42.136,49.595,69.494,69.22,68.33,66.59,69.447,73.929
37.325,46.828,66.058,68.313,65.009,65.837,67.161,74.139
35.752,43.61,64.2,66.614,63.013,64.058,66.273,73.486
37.237,41.911,64.658,64.951,63.064,62.512,66.175,72.238
40.054,42.781,67.236,64.788,65.547,62.047,67.793,71.759
41.434,45.572,68.219,66.013,66.954,62.441,68.033,71.013
39.26,48.085,64.597,66.245,63.679,62.607,63.647,68.486
35.364,49.366,60.015,64.601,59.068,62.111,59.125,65.638
32.458,50.243,59.172,62.401,58.043,60.89,58.91,63.69
29.94,50.295,59.991,60.129,58.626,58.654,59.334,61.094
26.535,48.42,57.587,57.093,55.957,55.651,55.951,56.668
23.864,46.055,52.51,54.051,50.715,53.291,51.125,52.501
23.342,44.644,47.913,52.052,46.073,51.827,48.245,50.848
22.202,42.509,42.784,49.557,41.055,49.03,45.426,50.003
18.21,39.289,36.873,45.917,35.484,44.884,41.632,47.667
14.256,37.286,34.848,43.728,33.745,43.039,41.116,45.382
13.643,36.496,37.973,44.029,36.716,44.569,45.526,45.235
16.296,35.969,40.781,44.764,39.183,46.29,49.387,46.191
19.444,36.426,39.158,43.949,37.622,45.768,47.351,46.036
19.81,37.075,35.606,41.748,34.413,44.145,41.813,44.484
18.464,36.079,35.022,40.481,33.692,43.844,39.464,43.268
18.175,33.344,36.652,40.573,34.581,43.994,40.679,42.504
15.561,29.202,34.032,38.334,31.464,41,38.29,38.987
7.883,24.759,25.572,32.691,23.227,35.315,29.321,32.038
2.182,23.482,19.76,29.5,17.777,32.909,22.301,28.024
4.939,26.863,22.907,32.768,20.883,36.605,25.139,31.867
11.982,31.29,29.103,38.02,26.93,41.731,32.313,38.993
16.513,33.383,31.022,40.12,29.016,43.834,35.521,42.719
17.224,33.712,29.235,39.392,27.549,43.164,34.938,41.646
15.596,33.383,25.214,37.093,23.661,40.422,31.848,37.002
12.481,31.457,18.149,33.029,16.726,35.863,24.888,30.696
8.29,27.071,10.931,28.5,9.953,31.643,17.022,25.686
3.732,21.436,8.605,25.51,8.108,29.508,14.577,23.986
0.099,16.44,10.579,23.408,10.096,27.927,17.481,24.018
-1.33,13.455,11.964,20.739,11.11,24.781,19.157,21.772
-0.732,13.585,10.781,18.593,9.779,21.035,16.905,16.866
0.549,16.919,9.279,18.911,8.552,19.554,14.826,14.248
2.323,22.145,10.741,21.966,10.265,21.781,16.872,16.371
4.492,25.899,15.26,25.873,14.76,25.991,22.124,19.721
4.378,23.516,17.778,26.548,17.119,27.421,25.686,20.558
0.118,15.898,13.298,21.762,12.355,23.03,22.057,17.214
-5.221,11.01,3.919,15.619,2.569,16.48,11.037,9.935
-6.673,13.403,-1.462,14.135,-3.147,14.107,2.1,4.27
-3.895,18.873,1.817,16.863,-0.025,16.209,3.591,6.014
-1.884,21.175,6.008,17.306,4.079,16.58,8.832,10.57
-2.952,19.581,3.999,13.597,1.885,13.183,8.209,10.019
-3.557,18.192,0.9,11.904,-1.533,11.946,4.801,6.303
-1.335,19.3,1.379,15.405,-1.303,15.575,4.011,5.627
2.133,21.792,1.478,19.513,-1.23,19.285,3.081,7.919
4.104,24.395,-0.835,20.177,-3.468,19.511,-0.401,9.41
1.645,25.921,-1.116,18.694,-3.677,18.112,-1.364,10.182
-4.894,25.531,3.698,18.029,1.202,18.335,4.689,13.102
-9.623,24.627,11.158,19.202,8.651,20.759,13.944,17.54
-8.743,24.991,17.425,21.648,14.978,23.489,20.59,20.848
-5.661,25.917,20.177,24.011,18.184,24.699,22.743,22.711
-4.264,25.767,18.572,24.501,17.26,24.223,20.351,23.256
-4.277,24.392,15.413,23.35,14.47,23.507,17.381,23.16
-5.172,22.108,14.132,22.497,13.179,23.104,18.431,23.445
-8.387,17.91,11.682,20.829,10.602,20.693,17.44,20.367
-13.564,11.652,5.347,15.998,4.044,15.195,8.472,11.388
-16.596,6.609,1.219,10.419,-0.244,10.054,0.856,3.773
-14.563,5.568,3.652,7.83,2.364,8.237,2.662,3.943
-10.319,6.844,6.744,7.359,5.749,8.559,6.44,7.542
-8.575,7.663,4.328,6.522,3.417,9.155,4.524,8.414
-9.285,7.663,-1.287,5.375,-2.279,9.711,0.5,6.582
-10.449,6.929,-5.45,4.045,-6.445,8.964,-0.882,4.115
-12.704,5.408,-7.843,1.485,-8.638,5.268,-1.645,1.392
-14.775,4.838,-8.727,-1.013,-9.233,0.831,-3.292,-0.956
-13.666,5.893,-6.879,-0.944,-7.209,-0.25,-2.329,-1.051
-11.422,6.399,-4.832,0.575,-5.193,1.664,-0.529,0.055
-11.344,6.091,-6.482,0.342,-6.987,2.155,-5.687,-2.69
-11.504,6.5,-9.009,-1.76,-9.52,-0.402,-15.004,-9.398
-9.401,6.218,-8.127,-3.596,-8.398,-3.031,-17.856,-13.324
-6.684,3.976,-6.292,-4.764,-6.162,-3.992,-14.216,-12.457
-5.724,2.587,-6.784,-5.442,-6.14,-4.28,-11.134,-11.253
-6.553,3.455,-8.495,-4.812,-7.341,-3.971,-10.54,-11.556
-8.053,3.199,-10.462,-4.037,-9.052,-3.541,-12.138,-12.092
-10.153,-0.646,-13.734,-6.224,-12.422,-5.717,-17.283,-13.498
-14.274,-6.468,-17.413,-11.444,-16.486,-11.337,-23.592,-16.849
-19.579,-10.881,-17.854,-15.255,-17.488,-16.172,-24.645,-18.81
-20.852,-10.662,-13.939,-13.723,-14.035,-15.126,-19.674,-15.428
-15.925,-5.648,-9.852,-8.802,-9.995,-9.558,-15.611,-10.355
-11.194,-0.411,-9.797,-6.154,-9.608,-6.115,-16.589,-9.997
-12.587,0.265,-12.769,-8.111,-12.201,-7.602,-19.315,-13.168
-17.051,-3.549,-14.518,-12.413,-13.762,-11.18,-19.449,-14.582
-19.89,-8.733,-13.598,-16.847,-12.871,-14.805,-17.049,-14.421
-22.456,-13.499,-13.699,-21.199,-13.092,-18.838,-16.461,-17.158
-26.081,-16.723,-17.175,-24.309,-16.649,-21.961,-20.43,-22.622
-27.596,-16.833,-19.67,-23.515,-19.158,-21.248,-24.193,-24.895
-25.675,-14.962,-16.951,-19.352,-16.341,-17.239,-21.225,-21.338
-23.669,-14.735,-12.873,-16.657,-12.013,-14.554,-14.309,-17.166
-24.037,-17.098,-14.607,-18.8,-13.564,-16.124,-13.254,-18.229
-25.073,-18.456,-22.699,-23.477,-21.811,-19.547,-21.979,-23.478
-24.274,-15.243,-30.151,-25.571,-29.431,-20.192,-33.163,-27.541
-22.837,-10.396,-31.139,-23.92,-30.127,-17.41,-36.839,-27.417
-24.742,-11.052,-28.323,-22.99,-26.935,-16.058,-32.9,-25.802
-29.573,-17.063,-27.569,-25.295,-26.323,-19.293,-29.332,-27.31
-30.61,-19.793,-28.05,-26.948,-27.27,-23.292,-28.716,-30.226
-24.552,-14.951,-25.646,-24.823,-25.183,-23.723,-27.113,-29.43
-16.598,-7.913,-21.844,-21.645,-21.567,-22.183,-24.179,-26.355
-12.386,-5.006,-20.674,-20.459,-20.576,-21.582,-23.277,-24.932
-11.378,-5.856,-21.366,-20.28,-21.302,-20.902,-24.007,-23.611
-10.281,-7.03,-20.927,-20.245,-20.778,-19.164,-23.456,-20.838
-8.572,-8.407,-19.768,-21.875,-19.708,-18.832,-22.009,-19.436
-8.16,-9.95,-19.211,-23.639,-19.432,-20.212,-21.262,-19.812
-10.186,-9.008,-18.767,-21.776,-19.163,-19.854,-21.192,-19.015
-14.125,-6.835,-19.257,-18.775,-19.608,-18.372,-22.447,-18.026
-17.443,-7.432,-21.049,-19.353,-21.317,-19.281,-24.372,-19.36
-17.158,-9.147,-21.245,-21.029,-21.562,-20.887,-24.151,-21.463
-13.624,-7.826,-19.201,-19.694,-19.747,-19.697,-22.414,-22.441
-9.402,-4.425,-17.385,-16.687,-18.232,-16.513,-21.442,-21.929
-7.582,-4.378,-16.785,-15.618,-17.91,-14.876,-21.078,-20.748
-12.96,-11.686,-19.404,-19.15,-20.846,-18.182,-23.357,-23.239
-25.1,-23.228,-26.839,-27.124,-28.487,-26.214,-30.579,-31.488
-33.457,-30.451,-33.142,-34.372,-34.638,-32.875,-37.224,-38.54
-30.143,-28.158,-31.738,-34.929,-33.067,-32.133,-36.443,-37.552
-21.187,-19.976,-27.3,-30.624,-28.922,-27.375,-32.359,-33.326
-19.213,-14.847,-29.054,-29.822,-31.071,-28.227,-34.669,-35.029
-26.909,-15.956,-35.725,-34.235,-37.66,-35.159,-42.352,-41.336
-32.103,-15.878,-37.421,-35.227,-38.932,-37.456,-44.387,-42.721
-25.875,-9.452,-31.044,-28.467,-32.166,-30.685,-37.285,-36.279
-15.99,-2.264,-22.611,-20.236,-23.381,-22.094,-27.584,-27.333
-12.641,0.407,-16.297,-15.167,-16.691,-16.605,-19.34,-19.609
-15.144,-1.029,-13.202,-12.665,-13.484,-13.742,-14.378,-15.359
-17.798,-5.566,-14.888,-13.913,-15.48,-14.997,-16.101,-17.739
-16.67,-9.183,-19,-18.292,-19.846,-19.829,-21.659,-23.808
-11.163,-6.117,-20.151,-20.265,-20.829,-22.575,-23.024,-25.849
-4.444,1.508,-18.78,-18.621,-19.243,-21.677,-20.792,-23.804
-0.683,5.928,-20.07,-19.118,-20.587,-22.371,-22.652,-24.999
-1.792,4.353,-24.078,-24.29,-24.641,-27.018,-27.466,-30.077
-6.07,0.895,-26.472,-29.359,-26.783,-31.276,-27.849,-31.646
-8.084,0.761,-26.8,-30.293,-26.695,-31.859,-25.386,-28.431
-3.826,4.72,-26.668,-28.91,-26.322,-30.965,-25.634,-26.724
3.316,9.465,-25.448,-28.061,-25.082,-30.785,-27.441,-28.472
7.682,12.327,-24.026,-27.841,-23.479,-30.46,-29.276,-31.056
8.712,13.114,-25.077,-28.069,-24.052,-30.038,-33.038,-34.477
8.064,12.626,-29.017,-29.79,-27.657,-31.31,-39.115,-40.116
7.509,12.568,-34.286,-32.6,-33.079,-33.862,-45.798,-46.605
10.877,15.712,-37.428,-33.131,-36.669,-34.206,-48.836,-49.299
19.338,22.941,-34.161,-28.847,-33.843,-29.888,-43.692,-44.413
28.068,31.181,-25.347,-21.779,-25.283,-22.655,-33.877,-35.774
32.217,35.708,-17.004,-16.147,-16.803,-16.436,-27.245,-30.587
31.269,34.137,-12.786,-13.817,-12.006,-13.37,-23.38,-28.12
27.035,28.613,-12.567,-13.899,-11.089,-13.127,-17.977,-23.995
21.552,23.424,-15.84,-15.063,-13.988,-14.366,-13.657,-19.254
17.634,20.92,-20.354,-16.189,-18.51,-15.802,-13.923,-15.865
17.174,20.115,-22.793,-17.297,-20.999,-18.186,-17.306,-15.259
18.092,18.787,-22.582,-19.308,-20.686,-22.249,-21.667,-19.773
17.6,17.197,-21.24,-21.013,-19.209,-24.605,-25.393,-26.092
15.464,16.6,-22.525,-22.268,-20.422,-24.644,-29.806,-30.776
10.925,15.538,-30.06,-26.826,-27.952,-28.541,-38.477,-38.768
2.971,12.8,-39.82,-34.414,-37.81,-36.671,-48.172,-50.033
-5.288,9.487,-43.747,-39.271,-41.847,-41.178,-51.071,-54.589
-9.027,5.738,-41.563,-40.202,-39.565,-40.596,-47.295,-50.905
-8.368,0.875,-40.133,-41.281,-37.921,-40.849,-44.942,-49.167
-8.178,-4.638,-42.212,-43.113,-40.01,-42.503,-46.738,-51.882
-11.385,-10.134,-43.064,-42.685,-41.21,-41.147,-46.398,-50.577
-15.152,-14.226,-39.43,-39.976,-38.035,-37.772,-41.692,-44.938
-16.263,-15.182,-35.331,-37.594,-34.157,-36.845,-38.823,-43.606
-17.695,-15.168,-35.653,-37.182,-34.366,-38.451,-40.971,-47.006
-23.324,-18.769,-39.91,-40.058,-38.44,-41.116,-44.898,-50.049
-30.299,-25.914,-44.996,-46.059,-43.487,-45.163,-47.921,-52.194
-33.29,-31.689,-48.649,-51.222,-47.226,-49.105,-49.496,-53.339
-31.738,-33.207,-50.017,-52.076,-48.729,-50.337,-50.103,-52.9
-31.731,-35.616,-52.147,-52.282,-50.92,-51.102,-53.381,-54.082
-39.173,-45.451,-57.792,-56.886,-56.447,-55.02,-60.158,-57.287
-48.454,-56.575,-60.466,-60.617,-59.005,-57.472,-60.718,-54.701
-51.169,-59.38,-55.664,-57.296,-54.319,-53.422,-51.08,-45.008
-51.124,-58.316,-52.512,-53.209,-51.334,-48.62,-45.302,-40.205
-52.351,-60.554,-56.125,-54.387,-54.928,-48.592,-51.126,-44.826
-50.675,-63.064,-58.746,-56.776,-57.51,-50.264,-58.157,-50.533
-48.4,-63.421,-57.436,-57.544,-56.272,-51.267,-60.547,-54.759
-53.015,-65.843,-57.705,-59.49,-56.586,-53.495,-62.889,-61.345
-61.991,-72.483,-60.251,-63.573,-59.352,-57.496,-65.584,-68.852
-68.572,-80.377,-60.802,-66.933,-60.786,-61.219,-65.112,-72.781
-73.05,-86.586,-58.85,-67.118,-60.394,-62.859,-62.339,-72.358
-76.628,-90.65,-56.737,-64.492,-60.152,-61.754,-59.87,-69.555
-76.46,-93.542,-54.696,-61.446,-60.154,-58.47,-57.222,-65.762
-73.35,-96.067,-52.506,-60.601,-60.052,-55.893,-54.422,-63.062
-72.865,-97.1,-50.461,-61.682,-59.788,-55.805,-53.603,-63.441
-76.875,-96.515,-48.33,-62.477,-59.21,-56.704,-55.005,-65.619
-82.617,-98.599,-47.405,-64.124,-60.143,-58.796,-57.175,-67.711
-86.887,-104.566,-47.944,-67.163,-62.676,-61.768,-57.811,-67.289
-89.106,-108.506,-47.796,-67.445,-63.932,-61.342,-55.453,-61.17
-93.592,-110.114,-49.668,-66.775,-66.617,-59.9,-55.297,-54.355
-103.074,-117.221,-58.126,-73.65,-75.579,-66.461,-63.263,-56.83
-112.059,-129.221,-68.853,-86.378,-86.064,-79.043,-74.025,-66.501
-116.097,-137.082,-74.969,-94.759,-90.898,-87.086,-79.043,-72.502
-119.176,-139.719,-77.52,-97.156,-91.858,-89.164,-79.141,-72.451
-123.991,-142.335,-80.042,-98.662,-93.176,-90.875,-79.075,-71.808
-126.893,-144.945,-82.936,-100.481,-94.92,-93.962,-80.902,-74.2
-126.219,-144.541,-85.913,-100.736,-96.211,-96.146,-84.545,-79.112
-124.567,-141.011,-87.148,-97.978,-95.416,-94.475,-86.198,-82.048
-123.308,-136.721,-83.645,-92.894,-90.292,-89.11,-81.483,-79.021
-121.058,-133.725,-76.891,-88.882,-82.66,-84.73,-73.056,-73.765
-116.531,-131.208,-72.011,-87.815,-77.286,-84.254,-67.816,-73.848
-112.049,-127.866,-71.888,-88.382,-76.631,-85.544,-68.431,-79.967
-111.107,-125.269,-74.93,-89.43,-78.971,-86.379,-71.009,-84.772
-112.075,-124.508,-77.396,-90.534,-80.596,-87.277,-71.241,-83.638
-111.206,-123.987,-79.108,-91.802,-81.464,-89.173,-72.154,-81.886
-108.528,-122.058,-81.974,-93.059,-83.608,-90.207,-76.5,-83.761
-105.326,-117.944,-83.502,-92.224,-84.463,-87.414,-77.815,-83.928
-101.663,-111.899,-81.163,-88.747,-81.296,-82.516,-73.033,-79.768
-98.411,-106.651,-78.146,-85.916,-77.256,-80.246,-69.242,-76.605
-97.468,-105.733,-78.132,-86.387,-76.253,-81.225,-70.002,-76.76
-98.302,-108.751,-80.255,-89.126,-77.644,-82.472,-71.224,-77.404
-98.069,-112.185,-82.614,-92.199,-79.536,-83.247,-71.767,-76.987
-98.06,-115.658,-87.116,-96.424,-83.734,-86.14,-76.558,-77.727
-103.708,-121.698,-96.465,-103.339,-92.639,-92.272,-87.713,-82.909
-114.378,-128.69,-105.971,-109.282,-101.279,-97.304,-96.884,-88.996
-122.301,-131.543,-107.263,-108.865,-101.673,-96.75,-94.197,-87.499
-124.53,-130.542,-102.904,-105.429,-96.945,-94.528,-85.624,-81.276
-125.004,-130.384,-102.547,-106.079,-96.566,-96.783,-85.17,-81.946
-124.799,-130.665,-105.367,-108.225,-99.262,-100.047,-91.038,-88.183
-121.334,-127.486,-103.693,-105.037,-97.141,-97.416,-90.744,-88.452
-115.13,-121.821,-97.606,-98.196,-90.185,-90.714,-83.293,-81.658
-109.477,-117.977,-92.249,-93.973,-83.807,-86.793,-76.977,-76.335
-105.735,-116.757,-88.584,-93.345,-79.5,-86.93,-73.739,-75.992
-102.167,-114.839,-85.197,-92.745,-75.908,-86.495,-71.134,-77.781
-96.539,-110.011,-83.441,-90.734,-73.958,-83.515,-71.371,-79.681
-90.269,-104.098,-84.662,-88.904,-74.764,-80.642,-75.158,-80.057
-87.819,-100.103,-87.443,-88.481,-76.975,-79.485,-78.765,-77.995
-90.565,-99.464,-90.839,-89.924,-79.723,-80.14,-82.826,-77.504
-94.717,-101.337,-93.136,-91.996,-81.568,-82.012,-86.822,-79.429
-96.501,-102.81,-91.402,-91.601,-79.927,-82.525,-84.683,-77.602
-96.719,-102.481,-88.522,-88.957,-77.489,-80.995,-79.1,-72.43
-97.94,-102.714,-90.557,-88.272,-79.822,-80.687,-79.449,-71.126
-99.751,-105.792,-96.386,-91.121,-85.711,-83.42,-84.409,-73.424
-99.522,-109.197,-99.01,-93.54,-88.39,-85.869,-84.981,-72.778
-96.393,-108.037,-94.808,-91.11,-84.221,-83.558,-78.403,-67.885
-94.429,-103.609,-88.018,-85.919,-77.131,-78.273,-69.97,-63.958
-99.372,-103.665,-86.165,-84.96,-74.725,-77.581,-66.473,-65.904
-109.693,-110.95,-91.474,-90.388,-79.801,-84.178,-70.972,-73.864
-116.685,-118.872,-98.659,-96.342,-87.234,-91.135,-79.934,-82.833
-115.554,-121.377,-100.878,-97.051,-89.714,-91.749,-84.488,-86.074
-110.153,-119.586,-96.983,-93.566,-85.852,-88.01,-80.166,-82.288
-105.925,-116.309,-91.862,-90.23,-80.764,-84.808,-73.342,-77.444
-104.511,-112.306,-90.682,-89.074,-79.623,-83.296,-72.538,-76.248
-105.01,-109.063,-93.706,-89.191,-82.525,-82.426,-76.622,-76.05
-105.125,-107.538,-95.474,-88.012,-84.234,-80.558,-76.798,-72.427
-102.435,-105.587,-92.036,-84.374,-80.991,-77.233,-71.071,-67.222
-95.843,-100.609,-85.797,-79.497,-74.967,-73.309,-66.196,-64.916
-86.61,-92.853,-79.496,-74.243,-68.692,-68.215,-63.009,-63.697
-79.287,-85.051,-73.903,-70.221,-63.066,-63.216,-57.447,-60.36
-77.059,-79.657,-71.376,-70.154,-60.715,-62.891,-53.521,-58.494
-76.973,-77.034,-73.224,-72.859,-62.899,-67.086,-56.949,-60.85
-74.102,-74.793,-75.177,-72.767,-64.982,-68.598,-61.793,-61.892
-67.717,-70.235,-71.877,-66.995,-61.583,-63.191,-57.92,-56.36
-61.18,-65.01,-65.109,-59.765,-54.832,-56.164,-47.632,-48.352
-57.092,-62.659,-61.145,-56.759,-51.174,-54.174,-42.285,-45.39
-55.569,-62.768,-61.703,-57.682,-52.198,-55.666,-44.771,-47.396
-56.352,-62.854,-64.03,-58.263,-54.89,-55.379,-48.13,-48.16
-58.687,-62.722,-66.27,-57.342,-57.246,-53.469,-48.437,-46.766
-60.98,-63.212,-67.276,-57.119,-58.27,-53.492,-47.394,-48.058
-62.353,-63.112,-65.913,-57.384,-57.017,-54.641,-46.708,-50.936
-62.626,-60.461,-63.594,-55.632,-54.742,-53.529,-47.397,-49.878
-59.846,-55.301,-61.53,-51.462,-52.546,-50.081,-48.632,-45.35
-51.77,-48.85,-57.651,-46.152,-48.748,-45.762,-46.893,-40.303
-41.968,-42.143,-51.998,-40.854,-43.601,-41.168,-42.452,-35.501
-38.288,-38.164,-49.791,-37.97,-41.935,-38.546,-42.02,-33.987
-43.286,-41.384,-55.504,-41.168,-47.953,-41.609,-50.392,-39.727
-50.324,-49.62,-65.281,-49.221,-57.912,-48.801,-62.055,-49.236
-51.556,-53.242,-68.903,-53.612,-61.559,-51.933,-65.81,-52.406
-48.102,-49.103,-63.915,-50.329,-56.263,-48.034,-59.988,-46.696
-46.592,-44.977,-59.361,-46.723,-51.343,-44.432,-54.559,-41.508
-47.739,-45.282,-59.68,-47.887,-51.818,-45.073,-54.673,-42.036
-46.727,-45.098,-59.316,-48.375,-52.098,-44.256,-55.359,-42.487
-42.663,-42.031,-56.453,-45.328,-49.731,-40.184,-54.295,-39.815
-39.844,-40.392,-55.218,-44.075,-48.603,-39.032,-54.211,-38.18
-39.914,-40.921,-54.513,-44.907,-47.95,-40.904,-52.943,-37.712
-39.731,-39.807,-50.683,-42.396,-44.286,-39.852,-47.207,-34.869
-38.235,-37.052,-46.718,-38.158,-40.465,-37.105,-42.215,-32.409
-37.271,-34.502,-45.914,-36.791,-39.804,-36.678,-43.009,-33.976
-36.562,-31.606,-45.825,-36.828,-39.985,-36.706,-45.84,-36.497
-35.316,-28.943,-44.793,-36.161,-39.278,-35.456,-46.373,-37.162
-33.697,-27.977,-43.349,-34.826,-38.029,-33.673,-44.147,-36.288
-31.245,-27.707,-40.332,-31.474,-35.043,-30.328,-39.022,-32.692
-29.248,-26.658,-35.912,-26.211,-30.675,-25.254,-32.682,-26.564
-29.527,-24.786,-33.941,-22.851,-28.83,-22.141,-29.811,-23.132
-30.418,-22.943,-36.164,-23.578,-30.953,-23.366,-31.873,-25.62
-29.411,-22.179,-37.57,-25.226,-31.873,-25.415,-32.821,-28.728
-26.795,-21.956,-32.731,-23.608,-26.632,-23.719,-27.208,-26.269
-25.075,-21.799,-24.877,-19.574,-19.106,-19.562,-19.619,-20.475
-25.451,-23.107,-21.677,-17.492,-16.83,-17.613,-18.235,-17.455
-25.296,-24.118,-24.327,-18.266,-20.191,-18.195,-23.375,-18.756
-23.076,-21.191,-28.273,-19.341,-24.337,-18.537,-29.258,-22.155
-22.356,-17.455,-30.883,-20.729,-27,-19.848,-32.097,-26.028
-25.14,-17.96,-31.978,-23.541,-28.152,-23.997,-31.749,-29.077
-27.615,-20.085,-30.947,-25.236,-27.101,-26.91,-29.234,-29.104
-26.149,-19.667,-27.255,-23.334,-23.473,-24.589,-25.022,-24.932
-21.356,-17.977,-21.572,-19.687,-18.076,-19.83,-19.125,-18.448
-15.53,-16.366,-16.213,-16.936,-12.952,-16.56,-13.201,-13.388
-9.701,-13.079,-14.06,-14.767,-10.708,-14.441,-10.355,-11.724
-3.589,-6.896,-14.807,-11.192,-11.27,-11.532,-11.145,-11.723
2.208,0.459,-15.115,-6.585,-11.632,-7.817,-12.836,-11.065
6.515,5.355,-13.164,-4.37,-9.859,-5.765,-12.35,-9.887
10.516,7.067,-8.822,-4.614,-5.614,-6.084,-8.188,-8.197
15.39,9.26,-2.775,-2.715,0.282,-5.091,-2.403,-4.974
18.475,12.957,1.67,1.846,4.396,-1.338,0.747,-1.237
17.204,14.019,1.089,4.483,3.455,1.389,0.026,1.012
13.362,11.284,-2.995,4.855,-0.866,2.307,-2.071,2.447
9.784,8.91,-5.55,7.032,-3.504,5.111,-2.968,4.84
6.454,7.448,-4.973,9.94,-2.836,8.641,-2.481,6.662
3.571,3.794,-3.556,8.984,-1.263,8.136,-1.176,5.848
3.532,0.606,-1.711,5.942,0.578,5.5,1.944,4.713
5.272,1.882,0.661,5.373,2.682,5.539,5.775,5.389
5.032,4.962,1.873,6.787,3.335,7.139,6.861,5.87
4.534,6.777,2.649,8.382,3.357,7.759,5.99,4.9
7.699,7.06,3.968,9.71,4.187,7.959,5.682,4.045
11.757,5.291,3.179,9.898,3.514,8.251,4.411,4.236
11.27,3.419,-0.135,9.322,0.463,8.26,0.88,4.576
7.563,4.96,-1.981,9.503,-1.602,8.24,-2.563,4.559
6.889,8.787,-0.292,10.607,-0.414,8.854,-3.266,4.953
10.381,10.908,3.322,11.932,2.982,10.039,-1.08,5.763
12.893,11.186,6.698,13.149,6.433,10.747,2.048,5.811
12.766,12.357,8.012,13.455,7.781,9.645,3.621,3.872
13.533,14.094,6.679,11.977,6.249,6.667,2.444,0.186
14.76,13.447,4.828,9.869,3.985,4.079,0.273,-2.466
12.513,10.507,4.828,8.979,3.674,3.953,-0.387,-2.972
8.636,8.63,6.582,9.245,5.648,5.618,0.938,-3.231
8.882,9.043,9.057,9.702,8.731,7.376,4.024,-2.379
13.405,10.593,11.448,10.475,11.433,9.042,8.021,1.761
15.96,12.338,12.086,11.784,11.779,10.968,10.367,6.688
13.02,12.296,9.802,12.139,9.005,11.405,9.164,7.989
10.035,10.154,7.734,11.385,6.73,9.616,6.575,5.999
13.391,10.401,11.141,13.237,10.172,10.016,7.976,5.96
19.632,14.923,18.541,18.578,17.479,14.908,14.115,10.002
21.735,19.048,21.778,21.632,20.449,18.102,17.646,12.604
21.006,20.404,19.266,19.927,17.753,15.474,15.055,10.111
21.811,21.032,18.718,18.89,17.182,12.623,13.307,7.846
21.831,19.685,22.129,20.492,20.692,13.433,16.323,9.607
18.098,13.92,22.37,19.494,21.161,13.15,18.176,10.436
13.845,7.479,17.376,14.673,16.419,9.292,15.471,7.288
12.699,6.157,13.07,11.825,12.147,7.139,12.512,5.024
14.007,9.463,12.423,13.505,11.173,9.529,12.146,6.627
15.617,12.214,12.535,15.299,10.791,11.913,12.322,8.501
16.246,11.971,11.21,14.095,9.237,11.323,11.638,8.485
16.055,10.837,10.02,12.404,8.25,10.776,11.95,9.248
15.691,10.541,10.148,12.119,8.66,11.752,13.86,11.169
14.008,9.652,9.744,10.896,8.257,10.755,14.191,10.665
10.369,7.736,8.532,8.073,6.781,6.82,11.859,7.727
8.002,7.64,8.831,7.156,6.658,4.574,9.221,5.568
9.51,10.122,10.005,9.232,7.406,6.316,6.271,3.848
12.964,12.504,10.466,11.783,7.647,9.505,3.201,1.533
16.332,14.121,12.365,14.189,9.529,12.43,3.304,1.15
19.181,15.928,16.329,16.423,13.569,14.253,6.014,2.968
20.037,17.197,19.05,16.964,16.439,14.231,7.608,4.092
19.711,18.299,20.279,17.331,17.793,15.151,9.034,6.528
23.27,21.949,23.336,21.315,20.737,20.246,12.654,13.848
32.997,29.096,29.052,29.003,26.077,28.112,17.44,22.775
44.311,37.403,35.042,36.52,31.788,34.845,21.656,28.12
51.652,43.948,38.671,40.104,35.593,37.423,23.914,29.305
55.287,47.765,39.81,40.057,37.209,36.187,24.546,28.992
57.95,49.485,40.332,39.63,38.035,34.497,25.741,28.773
57.705,49.739,40.208,39.742,37.788,34.086,26.928,27.535
53.1,49.415,38.572,39.447,35.688,34.113,26.126,25.236
48.63,48.694,36.974,38.762,33.551,33.51,24.348,23.563
46.315,45.557,37.108,37.582,33.223,31.922,24.104,23.26
43.395,39.855,38.573,35.831,34.18,30.256,26.241,23.925
40.987,36.569,40.443,34.674,35.408,29.931,28.743,23.619
42.536,39.759,43.267,35.816,37.615,32.231,30.134,22.291
45.633,45.498,47.433,38.798,41.224,36.614,31.824,23.334
44.794,46.102,49.726,39.444,42.845,38.564,32.897,25.798
39.693,40.598,47.522,35.616,39.758,35.541,30.948,25.978
34.695,35.269,45.502,32.231,36.402,32.657,29.596,26.759
33.375,34.474,49.441,34.242,38.064,34.786,33.317,31.437
35.378,35.977,55.649,38.282,41.114,38.15,37.676,34.885
37.195,36.23,56.901,38.071,39.034,36.819,36.094,31.742
36.752,35.838,54.203,33.988,33.125,31.949,30.446,25.404
34.222,35.187,51.629,29.582,27.211,27.469,25.674,21.812
29.335,31.124,47.713,24.517,19.952,23.213,21.246,20.374
23.743,24.883,41.793,18.579,11.129,18.734,15.382,17.013
22.817,24.285,39.564,16.187,6.625,17.208,11.73,13.09
27.308,29.903,43.831,18.986,9.27,19.415,14.294,13.27
29.205,31.414,48.656,20.924,13.236,20.234,19.976,16.236
24.782,25.092,49.197,18.241,13.81,16.786,22.855,16.816
20.168,19.038,47.291,14.812,12.761,12.493,20.728,14.226
19.896,19.19,45.975,14.72,12.809,11.162,16.074,12.232
23.457,24,46.814,18.177,15.292,13.548,14.599,13.911
29.39,29.659,49.271,22.564,19.77,17.503,18.883,17.966
34.244,33.181,49.425,23.991,22.381,19.243,23.05,19.971
34.229,33.495,44.399,21.214,19.98,17.086,20.44,17.269
30.364,32.344,38.361,18.112,16.413,14.007,15.225,12.533
27.674,32.874,37.064,18.881,17.385,14.242,15.745,10.801
29.939,36.527,38.436,22.626,21.06,17.926,19.919,12.944
36.146,41.484,37.365,26.235,22.475,21.799,21.117,16.015
41.468,44.326,34.898,28.633,22.355,23.842,20.965,18.773
42.632,44.485,35.367,30.735,24.616,25.712,24.666,22.703
41.204,44.837,38.638,33.695,29.209,29.888,31.028,28.568
41.088,46.41,40.61,37.019,32.336,35.1,35.074,34.755
44.299,48.191,40.337,40.092,33.071,39.354,36.631,39.763
48.247,49.958,40.257,42.751,33.897,42.773,38.889,42.908
48.203,50.188,39.899,42.173,34.593,42.967,40.829,42.329
43.361,47.154,36.871,36.115,32.741,37.261,38.495,36.936
37.468,42.744,32.964,28.307,29.646,29.528,32.6,29.66
34.541,40.451,32.969,24.503,29.855,26.036,29.421,25.695
36.107,41.809,37.43,26.299,34.428,28.076,32.136,27.191
41.651,46.454,42.045,31.862,39.692,33.3,36.661,31.82
49.845,52.841,44.68,38.382,43.292,39.142,39.182,37.062
56.836,57.592,46.238,41.999,45.49,42.342,39.911,40.895
58.049,58.084,46.69,41.075,46.282,40.998,39.471,40.972
56.303,57.072,47.454,40.225,47.488,38.861,39.814,39.688
59.534,59.039,51.784,44.02,52.38,41.042,44.194,42.232
67.32,62.489,57.945,49.045,59.141,45.622,50.79,46.588
70.976,62.727,60.151,49.887,62.101,46.813,53.323,46.658
68.739,60.287,57.595,47.978,60.378,44.126,50.169,43.1
67.294,59.239,54.779,47.413,58.125,41.547,46.193,40.962
67.236,58.413,53.1,46.495,56.766,39.639,44.262,40.349
63.095,53.318,49.93,41.421,54.209,35.665,42.226,38.245
56.39,46.497,46.656,36.21,51.939,31.533,40.583,37.052
52.515,43.994,47.139,37.01,53.192,31.694,42.378,40.191
49.567,43.354,48.322,39.026,54.57,33.202,44.47,42.063
43.546,38.682,44.394,33.972,50.641,29.465,40.958,35.424
37.948,32.867,37.115,25.029,43.606,21.828,32.987,24.422
39.047,33.436,33.459,21.961,40.454,18.182,27.453,19.704
46.694,41.044,36.686,27.508,44.308,22.251,29,24.559
54.874,48.989,43.479,36.035,51.739,30.012,36.098,33.331
59.218,52.861,49.644,42.621,58.322,36.974,44.563,41.047
61.142,55.358,55.414,48.079,64.192,43.206,52.655,47.879
63.741,58.727,61.129,53.218,69.885,48.193,59.766,53.807
65.559,59.103,62.947,54.47,71.821,48.423,63.368,55.736
62.861,53.932,58.485,50.389,67.722,44.101,61.553,53.051
57.352,48.442,51.865,46.042,61.481,40.497,56.507,49.639
55.225,49.06,48.744,46.035,58.425,40.558,52.652,47.801
58.106,54.942,49.101,48.822,58.526,42.759,51.601,46.647
61.458,59.868,49.234,50.781,58.344,45.493,51.627,46.357
62.772,60.389,49.06,50.997,58.071,47.778,52.892,48.093
64.035,59.061,51.038,50.347,60.246,48.049,57.672,50.939
65.613,59.037,52.878,49.005,62.26,45.994,62.253,51.762
65.924,59.804,49.656,46.622,58.844,43.103,58.182,48.382
65.903,60.371,44.154,44.916,53.024,41.587,48.266,44.034
67.382,61.69,45.113,47.443,53.969,44.003,46.557,45.466
70.108,64.515,53.441,54.919,62.409,50.889,56.154,54.129
73.226,68.246,61.489,63.62,70.466,59.134,66.3,64.595
77.34,72.373,65.912,69.828,75.007,65.703,71.697,72.077
82.793,76.338,69.37,72.693,78.577,70.089,75.255,75.909
86.569,77.872,72.008,72.391,80.968,71.495,77.109,76.789
84.974,74.609,71.453,69.139,80.117,68.584,75.466,75.158
79.107,67.374,67.696,64.2,76.415,62.756,71.938,71.934
74.024,60.841,62.611,60.025,71.422,57.925,68.485,68.494
72.539,59.659,58.114,58.391,66.813,55.999,64.66,64.874
73.608,62.961,55.874,58.288,64.58,54.727,60.828,59.816
76.484,66.274,56.283,57.825,65.158,52.273,59.424,54.715
79.401,66.848,56.899,56.398,65.751,49.608,59.947,52.09
77.592,63.588,54.161,53.384,62.872,46.714,57.395,49.595
71.401,58.48,48.742,49.627,57.576,43.452,50.771,44.622
67.743,56.859,44.071,47.691,53.175,41.512,44.797,39.592
67.699,59.171,39.448,46.514,48.558,40.261,40.143,35.382
65.78,60.425,34.509,43.856,43.361,38.587,35.869,31.313
61.711,59.362,34.646,42.474,43.231,39.397,37.778,32.056
59.217,57.798,40.897,44.263,49.318,43.129,48.07,40.2
58.397,55.916,45.995,46.223,54.329,45.631,56.887,48.987
58.274,53.686,46.649,47.086,54.787,46.39,56.884,53.364
59.426,51.481,47.199,48.681,54.943,47.88,53.685,56.521
61.791,50.358,51.247,52.303,58.735,50.536,55.625,61.657
65.312,52.522,57.916,58.496,65.566,55.019,63.48,68.463
69.453,58.127,63.63,66.072,71.558,61.767,71.865,75.555
70.284,63.507,65.216,71.532,73.13,67.402,75.123,79.758
65.983,65.342,63.252,73,70.905,68.695,72.239,78.405
62.742,64.268,61.473,71.839,68.887,66.928,68.121,73.913
64.806,61.932,61.525,68.963,68.815,64.008,67.598,70.254
66.692,58.623,60.216,64.44,67.387,60.308,67.872,67.299
64.382,56.268,55.651,60.763,62.601,57.682,63.497,63.163
61.524,56.577,51.483,60.363,58.132,57.64,56.614,58.5
59.227,55.928,49.364,60.353,55.687,57.08,52.232,54.496
54.232,51.15,46.247,56.444,52.236,52.391,49.386,49.948
48.785,46.533,42.729,51.262,48.457,46.653,46.13,45.36
50.042,47.735,43.997,52.067,49.691,46.775,45.934,45.679
58.85,54.019,51.33,60.387,57.231,53.977,51.731,52.44
66.338,59.217,58.519,68.583,64.667,60.878,58.345,57.926
65.215,58.792,59.69,69.032,65.79,60.173,59.466,55.666
60.624,56.291,58.551,64.916,64.185,55.367,59.203,52.19
61.842,58.083,62.48,65.337,67.572,55.969,65.176,57.214
67.406,62.117,69.796,70.515,74.649,62.016,74.662,67.626
69.189,61.398,73.773,72.973,78.668,65.179,80.191,73.782
65.149,56.021,74.352,71.713,79.431,64.151,82.038,75.23
59.97,51.877,74.637,71.603,79.912,64.585,83.634,77.579
58.499,51.349,72.324,71.93,77.562,66.075,81.918,79.293
60.781,52.374,64.697,68.261,69.62,63.098,73.234,74.601
62.374,52.735,56.002,61.255,60.579,55.727,62.267,65.184
60.681,51.638,51.57,54.978,55.857,49.117,55.257,57.31
58.029,50.153,51.549,52.04,55.519,46.681,52.877,53.461
56.278,49.494,54.045,52.723,57.843,48.082,54.211,53.187
53.426,47.999,56.511,54.182,60.5,49.842,56.855,54.239
49.895,45.354,56.695,54.071,60.845,49.472,56.336,53.257
50.174,45.208,54.707,53.861,58.433,48.59,51.344,49.425
53.801,47.279,50.216,53.664,53.276,48.104,44.37,44.676
56.078,47.866,43.993,51.769,46.871,46.455,39.76,41.799
57.051,48.69,40.635,49.689,43.609,44.1,40.421,41.732
59.207,52.392,41.35,48.966,44.009,42.708,42.648,41.487
61.088,54.197,40.966,46.83,43.022,40.879,40.134,38.124
58.883,48.458,36.978,40.527,38.762,35.781,33.508,32.802
52.094,38.338,33.86,32.456,35.797,28.648,29.793,28.741
45.401,31.451,35.067,27.305,37.18,24.278,32.411,27.656
43.122,30.305,37.997,26.924,40.042,25.298,37.857,29.866
44.185,32.244,39.751,30.237,41.547,29.809,42.812,35.609
45.355,34.469,40.757,34.661,42.379,33.959,46.925,43.034
46.22,35.784,41.355,37.412,43.084,36.032,49.4,48.115
48.174,36.38,40.92,38.308,42.901,37.665,50.024,50.089
51.197,37.989,40.729,39.82,42.806,40.635,51.141,52.298
53.937,41.705,42.437,42.607,44.443,43.849,53.575,55.101
55.046,45.033,44.511,44.328,46.385,45.176,54.412,54.949
52.95,44.014,44.078,43.418,45.72,44.282,51.695,51.318
46.467,37.9,40.351,40.261,41.617,41.656,46.663,46.8
38.351,30.835,35.15,36.182,36.042,38.133,40.842,42.169
34.426,27.743,31.255,32.854,32.003,35.228,35.021,36.669
35.935,28.338,29.924,30.938,30.749,33.33,30.695,31.129
38.458,29.535,30.229,30.171,31.083,31.632,29.142,27.864
39.173,31.43,30.069,30.225,30.712,30.149,28.951,27.364
38.852,34.59,27.417,29.977,27.714,29.294,27.003,27.309
38.199,36.1,22.196,28.012,22.346,28.154,22.246,25.698
37.768,34.662,17.629,25.523,17.858,26.511,17.652,23.613
39.134,33.729,17.599,25.646,17.694,26.396,17.268,23.766
41.783,35.042,21.198,28.235,20.926,28.095,20.38,26.024
42.589,36.395,23.281,29.926,22.922,29.286,21.826,26.751
42.058,38.087,22.589,30.879,22.493,30.262,20.467,25.472
45.335,43.735,24.238,35.197,24.228,34.112,21.488,27.486
52.862,52.449,30.599,42.237,30.186,40.069,27.021,34.136
56.781,57.594,36.072,45.409,35.102,42.842,32.105,39.037
52.748,56.404,36.296,43.242,35.148,41.149,33.775,40.071
47.488,53.385,34.866,41.996,33.859,40.044,35.608,42.618
47.332,52.349,34.963,43.985,33.878,41.875,38.873,46.772
49.723,52.522,34.303,44.352,32.848,42.717,39.243,45.996
50.549,52.231,31.567,40.63,29.814,39.501,34.821,39.683
49.553,51.534,28.293,35.897,26.393,34.431,28.772,34.367
47.829,51.202,25.993,33.477,24.04,31.802,25.591,34.055
44.93,49.893,25.084,32.827,23.159,32.215,26.493,35.715
39.283,45.216,23.445,30.628,21.474,31.687,26.924,34.032
32.62,39.35,19.237,26.889,17.034,28.94,23.779,30.175
29.75,37.916,15.137,25.515,12.621,27.663,20.659,29.253
31.835,41.977,14.299,26.879,11.599,28.664,19.859,29.388
36.647,48.055,16.201,27.784,13.547,28.736,18.694,25.591
42.834,53.897,19.317,27.984,16.874,27.513,17.126,20.438
48.275,57.574,22.984,29.251,20.788,27.304,19.143,19.651
50.699,56.898,26.51,31.142,24.378,28.376,24.994,22.965
50.225,54.258,28.877,32.674,26.509,29.81,30.03,26.565
46.446,53.714,28.222,33.417,25.444,30.895,30.834,28.225
39.394,53.658,22.743,31.304,19.588,29.232,26.365,25.535
32.991,50.928,15.001,26.004,11.747,23.981,18.301,17.808
29.823,46.667,11.209,21.894,8.23,19.549,13.11,11.48
28.239,43.105,12.712,21.603,10.092,19.561,14.554,12.934
26.565,40.746,13.861,22.068,11.286,21.503,16.902,18.187
24.014,38.889,11.358,20.376,8.345,21.436,14.876,19.28
20.697,36.484,8.903,17.985,5.236,19.447,11.903,15.468
17.09,32.753,8.527,16.325,4.594,16.792,10.86,10.546
12.152,27.609,6.779,14.252,3.105,13.109,8.767,6.438
6.075,22.284,3.127,11.977,-0.36,9.367,4.492,3.501
0.947,17.331,0.158,10.108,-3.53,6.602,-0.408,0.569
-3.081,11.621,-3.192,6.763,-7.052,3.175,-5.932,-3.762
-6.821,6.245,-7.967,1.761,-11.675,-0.993,-10.968,-7.921
-9.365,4.47,-10.956,-1.814,-14.387,-3.138,-12.745,-10.136
-9.493,6.095,-10.171,-2.767,-13.479,-2.961,-11.077,-11.138
-8.714,6.974,-8.768,-3.268,-12.237,-3.183,-8.911,-11.547
-10.871,4.861,-10.808,-5.068,-14.546,-4.889,-9.637,-11.884
-16.059,1.904,-15.396,-7.387,-19.133,-6.416,-13.821,-13.393
-20.155,-0.418,-18.005,-9.213,-21.603,-6.789,-17.928,-15.356
-21.692,-3.352,-17.351,-10.939,-21.165,-6.903,-18.846,-15.565
-21.141,-5.221,-15.818,-11.799,-20.081,-6.501,-17.921,-13.95
-17.345,-2.102,-13.301,-9.541,-17.675,-3.64,-16.038,-11.178
-11.79,3.941,-8.659,-4.929,-12.784,1.076,-11.54,-7.078
-10.585,5.206,-6.535,-3.018,-10.552,2.778,-8.093,-4.726
-16.307,-0.736,-10.591,-5.776,-14.781,-0.457,-10.411,-6.755
-23.013,-7.297,-14.358,-7.694,-18.583,-2.998,-13.083,-8.423
-24.204,-8.911,-11.748,-5.012,-15.6,-1.151,-10.573,-6.077
-20.401,-7.041,-6.517,-1.733,-9.953,1.244,-7.258,-3.523
-16.481,-5.208,-3.592,-1.61,-7.096,1.243,-6.564,-3.364
-15.447,-4.549,-2.013,-2.414,-5.982,1.176,-5.185,-2.805
-15.485,-3.868,0.474,-0.398,-3.8,3.396,-1.714,0.531
-14.299,-3.113,2.529,3.653,-1.737,6.39,0.164,4.418
-16.854,-6.992,0.539,3.563,-3.789,5.234,-2.627,3.565
-29.345,-18.937,-7.026,-4.726,-11.644,-3.413,-9.969,-5.036
-44.531,-31.867,-16.566,-15.062,-21.316,-14.26,-19.31,-16.417
-50.426,-37.096,-22.95,-19.553,-27.419,-19.206,-26.478,-22.378
-49.576,-37.964,-26.084,-21.047,-30.206,-19.948,-29.434,-23.45
-51.176,-40.725,-28.89,-24.701,-32.961,-22.293,-30.228,-25.627
-54.854,-43.369,-31.393,-27.657,-35.545,-24.98,-30.685,-28.312
-55.923,-43.839,-31.694,-27.227,-35.804,-25.163,-29.359,-27.472
-55.569,-44.883,-30.284,-26.909,-34.36,-24.824,-26.013,-25.074
-56.028,-45.875,-29.211,-28.366,-33.456,-25.121,-24.014,-25.041
-53.87,-42.534,-28.17,-27.682,-32.574,-23.244,-24.612,-25.594
-47.434,-36.066,-26.196,-23.901,-30.392,-19.408,-25.79,-24.505
-43.272,-33.141,-24.952,-22.545,-28.64,-18.739,-26.539,-24.331
-47.567,-37.771,-26.708,-27.572,-30.003,-23.486,-27.508,-27.18
-57.497,-47.6,-31.415,-36.346,-34.718,-30.578,-30.29,-32.264
-65.358,-56.089,-35.81,-42.656,-39.422,-35.912,-34.69,-37.478
-68.01,-59.093,-36.664,-43.052,-40.486,-37.707,-37.197,-40.239
-68.97,-59.438,-36.672,-41.315,-40.316,-38.292,-37.372,-41.004
-72.552,-62.176,-41.199,-42.928,-44.398,-40.652,-39.308,-42.503
-77.881,-67.366,-48.345,-46.619,-51.246,-43.104,-42.94,-44.012
-78.762,-70.073,-50.426,-47.463,-53.507,-42.09,-42.813,-42.108
-71.959,-66.805,-45.465,-44.315,-48.984,-37.585,-37.264,-36.107
-63.987,-60.885,-40.275,-40.536,-43.84,-33.527,-32.911,-30.569
-63.658,-59.492,-41.316,-40.495,-44.369,-34.663,-36.35,-31.324
-70.023,-64.728,-46.905,-44.731,-49.616,-40.873,-43.776,-37.268
-74.699,-71.121,-51.088,-49.125,-54.212,-46.384,-46.752,-41.644
-74.61,-73.718,-51.815,-50.853,-55.608,-47.545,-44.885,-42.37
-74.948,-74.529,-51.361,-51.897,-55.23,-47.086,-43.273,-42.763
-79.267,-77.854,-52.213,-55.305,-55.665,-49.237,-44.55,-44.603
-83.356,-81.997,-54.759,-60,-58.004,-53.667,-48.778,-46.916
-81.179,-80.921,-56.005,-60.861,-59.416,-55.268,-52.583,-47.313
-73.407,-74.512,-52.94,-56.22,-56.584,-51.513,-51.237,-44.544
-66.608,-69.695,-47.791,-51.569,-51.612,-47.294,-46.43,-41.657
-64.215,-69.174,-43.869,-50.277,-47.795,-46.222,-42.76,-40.765
-63.767,-68.482,-39.317,-48.341,-43.2,-44.124,-38.793,-38.122
-64.594,-66.316,-33.723,-44.775,-37.466,-39.72,-34.057,-33.12
-69.482,-67.439,-33.537,-45.596,-37.196,-39.823,-35.815,-33.467
-76.286,-72.839,-40.391,-51.468,-44.112,-45.747,-45.405,-41.412
-78.068,-76.332,-45.39,-54.663,-49.284,-49.471,-51.854,-47.414
-73.386,-73.979,-43.194,-51.984,-47.148,-47.751,-48.596,-45.575
-68.282,-69.706,-39.174,-48.656,-42.824,-45.503,-41.853,-41.577
-67.334,-68.462,-38.703,-48.714,-41.863,-45.678,-39.023,-41.446
-67.931,-68.85,-39.786,-49.97,-42.819,-46.126,-39.469,-43.21
-65.945,-66.836,-39.207,-49.177,-42.594,-44.718,-39.214,-42.439
-62.997,-63.47,-38.529,-46.974,-42.196,-42.453,-38.325,-39.603
-63.104,-63.506,-40.654,-46.089,-44.189,-41.73,-39.849,-38.169
-65.588,-67.344,-44.598,-47.683,-47.881,-43.281,-44.103,-38.752
-66.457,-69.044,-46.082,-49.578,-49.277,-45.029,-46.606,-38.635
-65.067,-64.991,-43.325,-48.674,-46.559,-44.756,-44.066,-36.653
-63.891,-59.466,-39.332,-45.421,-42.668,-42.736,-39.909,-35.148
-62.407,-56.92,-36.06,-41.995,-39.485,-39.53,-37.792,-34.966
-58.225,-55.881,-32.053,-38.826,-35.462,-35.359,-35.688,-33.793
-53.515,-54.324,-27.899,-36.397,-31.33,-32.533,-32.457,-31.811
-52.668,-53.203,-26.389,-35.492,-30.093,-32.648,-31.216,-32.072
-54.575,-51.993,-26.425,-34.764,-30.504,-33.067,-31.891,-34.069
-54.631,-48.462,-24.768,-32.901,-28.887,-31.402,-30.439,-34.422
-52.573,-45.361,-23.619,-32.541,-27.317,-30.719,-28.563,-34.241
-51.86,-48.054,-27.69,-36.509,-30.947,-34.338,-32.54,-37.348
-53.993,-54.513,-35.191,-42.154,-38.331,-39.395,-40.961,-42.161
-58.109,-58.754,-40.666,-45.837,-43.862,-42.792,-46.695,-44.742
-62.906,-60.891,-43.04,-47.856,-46.263,-46.083,-47.842,-45.417
-66.108,-63.231,-43.965,-48.537,-47.174,-48.976,-46.444,-44.883
-65.744,-63.912,-44.358,-47.581,-47.59,-48.741,-44.722,-42.843
-62.516,-61.796,-45.081,-47.141,-48.434,-46.698,-45.444,-42.243
-58.669,-59.463,-45.661,-48.038,-49.041,-45.472,-47.696,-44.367
-57.023,-58.762,-44.636,-47.419,-47.801,-44.072,-47.199,-45.156
-60.581,-59.713,-43.026,-44.824,-46.071,-41.941,-44.403,-43.502
-67.302,-62.233,-42.748,-43.835,-46.028,-41.154,-43.833,-43.295
-69.364,-64.258,-42.666,-44.832,-46.118,-40.8,-45.601,-44.813
-65.033,-62.459,-40.839,-44.044,-44.018,-37.431,-45.568,-44.51
-61.588,-58.018,-38.598,-41.749,-41.554,-33.547,-43.162,-42.931
-62.188,-55.78,-38.47,-42.174,-41.673,-34.97,-42.194,-43.772
-63.05,-56.365,-39.332,-44.332,-42.569,-39.363,-43.191,-46.089
-61.633,-55.099,-37.509,-42.827,-40.092,-39.367,-41.679,-45.071
-58.696,-50.557,-34.447,-38.783,-36.569,-36.118,-38.856,-42.005
-56.767,-48.35,-37.011,-39.768,-39.581,-37.524,-43.427,-44.443
-57.396,-51.683,-45.133,-46.103,-48.279,-43.301,-54.057,-51.651
-58.792,-55.729,-49.956,-49.108,-52.943,-45.157,-57.818,-53.988
-58.934,-57.135,-48.673,-46.184,-51.197,-41.952,-52.676,-50.357
-59.135,-58.78,-48.033,-44.293,-50.419,-40.345,-49.573,-48.499
-61.666,-61.773,-51.581,-47.107,-53.948,-42.501,-52.436,-49.658
-65.693,-63.811,-55.696,-51.271,-58.041,-45.558,-56.106,-49.815
-68.915,-65.181,-58.098,-54.269,-60.682,-48.845,-58.801,-50.054
-70.848,-67.631,-59.685,-56.105,-62.398,-52.588,-61.051,-52.347
-71.672,-70.391,-59.896,-56.692,-62.069,-55.099,-60.459,-53.92
-71.821,-71.719,-58.045,-56.672,-59.499,-55.602,-56.71,-53.286
-72.397,-70.6,-55.053,-56.319,-56.45,-54.459,-52.569,-52.14
-71.209,-65.859,-50.107,-53.255,-51.935,-50.433,-48.021,-49.798
-64.03,-57.977,-41.878,-45.975,-43.828,-42.795,-41.149,-43.791
-53.959,-51.78,-33.957,-38.538,-35.629,-35.606,-33.554,-35.927
-48.796,-50.77,-30.725,-35.619,-32.342,-33.23,-28.672,-31.165
-47.79,-50.809,-29.546,-35.223,-31.511,-33.218,-26.013,-30.119
-44.525,-47.134,-26.423,-33.856,-28.741,-31.54,-23.586,-29.707
-40.386,-42.554,-24.734,-33.599,-27.22,-29.985,-23.979,-30.305
-41.327,-42.33,-29.285,-37.213,-31.771,-32.218,-30.167,-34.83
-45.839,-45.55,-36.732,-41.557,-39.033,-36.904,-37.895,-41.503
-48.248,-46.313,-39.98,-41.158,-42.043,-38.54,-40.439,-44.083
-49.162,-43.422,-38.906,-37.233,-40.882,-36.076,-38.645,-41.196
-52.616,-43.915,-39.453,-37.578,-41.489,-36.376,-39.035,-39.642
-57.325,-51.405,-43.296,-44.106,-45.346,-42.961,-43.232,-43.247
-58.647,-57.936,-45.375,-48.525,-47.249,-48.426,-45.333,-45.271
-55.935,-56.751,-43.274,-46.454,-44.846,-47.031,-41.693,-40.605
-53.571,-53.168,-42.033,-44.486,-43.43,-44.819,-37.338,-35.891
-54.929,-53.34,-44.866,-46.969,-46.414,-47.608,-37.344,-37.035
-57.183,-54.735,-46.938,-49.447,-48.814,-51.031,-39.104,-39.747
-55.684,-54.067,-44.602,-49.208,-46.601,-50.749,-39.192,-40.454
-51.132,-53.073,-42.036,-49.52,-43.864,-50.202,-39.481,-42.237
-47.37,-53.417,-42.818,-51.903,-44.462,-52.279,-41.183,-45.931
-45.165,-52.849,-43.208,-52.921,-44.754,-53.295,-40.973,-47.26
-43.171,-49.335,-39.603,-50.346,-40.971,-50.231,-38.051,-45.275
-42.021,-46.024,-35.337,-47.579,-36.524,-46.751,-36.742,-44.323
-42.646,-46.9,-34.586,-48.07,-35.758,-46.605,-38.293,-45.608
-43.224,-49.441,-36.106,-49.459,-37.242,-47.322,-39.377,-45.75
-41.718,-47.877,-36.54,-47.966,-37.517,-45.395,-38.54,-43.689
-40.017,-42.987,-36.08,-45.067,-37.054,-42.422,-37.557,-41.797
-41.037,-41.601,-37.908,-44.9,-39.04,-42.001,-38.983,-41.969
-43.252,-45.417,-41.837,-46.937,-42.893,-43.568,-42.772,-43.849
-43.876,-48.765,-43.38,-46.988,-44.139,-43.64,-44.956,-45.607
-42.972,-47.976,-41.286,-44.456,-41.99,-41.771,-43.399,-46.34
-41.668,-45.682,-39.695,-42.847,-40.648,-40.908,-41.632,-47.042
-40.849,-45.039,-39.886,-42.841,-40.976,-41.382,-41.74,-47.12
-40.212,-44.018,-37.782,-40.464,-38.711,-39.212,-40.342,-43.703
-39.78,-40.595,-33.711,-35.716,-34.283,-34.244,-37.113,-37.961
-41.176,-38.359,-33.177,-34.534,-33.29,-32.276,-36.093,-34.33
-42.6,-38.833,-35.245,-37.093,-35.009,-33.935,-35.909,-31.648
-40.542,-38.321,-34.527,-37.298,-34.239,-33.665,-32.313,-26.371
-37.341,-36.617,-32.553,-35.136,-32.337,-31.446,-27.952,-21.817
-36.388,-35.875,-33.008,-34.3,-32.741,-31.177,-27.216,-21.962
-35.461,-34.399,-33.007,-32.963,-32.661,-31.369,-28.095,-23.17
-32.874,-31.729,-30.258,-29.523,-30.011,-29.695,-28.165,-22.217
-30.276,-30.218,-28.276,-27.113,-28.148,-28.148,-29.193,-22.261
-26.194,-28.095,-28.066,-26.204,-27.762,-27.233,-30.746,-24.624
-19.035,-22.552,-26.145,-23.968,-25.579,-24.982,-29.323,-25.509
-13.572,-17.089,-22.674,-20.976,-22.247,-21.848,-25.181,-23.494
-13.456,-15.905,-20.989,-20.065,-20.942,-19.809,-22.121,-21.876
-14.131,-15.933,-20.282,-20.512,-20.186,-18.784,-21.429,-22.397
-10.153,-12.19,-17.376,-19.123,-16.73,-17.103,-21.284,-22.701
-3.969,-7.155,-13.171,-16.606,-12.178,-15.332,-20.829,-21.787
-1.734,-6.344,-10.841,-16.55,-10.08,-15.774,-20.433,-21.639
-3.412,-8.01,-10.96,-18.366,-10.542,-17.382,-19.874,-22.312
-5.063,-7.717,-12.647,-19.019,-12.244,-17.812,-19.935,-22.64
-7.104,-7.63,-14.962,-18.298,-14.482,-17.745,-21.443,-22.941
-11.022,-11.677,-15.81,-17.125,-15.439,-17.564,-21.931,-21.989
-13.803,-17.365,-14.123,-15.89,-13.754,-15.983,-19.213,-17.788
-12.522,-18.375,-11.084,-13.918,-10.344,-12.385,-14.431,-10.758
-9.272,-13.507,-7.878,-10.024,-6.828,-7.219,-8.91,-2.461
-7.423,-8.528,-6.067,-6.549,-5.208,-2.97,-4.561,4.17
-6.18,-6.875,-7.165,-6.426,-6.628,-1.815,-3.583,6.304
-2.723,-4.886,-9.02,-6.537,-8.437,-1.32,-3.524,6.213
2.748,0.683,-7.529,-2.592,-6.718,1.8,-0.348,7.915
7.795,6.925,-2.966,2.642,-2.234,5.429,3.919,9.543
10.603,9.474,0.383,3.25,0.683,5.119,4.763,6.661
9.634,8.224,0.564,-0.481,0.583,1.437,3.089,0.951
5.05,5.707,-1.211,-3.283,-1.089,-1.202,1.663,-2.514
0.539,3.113,-4.266,-3.969,-4.073,-2.023,-0.602,-3.978
-1.677,0.058,-7.61,-5.917,-7.538,-4.064,-3.858,-6.375
-2.875,-2.842,-9.416,-9.793,-9.221,-7.852,-6.371,-9.576
-3.141,-4.245,-11.118,-13.625,-10.452,-11.66,-10.522,-13.798
-1.131,-3.713,-14.434,-16.169,-13.492,-14.441,-17.134,-18.926
3.704,0.305,-15.044,-14.853,-14.335,-13.709,-19.329,-20.037
9.485,7.493,-9.828,-8.669,-9.506,-8.256,-13.831,-14.775
12.387,11.857,-4.346,-2.358,-4.105,-2.303,-7.767,-8.952
12.086,10.604,-3.369,0.338,-2.753,0.51,-6.505,-7.533
12.002,8.802,-3.367,1.287,-2.196,1.212,-6.368,-8.833
12.66,9.029,-1.325,2.041,-0.016,0.975,-4.281,-10.08
11.367,7.688,-0.845,0.684,0.07,-0.586,-3.603,-11.211
8.779,4.375,-3.122,-2.751,-2.472,-2.428,-4.734,-11.038
8.981,4.02,-2.86,-3.813,-2.043,-1.971,-1.942,-6.443
10.839,6.52,-0.029,-1.94,0.857,-0.297,3.381,-0.025
8.86,5.815,-0.966,-2.392,-0.316,-1.449,2.995,1.503
5.261,2.561,-4.08,-4.345,-3.373,-3.086,-0.957,0.318
6.833,3.14,-2.627,-1.851,-1.313,0.422,0.35,3.597
11.633,7.184,2.805,4.067,4.701,7.108,7.229,10.484
14.292,10.174,8.545,8.754,10.552,11.741,15.224,16.662
15.647,11.579,12.671,10.802,14.493,12.719,20.153,19.575
16.675,12.299,12.666,9.814,14.339,10.281,18.211,16.636
15.913,12.301,9.335,7.172,10.933,6.582,12.534,10.508
16.415,13.21,7.668,7.047,9.109,5.735,10.36,8.23
21.94,16.791,9.648,10.75,10.87,9.283,12.356,10.838
28.646,21.454,13.6,14.807,14.796,14.432,15.586,14.13
31.88,25.346,18.782,17.507,20.319,18.68,20.08,17.163
33.097,28.921,23.757,20.606,25.708,22.142,24.538,20.819
33.61,31.269,25.459,23.549,27.32,24.353,25.219,22.796
32.519,30.974,24.663,24.273,26.027,24.344,23.041,21.494
31.984,30.49,25.578,23.941,26.743,23.267,22.643,19.345
34.359,32.294,27.355,23.764,28.651,22.275,23.164,17.271
34.582,32.9,23.57,20.888,24.701,19.611,18.384,12.189
25.54,27.767,12.954,12.989,13.675,13.354,7.732,3.611
12.006,19.583,2.667,3.716,3.397,5.992,-1.575,-3.461
6.66,14.263,-1.653,-1.327,-0.447,2.284,-4.86,-5.094
11.157,12.156,-1.289,-1.531,0.299,2.733,-3.151,-2.25
14.936,10.302,0.115,-0.212,1.699,3.868,1.208,2.56
12.728,8.768,0.408,0.64,1.733,3.833,4.361,7.024
9.984,9.126,-0.963,1.233,0.199,3.417,3.12,9.005
9.762,9.913,-3.907,1.201,-2.551,2.889,-0.203,8.116
9.057,9.01,-6.457,0.358,-4.805,2.162,0.067,7.029
9.52,8.844,-4.141,1.335,-2.468,3.507,7.338,9.903
14.7,12.116,3.208,5.385,4.774,8.132,17.565,16.41
20.612,15.691,8.504,8.596,10.151,11.918,21.629,20.353
23.344,16.826,7.892,8.038,9.674,11.395,17.698,18.104
25.6,18.714,6.244,6.753,7.95,9.566,13.341,13.125
28.186,23.344,7.773,8.482,9.325,10.259,13.185,10.149
28.351,27.868,9.744,11.753,11.298,12.296,14.22,9.473
27.159,30.595,8.785,12.869,10.453,13.203,13.455,8.792
26.104,31.502,6.055,11.175,7.826,12.696,11.842,7.597
23.089,29.129,3.712,8.244,5.621,10.312,10.373,6.637
19.231,24.091,2.639,5.6,4.742,6.313,9.434,5.696
18.929,20.617,3.773,4.689,5.936,3.831,10.529,4.279
22.604,20.89,6.701,6.431,8.713,4.711,13.025,2.717
26.523,22.651,8.821,10.102,10.763,7.087,13.822,1.772
27.006,22.805,7.756,12.534,9.814,7.976,11.568,0.736
23.447,20.153,2.866,10.358,4.869,5.404,6.601,-2.333
18.199,14.988,-3.764,4.196,-2.088,0.125,1.116,-6.013
12.44,7.966,-8.798,-2.47,-7.279,-5.106,-1.03,-5.987
5.392,1.074,-12.18,-7.3,-10.346,-8.576,-0.571,-2.374
-0.371,-1.921,-14.898,-8.878,-12.518,-9.529,-1.162,1.185
-0.185,0.079,-14.306,-6.337,-11.578,-7.44,-1.018,4.647
4.734,2.975,-8.996,-1.82,-6.234,-3.982,2.638,8.904
8.97,3.398,-2.456,1.471,0.216,-1.543,7.176,11.914
10.831,2.863,2.14,3.802,4.75,0.555,10.08,13.183
12.872,3.576,4.846,6.266,7.502,3.128,12.198,13.991
17.373,6.066,7.113,8.005,9.956,4.832,14.399,14.271
23.04,10.767,9.718,9.351,12.732,6.221,16.366,14.491
26.315,16.218,11.436,11.274,14.407,8.673,17.262,15.507
26.665,19.378,11.558,13.207,14.217,10.95,17.085,16.865
27.728,21.007,12.208,15.166,14.39,12.178,16.853,17.874
30.812,23.409,13.863,16.74,15.672,12.487,15.666,17.088
31.801,24.092,13.311,15.469,15.165,10.77,11.519,12.907
29.063,21.44,10.578,12.164,12.837,8.144,6.842,7.565
26.816,19.993,10.43,11.725,12.97,8.178,6.716,5.768
27.19,22.479,13.962,14.921,16.469,10.497,10.72,7.84
29.476,26.553,17.283,17.923,19.769,12.312,13.886,9.645
33.803,29.886,18.217,19.2,20.837,13.544,14.114,8.741
36.431,29.748,17.004,18.771,19.671,13.772,12.433,5.725
32.164,24.291,13.796,15.853,16.29,11.502,9.886,2.662
24.046,17.28,9.434,11.872,11.658,8.62,7.663,2.906
18.16,12.788,5.451,9.882,7.457,8.074,6.898,8.107
14.366,9.981,3.435,11.02,5.367,9.705,8.293,15.88
10.812,8.273,4.623,14.41,6.778,12.217,12.32,23.304
7.483,7.23,6.76,16.62,9.342,13.477,16.597,28.367
2.831,2.844,4.64,12.832,7.22,9.878,16.116,27.949
-2.707,-4.723,-1.393,4.41,0.562,2.424,10.734,21.59
-3.02,-7.505,-3.896,-0.41,-2.299,-1.799,6.872,14.941
5.129,-1.954,0.4,1.756,2.507,0.09,7.924,12.671
14.754,5.387,5.324,4.951,8.096,2.481,9.527,12.095
17.231,8.455,5.208,4.502,7.93,1.378,7.72,9.623
14.414,9.37,3.249,3.866,5.411,0.555,5.551,7.734
14.692,13.01,4.982,7.093,6.801,3.747,7.117,9.641
20.622,19.553,9.582,12.204,11.442,8.829,10.719,13.423
27.302,25.1,12.86,15.385,14.816,12.377,12.224,15.273
29.53,26.616,13.274,15.49,15.356,13.104,10.374,13.389
27.588,25.238,12.55,13.751,14.919,11.283,7.078,9
27.55,25.884,14,13.036,16.371,9.587,5.671,5.987
33.342,31.536,18.812,15.146,20.468,11.07,7.782,6.329
40.165,38.878,23.883,18.438,24.727,14.852,11.425,7.309
42.102,43.144,26.401,21.037,27.268,18.119,14.172,6.618
41.455,44.397,27.97,23.548,29.487,20.683,16.569,6.258
43.149,45.357,31.113,26.502,32.759,23.789,19.954,8.62
45.829,46.119,34.219,28.426,34.978,26.781,22.632,12.215
45.391,45.132,33.855,28.115,33.367,28.2,22.235,14.36
42.747,43.221,30.737,26.985,29.304,28.466,20.378,15.772
42.155,42.751,28.62,27.363,26.637,28.816,20.294,18.869
43.119,43.36,27.958,28.589,25.811,28.366,21.545,22.902
41.492,42.53,26.577,28.179,24.537,25.61,22.13,25.308
40.5,42.569,26.886,28.238,24.851,23.861,24.597,27.814
48.374,49.405,33.923,33.593,31.703,28.847,32.75,34.221
61.935,60.571,44.433,41.459,42.177,38.084,42.23,41.222
68.477,66.295,48.41,43.601,46.415,41.876,43.97,41.13
65.797,64.701,43.594,39.583,41.988,37.48,37.624,34.246
63.9,62.965,38.044,36.571,36.862,32.43,32.116,28.698
66.808,63.973,37.145,37.173,36.435,32.437,32.174,28.294
67.392,63.106,36.691,36.594,36.488,33.703,32.171,27.841
61.961,58.408,31.587,31.381,31.876,29.841,26.039,21.812
57.629,54.378,25.349,24.904,25.91,21.752,17.717,13.176
59.54,53.341,24.248,21.92,24.779,15.521,15.291,9.018
62.407,52.395,26.434,21.928,26.978,13.353,17.713,9.617
62.308,51.4,26.449,22.344,27.273,12.946,17.502,9.169
64.68,54.397,26.806,25.056,27.854,14.614,16.149,7.994
72.48,61.273,33.165,32.758,34.207,20.744,21.44,12.535
78.191,66.458,41.384,40.695,42.489,27.656,28.911,19.874
76.206,67.136,43.651,42.097,44.867,29.228,28.237,20.414
70.711,64.763,40.954,38.024,42.025,26.387,23.365,15.68
63.697,58.501,35.512,31.376,36.329,21.498,21.074,11.6
52.289,47.768,24.906,21.928,25.602,13.609,16.048,5.742
40.492,37.739,12.469,13.075,13.107,5.863,6.614,-1.5
34.731,31.736,5.883,9.231,6.516,3.22,1.63,-2.598
33.001,27.131,5.2,8.839,5.947,4.256,4.097,3.622
30.523,22.716,4.909,8.364,5.706,4.816,7.194,9.908
27.343,20.108,2.994,7.213,3.593,4.52,6.341,11.194
25.667,19.509,1.394,6.732,1.706,5.291,3.644,9.129
25.415,19.194,1.13,7.337,1.328,6.617,1.688,7.524
25.071,18.242,2.008,8.481,2.31,7.078,1.585,8.76
24.387,17.815,5.008,10.873,5.549,8.802,5.345,13.422
24.21,18.72,10.576,15.388,11.423,14.274,12.571,19.575
25.397,20.501,17.207,20.995,18.438,21.289,19.254,24.337
27.907,22.861,23.484,26.094,25.06,25.9,23.769,26.767
30.097,24.869,28.521,30.104,30.137,27.815,27.486,28.134
29.658,24.292,30.011,32.001,31.397,28.833,29.099,29.779
24.852,18.93,24.106,28.243,25.405,26.72,23.746,28.543
17.244,10.121,11.137,17.466,12.764,18.012,9.529,18.665
13.082,4.661,0.518,7.513,2.58,8.29,-5.105,5.125
14.976,6.349,0.127,7.021,2.268,6.627,-9.254,0.548
16.479,9.835,4.53,12.501,6.587,10.588,-5.933,3.778
12.438,9.715,5.957,15.473,8.112,11.687,-4.403,4.374
6.34,7.168,6.345,14.559,8.602,9.288,-3.503,2.465
2.913,4.933,8.404,12.368,10.683,7.238,0.074,2.87
1.044,2.59,8.148,8.749,10.566,5.146,1.676,3.49
-3.103,-1.976,3.726,3.124,6.318,1.637,-0.538,3.133
-10.184,-8.73,-0.083,-1.763,2.571,-1.06,-0.458,6.386
-16.97,-14.68,-0.937,-3.78,1.81,-2.052,3.129,12.529
-19.329,-16.28,-1.934,-4.084,1.026,-3.142,3.594,13.983
-15.97,-12.236,-3.612,-2.669,-0.405,-2.816,0.183,10.951
-9.522,-4.8,-1.364,2.673,2.069,2.407,2.155,13.2
-3.206,1.987,5.864,10.783,9.416,10.508,12.732,22.284
0.885,5.061,9.5,15.391,13.036,14.362,17.852,25.073
1.791,4.155,4.192,13.539,7.751,11.838,7.945,16.158
1.335,1.763,-0.966,10.034,2.768,8.65,-2.642,8.891
2.394,0.216,2.192,8.437,6.101,8.332,-0.607,10.827
4.586,-0.324,8.544,7.447,12.427,9.386,6.439,14.59
3.469,-2.17,9.556,5.075,13.221,8.706,7.238,13.127
-2.776,-6.886,4.393,0.981,7.847,3.984,2.196,5.44
-7.029,-9.348,1.195,0.712,4.506,1.089,1.071,0.4
-3.172,-4.057,5.479,9.455,8.671,7.751,8.928,7.924
3.253,3.741,10.272,19.229,13.488,16.689,15.883,17.185
5.016,5.988,7.809,19.066,11.196,15.726,11.545,10.929
3.38,4.181,2.983,12.969,6.371,9.195,3.44,-1.445
1.325,2.715,4.245,10.698,7.394,8.26,5.23,0.278
-1.729,0.371,11.051,11.805,14.156,11.725,15.961,12.45
-7.074,-5.692,15.712,9.597,19.116,10.647,22.896,16.86
-16.77,-16.456,9.999,-0.251,13.486,0.31,15.253,5.87
-29.973,-28.68,-3.612,-13.503,-0.655,-13.55,-1.453,-9.992
-40.169,-35.673,-12.792,-20.133,-10.503,-20.514,-10.613,-16.034
-43.987,-36.488,-15.862,-19.638,-13.809,-21.129,-11.942,-15.363
-42.506,-35.092,-17.696,-17.76,-15.636,-20.673,-12.705,-14.651
-35.847,-32.315,-12.27,-12.089,-10.447,-14.613,-3.096,-3.025
-29.215,-30.783,0.758,-2.382,2.145,-2.583,18.947,21.298
-31.534,-36.008,4.141,-0.148,5.327,1.261,27.846,32.101
-40.166,-44.402,-8.815,-10.132,-7.456,-9.38,9.807,13.776
-44.255,-46.543,-21.327,-20.135,-19.66,-20.49,-11.012,-9.958
-41.696,-41.818,-21.127,-19.568,-19.169,-19.525,-10.94,-11.942
-37.425,-35.281,-14.528,-11.425,-12.303,-10.769,1.515,1.434
-34.884,-29.64,-11.92,-4.767,-9.491,-5.229,5.381,6.946
-35.347,-26.799,-16.897,-5.145,-14.355,-7.6,-6.198,-3.83
-35.187,-25.765,-23.311,-8.104,-20.738,-11.457,-20.8,-16.964
-28.448,-21.549,-20.805,-4.014,-18.136,-7.267,-21.118,-14.104
-17.238,-13.586,-9.252,6.362,-6.251,2.28,-7.268,1.99
-10.669,-8.483,-0.819,11.14,2.575,5.004,2.073,9.32
-12.5,-10.035,-2.726,5.565,0.819,-1.334,-3.734,-1.114
-18.315,-14.301,-7.519,-1.771,-4.083,-6.904,-13.062,-13.287
-23.474,-16.578,-5.698,-3.222,-2.409,-6.062,-11.946,-12.613
-27.109,-17.062,1.323,-1.603,4.688,-3.151,-2.691,-4.479
-30.153,-19.23,5.666,-4.063,9.273,-4.968,4.33,-1.308
-32.124,-23.77,4.96,-11.107,8.589,-11.916,6.137,-4.17
-31.03,-26.674,3.785,-15.711,7.23,-16.98,7.386,-4.239
-27.906,-26.279,4.546,-14.046,8.117,-15.66,10.324,1.598
-27.137,-26.229,5.142,-9.375,9.156,-11.06,13.194,7.618
-29.913,-28.509,5.093,-4.711,9.215,-6.358,15.954,11.337
-32.453,-30.321,6.108,0.19,9.824,-0.504,19.562,16.479
-31.99,-29.413,7.743,5.208,11.11,6.663,22.077,23.381
-29.632,-26.969,7.886,8.401,11.147,11.875,20.448,26.188
-27.644,-24.852,5.923,7.981,8.807,12.887,14.568,21.453
-27.051,-23.959,2.956,4.517,5.131,10.975,8.035,13.843
-27.169,-24.716,-0.15,-0.141,1.699,6.909,3.737,8.787
-26.163,-25.524,-2.849,-4.8,-0.75,0.147,0.702,5.041
-22.58,-22.703,-2.937,-7.295,-0.725,-5.682,-0.75,1.768
-18.098,-16.871,0.232,-6.472,2.15,-6.367,1.579,1.767
-16.255,-14.091,2.211,-5.991,4.044,-5.523,4.463,2.784
-17.075,-16.705,-0.06,-8.991,2.022,-8.6,2.76,-0.573
-18.456,-21.171,-3.769,-13.539,-1.76,-14.11,-2.401,-7.927
-21.061,-25.162,-6.073,-17.028,-4.436,-17.808,-6.966,-14.598
-25.156,-28.375,-7.516,-18.523,-5.871,-18.366,-9.58,-17.396
-26.908,-28.814,-8.489,-16.903,-6.551,-15.828,-10.851,-16.843
-24.918,-26.036,-8.232,-12.249,-6.268,-10.407,-11.008,-15.111
-24.592,-24.315,-8.913,-8.464,-7.083,-5.231,-10.996,-13.98
-29.034,-26.081,-14.562,-10.143,-12.729,-5.327,-14.259,-16.181
-32.904,-27.782,-23.305,-16.153,-21.413,-10.654,-21.519,-22.176
-31.052,-26.739,-28.037,-20.602,-26.068,-15.274,-26.616,-26.198
-26.116,-24.976,-26.148,-20.315,-24.075,-15.395,-24.28,-22.939
-23.218,-23.851,-21.734,-17.006,-19.737,-13.041,-17.918,-15.472
-22.557,-21.859,-19.224,-13.482,-17.553,-11.455,-14.817,-11.373
-21.002,-18.651,-19.077,-10.84,-17.669,-10.498,-15.989,-11.99
-18.228,-16.496,-19.169,-8.852,-17.738,-8.219,-15.793,-11.442
-18.223,-17.522,-19.005,-7.923,-17.435,-5.475,-12.306,-7.592
-24.3,-21.782,-20.704,-9.453,-19.049,-5.684,-11.244,-6.465
-33.793,-27.645,-25.323,-13.724,-23.552,-9.849,-16.353,-12.015
-39.709,-32.046,-29.532,-17.868,-27.676,-13.78,-21.101,-17.247
-38.778,-32.332,-28.874,-18.522,-27.226,-12.999,-17.469,-14.425
-35.917,-30.512,-25.555,-17.89,-24.33,-10.914,-11.269,-10.491
-36.967,-30.885,-25.984,-20.719,-25.04,-13.983,-14.383,-16.215
-39.38,-32.3,-29.514,-24.34,-28.615,-18.537,-23.679,-25.243
-37.706,-30.809,-30.488,-23.255,-29.498,-17.141,-27.441,-26.199
-34.496,-28.231,-30.513,-21.58,-29.429,-14.799,-28.295,-26.036
-33.378,-27.464,-33.298,-25.057,-32.26,-19.139,-33.983,-34.034
-29.096,-24.716,-32.436,-27.576,-31.453,-23.101,-35.231,-38.411
-20.491,-18.679,-26.052,-24.601,-24.938,-19.971,-26.747,-31.118
-18.967,-17.782,-27.44,-25.945,-26.179,-19.995,-26.555,-29.528
-28.763,-25.752,-39.318,-35.997,-38.188,-29.816,-41.479,-41.976
-38.011,-32.818,-46.466,-42.308,-45.751,-37.591,-52.753,-50.188
-38.853,-31.653,-43.478,-37.779,-43.137,-34.775,-50.929,-44.926
-35.92,-26.929,-37.775,-30.056,-37.463,-27.862,-43.129,-36.147
-32.97,-23.693,-31.241,-24.783,-30.683,-22.893,-32.692,-28.787
-29.235,-21.11,-22.856,-19.925,-22.145,-18.528,-20.435,-20.436
-25.321,-17.61,-16.243,-13.355,-15.64,-12.288,-10.541,-10.792
-22.268,-13.855,-12.988,-6.266,-12.362,-4.96,-4.702,-2.35
-19.819,-12.051,-9.705,-1.113,-8.573,0.413,-0.507,2.722
-19.2,-14.249,-6.997,0.116,-5.435,1.279,0.834,3.244
-22,-19.925,-10.152,-3.978,-8.95,-3.427,-5.807,-3.617
-23.747,-23.372,-14.77,-8.48,-14.316,-8.071,-13.929,-12.453
-18.711,-20.247,-11.38,-5.98,-11.325,-5.099,-12.295,-11.336
-10.988,-16.019,-4.388,-0.727,-4.529,0.28,-7.386,-4.597
-5.778,-14.346,0.099,1.702,-0.244,1.747,-4.631,-1.18
0.462,-8.634,7.892,7.444,7.666,6.626,6.036,6.619
6.362,0.769,16.42,16.008,16.546,15.95,18.737,19.358
1.323,1.094,11.31,13.147,11.46,14.532,12.11,17.071
-14.271,-10.627,-5.508,-3.338,-5.733,-1.985,-9.235,-6.272
-23.735,-18.665,-14.123,-14.342,-14.649,-14.278,-18.363,-25.128
-16.52,-11.284,-6.376,-6.606,-6.887,-6.782,-7.06,-17.126
-1.831,2.22,5.014,8.692,4.616,9.618,7.834,5.02
6.963,8.175,7.52,14.778,7.159,15.664,10.939,13.423
9.691,8.573,5.623,13.726,5.277,12.671,7.472,7.862
10.534,9.974,8.345,16.348,7.927,14.463,9.874,10.517
5.431,7.575,8.67,17.632,7.958,18.01,9.449,17.785
-7.901,-4.037,-2.567,5.481,-3.504,8.408,-7.629,3.178
-19.575,-16.887,-13.648,-12.158,-14.312,-9.206,-25.282,-25.86
-16.199,-16.718,-6.706,-11.839,-6.927,-9.328,-16.834,-25.459
2.377,-1.968,16.237,11.646,16.016,15.5,14.982,16.282
21.154,13.471,38.186,36.431,37.633,40.825,44.683,56.481
24.704,16.117,42.527,39.02,41.697,40.189,48.383,52.085
8.31,2.394,19.955,15.527,18.658,12.28,15.527,5.92
-13.425,-15.183,-11.582,-10.911,-14.071,-15.228,-26.828,-34.762
-18.327,-17.758,-18.236,-14.845,-22.629,-17.761,-34.945,-35.021
-6.592,-6.387,-0.575,-2.785,-6.886,-5.831,-13.436,-15.958
7.14,5.127,15.466,7.791,8.076,3.604,4.32,-2.669
20.358,14.249,24.172,17.727,16.882,14.682,15.326,14.979
35.69,24.531,33.812,29.522,27.444,28.531,30.76,38.294
45.434,32.394,40.008,34.607,34.813,32.188,39.723,44.411
40.666,32.03,33.949,29.867,29.817,22.968,29.265,29.822
28.418,27.868,25.506,27.342,21.989,18.091,18.582,22.455
23.808,29.735,30.279,35.098,26.758,28.748,30.052,36.079
25.566,33.878,37.702,38.938,33.989,38.457,41.964,42.219
20.302,27.974,25.298,22.751,21.55,25.816,19.684,11.762
11.455,17.021,2.537,1.132,-1.358,3.037,-18.408,-28.496
16.052,18.843,1.587,3.146,-2.49,2.156,-20.758,-24.808
32.184,33.62,22.999,25.601,19.173,23.113,12.71,16.677
40.907,44.538,36.508,39.811,33.12,37.315,33.261,41.981
35.043,42.249,29.441,34.452,26.044,32.91,22.161,33.754
21.584,29.635,13.11,18.227,9.135,17.898,-0.177,13.257
12.038,18.545,4.608,6.249,-0.49,6.11,-9.894,4.014
15.385,21.54,14.711,10.577,7.842,9.669,4.237,17.906
25.343,32.784,32.135,22.246,23.303,20.999,26.742,36.898
30.204,37.312,39.538,25.143,29.505,24.351,35.312,36.961
31.643,35.367,38.857,22.288,28.67,22.041,31.988,26.436
34.781,34.499,36.983,22.013,27.096,22.369,27.307,22.086
38.655,35.683,34.852,23.051,25.189,23.874,24.542,22.928
42.6,38.322,35.601,23.877,25.952,24.007,26.515,24.91
45.263,42.588,39.147,24.851,29.353,23.855,31.844,27.115
43.446,46.523,39.79,23.635,29.783,23.501,33.717,25.331
38.285,47.774,37.857,20.049,27.336,22.31,30.893,18.429
34.756,46.193,38.646,18.958,26.805,21.374,28.528,13.138
36.767,45.191,41.931,23.521,27.984,22.566,28.661,14.65
44.801,48.949,43.71,30.325,27.694,25.72,27.536,18.088
53.824,55.755,43.398,33.531,26.353,28.064,23.913,16.403
57.038,60.115,43.709,32.798,27.104,28.726,24.299,13.363
53.408,60.503,44.838,32.518,29.621,29.973,31.38,16.97
45.472,57.035,42.659,32.167,28.81,30.596,35.464,23.318
34.092,47.557,34.33,25.564,21.486,24.761,27.295,18.938
23.039,34,22.061,11.97,10.115,12.041,9.642,0.572
21.79,26.244,14.355,2.497,3.163,4.045,-3.18,-12.126
32.399,30.24,19.283,7.01,8.605,10.2,2.113,-0.279
39.263,35.741,27.871,15.135,17.879,18.562,15.583,19.095
29.551,30.752,24.337,11.375,15.39,13.335,16.925,18.765
14.375,21.406,14.948,2.662,6.931,3.441,12.008,9.39
8.689,18.018,15.664,2.907,8.195,4.424,19.003,15.295
8.942,17.104,22.143,8.245,15.138,11.152,31.212,28.607
7.116,13.28,20.114,8.567,13.701,11.579,28.385,27.094
5.002,9.809,10.325,4.574,4.527,6.702,11.884,12.865
6.422,10.379,4.406,3.155,-0.865,4.489,2.376,5.067
9.69,13.438,5.423,5.384,0.579,6.286,6.431,7.839
12.534,17.285,7.333,7.565,2.81,8.628,11.696,10.447
16.926,23.425,8.71,10.004,4.475,11.795,13.012,9.544
21.096,28.825,10.982,12.969,7.272,14.624,14.118,7.671
18.416,26.459,11.422,12.441,8.601,12.059,13.873,4.256
11.345,19.144,9.149,7.763,7.198,5.019,10.568,-0.62
7.779,14.764,5.9,2.29,4.467,-1.319,4.974,-7.459
6.12,11.905,1.052,-1.729,0.131,-4.693,-2.368,-15.606
1.982,7.241,-4.309,-2.649,-4.303,-4.165,-7.729,-17.891
-1.169,4.964,-6.105,0.184,-5.016,-0.222,-7.19,-11.114
-0.63,7.332,-4.919,3.621,-3.09,3.168,-4.796,-4.693
-1.777,7.822,-6.133,2.949,-3.887,1.711,-7.074,-7.497
-7.806,2.101,-10.735,-1.93,-8.01,-3.656,-11.796,-14.766
-11.469,-2.939,-13.56,-5.927,-10.188,-7.008,-12.976,-17.004
-6.765,-0.459,-11.563,-5.216,-7.618,-5.21,-11.17,-13.871
-1.149,3.902,-8.284,-2.337,-4.098,-2.233,-10.513,-12.308
-4.528,1.703,-8.339,-2.859,-4.221,-3.528,-12.456,-16.242
-14.846,-5.366,-11.051,-7.262,-7.004,-8.559,-14.543,-21.241
-24.413,-11.175,-12.895,-10.912,-8.91,-11.691,-13.459,-20.109
-28.956,-13.069,-11.832,-9.95,-8.079,-9.314,-8.4,-11.631
-27.117,-10.772,-8.142,-5.098,-4.57,-4.27,-2.498,-2.898
-23.213,-7.964,-8.027,-4.026,-4.361,-4.345,-5.305,-5.48
-23.426,-9.559,-16.434,-11.14,-12.515,-11.46,-19.02,-18.691
-23.799,-12.094,-23.632,-16.757,-19.372,-15.168,-25.528,-23.924
-18.625,-10.3,-20.775,-13.537,-16.05,-9.667,-15.407,-15.172
-16.043,-10.094,-18.91,-11.501,-13.606,-6.61,-8.151,-12.372
-25.326,-18.583,-28.704,-20.376,-22.936,-16.108,-18.15,-27.202
-38.309,-29.024,-40.363,-32.033,-34.613,-29.391,-31.729,-43.659
-42.386,-31.662,-43.284,-35.299,-37.83,-34.681,-35.164,-46.429
-41.47,-30.476,-45.001,-34.695,-39.452,-35.641,-37.063,-43.477
-44.22,-32.65,-52.527,-37.559,-46.498,-39.101,-46.322,-46.215
-44.722,-33.092,-55.412,-37.868,-49.299,-39.785,-52.446,-49.332
-35.492,-25.821,-43.837,-28.417,-38.274,-30.754,-43.181,-41.861
-23.949,-16.706,-24.971,-14.154,-19.903,-16.171,-22.224,-24.189
-21.11,-14.4,-13.223,-6.371,-8.257,-7.168,-5.967,-10.761
-27.456,-20.084,-15.495,-10.592,-10.646,-9.847,-9.306,-14.292
-35.897,-28.545,-25.187,-20.25,-20.511,-18.697,-26.364,-26.917
-41.04,-34.267,-29.232,-24.733,-24.4,-24.59,-34.553,-30.525
-42.936,-36.902,-22.509,-22.151,-17.183,-25.167,-23.915,-21.412
-44.306,-40.494,-12.67,-19.594,-6.734,-24.553,-7.762,-13.082
-47.889,-47.426,-12.312,-23.795,-5.932,-28.092,-4.731,-17.264
-56.009,-56.137,-27.046,-34.687,-20.662,-37.315,-20.11,-30.366
-68.386,-64.527,-49.335,-48.186,-43.147,-49.243,-43.459,-45.085
-77.464,-68.952,-62.406,-56.955,-56.283,-56.108,-55.298,-54.992
-73.481,-64.121,-55.648,-52.317,-49.868,-50.047,-43.423,-48.424
-60.731,-53.665,-40.162,-39.14,-35.385,-37.56,-22.5,-29.249
-52.193,-47.514,-33.603,-31.762,-29.996,-31.822,-14.784,-18.178
-48.197,-45.78,-34.471,-30.861,-31.676,-30.901,-16.903,-18.243
-43.97,-44.328,-34.252,-29.667,-32.006,-28.352,-17.165,-18.499
-43.397,-45.37,-35.619,-30.716,-33.773,-28.876,-19.425,-20.226
-46.141,-47.156,-40.391,-35.436,-38.513,-34.017,-26.808,-27.788
-43.987,-42.465,-41.626,-35.931,-38.968,-34.008,-30.667,-33.185
-37.078,-33.944,-35.963,-29.732,-32.02,-26.157,-25.227,-28.881
-33.972,-32.177,-31.192,-27.013,-26.201,-23.455,-19.354,-23.989
-35.983,-37.386,-34.234,-32.968,-28.841,-32.233,-24.289,-29.736
-36.168,-39.359,-38.058,-37.284,-32.612,-38.956,-33.088,-38.264
-31.225,-34.293,-32.342,-30.955,-26.735,-32.397,-29.618,-35.322
-22.734,-26.353,-18.298,-17.709,-12.387,-17.936,-12.701,-19.526
-13,-17.189,-5.232,-4.613,0.794,-4.139,2.913,0.648
-7.729,-8.678,-1.657,2.812,4.135,3.474,4.085,12.052
-12.27,-7.395,-7.328,0.278,-1.813,-0.044,-4.849,6.375
-20.466,-13.105,-10.625,-6.725,-5.023,-9.367,-6.409,-3.151
-21.093,-16.061,-4.624,-7.275,1.402,-11.817,3.397,0.199
-16.217,-13.766,0.358,-3.641,6.655,-8.291,7.427,5.918
-16.546,-13.813,-4.122,-4.52,2.052,-7.49,-0.835,1.006
-22.106,-18.476,-8.166,-6.297,-2.144,-6.622,-3.245,-1.176
-23.638,-21.688,-3.56,-3.184,2.481,-2.039,8.3,8.221
-20.321,-21.89,-0.998,-2.547,4.868,-2.06,14.192,12.237
-20.23,-23.865,-8.569,-9.817,-3.214,-9.804,4.027,2.913
-23.073,-26.537,-14.843,-14.772,-9.903,-13.756,-4.38,-2.51
-20.418,-24.054,-10.096,-9.785,-5.099,-8.169,1.009,5.013
-11.224,-16.288,-0.462,-1.367,4.86,-0.563,10.977,14.48
-3.038,-8.107,4.591,2.674,10.006,2.613,14.511,16.237
-1.668,-3.956,1.974,0.415,7.15,0.6,8.748,9.445
-4.99,-4.423,-3.773,-4.987,1.139,-3.813,0.602,0.435
-6.751,-5.842,-5.853,-7.842,-1.119,-5.802,0.808,-1.008
-5.693,-5.686,-4.762,-7.258,-0.15,-4.826,6.985,2.903
-6.781,-6.019,-7.485,-8.241,-2.865,-6.068,4.316,-2.407
-11.689,-8.739,-15.283,-12.613,-10.593,-11.52,-9.754,-17.14
-14.294,-11.146,-20.086,-15.423,-15.396,-15.62,-19.782,-23.271
-10.806,-10.411,-18.336,-13.878,-13.874,-13.967,-19.583,-17.116
-5.315,-7.683,-15.332,-11.036,-11.53,-9.561,-18.058,-12.762
-2.473,-6.18,-13.522,-10.234,-10.587,-8.701,-17.706,-14.968
-3.275,-8.106,-11.058,-11.795,-8.677,-12.808,-13.995,-16.223
-5.239,-10.962,-7.951,-11.967,-5.733,-15.169,-7.786,-10.43
-6.54,-11.573,-6.949,-9.328,-4.863,-12.612,-5.327,-2.054
-10.252,-12.954,-9.663,-8.318,-7.808,-10.345,-7.612,0.086
-15.602,-16.007,-11.211,-8.209,-9.513,-8.033,-6.219,-0.089
-14.403,-14.407,-5.875,-3.679,-4.265,-1.533,2.766,6.059
-6.514,-8.06,1.391,2.032,2.921,3.844,11.318,13.67
-3.566,-6.751,-0.197,0.761,1.328,0.733,10.705,13.969
-11.741,-15.789,-13.435,-9.707,-11.884,-10.412,-2.098,4.748
-22.989,-28.49,-29.477,-24.12,-28.006,-24.182,-22.073,-12.22
-26.012,-33.791,-35.948,-32.037,-34.7,-31.186,-33.63,-26.123
-20.915,-29.196,-30.773,-28.038,-29.751,-25.507,-27.668,-25.047
-17.451,-23.257,-23.379,-20.305,-22.37,-15.119,-15.224,-14.834
-19.256,-22.1,-18.657,-16.942,-17.448,-9.793,-6.874,-6.172
-21.184,-22.56,-14.459,-15.072,-13.077,-8.455,-1.453,1.134
-22.912,-23.387,-16.434,-15.02,-15.184,-10.991,-5.7,0.486
-26.58,-26.309,-28.598,-20.966,-27.853,-19.013,-24.168,-15.706
-25.006,-25.889,-35.855,-25.449,-35.698,-23.489,-36.183,-30.486
-15.03,-19.203,-28.93,-22.176,-29.129,-19.351,-29.51,-28.86
-7.29,-14.048,-21.647,-18.208,-21.965,-15.214,-21.526,-21.352
-6.384,-13.09,-20.312,-15.633,-20.666,-12.807,-19.703,-15.389
-3.697,-9.364,-13.364,-8.089,-13.757,-5.227,-11.351,-5.644
4.441,-1.549,0.472,1.626,0.083,3.971,3.102,5.052
10.033,2.805,5.962,2.681,5.633,3.798,6.322,5.494
7.638,-0.004,-1.699,-5.11,-1.999,-4.277,-3.926,-2.881
2.856,-4.832,-8.505,-9.808,-8.743,-7.159,-9.086,-5.192
1.662,-6.991,-6.683,-6.99,-6.618,-2.305,-2.843,1.264
3.547,-5.893,-2.351,-2.776,-1.851,1.37,3.404,5.903
7.668,-1.312,1.676,0.287,2.328,2.023,6.51,7.524
13.572,4.617,6.969,2.925,7.337,3.385,11.246,11.658
18.341,8.137,10.519,3.756,10.378,4.728,14.912,16.303
19.004,7.752,7.995,1.829,7.449,3.622,12.011,16.348
14.547,2.307,-0.328,-3.279,-0.857,-1.056,3.276,10.628
7.736,-6.574,-9.17,-9.894,-9.369,-7.324,-5.683,2.202
4.603,-11.537,-11.744,-12.075,-11.99,-8.83,-8.171,-1.969
6.715,-9.723,-7.222,-8.737,-8.092,-4.553,-3.197,0.348
9.782,-6.834,-1.36,-6.089,-2.61,-1.638,2.858,2.474
11.793,-6.06,2.425,-5.51,1.509,-1.954,5.843,2.02
13.466,-5.38,4.859,-3.22,4.433,-0.823,7.066,4.275
13.653,-4.002,7.22,1.642,6.983,3.383,10.027,11.944
11.328,-3.276,10.85,6.951,10.621,8.498,17.412,21.684
7.832,-4.585,13.205,8.589,12.902,9.926,22.245,24.264
5.184,-7.113,9.707,4.651,9.289,5.241,13.668,13.883
4.435,-7.37,4.478,0.897,4.078,0.699,-0.188,1.825
4.519,-4.54,5.004,2.435,4.775,2.407,-0.904,2.46
3.904,-2.401,8.76,5.104,8.618,5.729,9.02,10.917
3.58,-2.499,9.692,4.183,9.381,4.243,13.042,13.92
5.126,-1.891,9.97,3.196,9.296,1.183,10.454,12.362
6.244,-0.831,13.331,6.1,12.386,2.282,12.926,15.688
3.743,-3.399,15.574,8.904,14.755,5.085,19.33,21.372
1.519,-7.201,13.339,7.457,12.82,5.774,19.186,19.856
4.281,-6.553,10.839,4.553,10.168,6.512,13.868,13.463
6.463,-4.551,9.801,3.39,8.467,8.589,12.138,11.865
2.845,-5.754,7.26,3.821,5.478,9.825,14.03,16.529
-0.144,-5.915,3.922,5.196,2.476,9.172,13.66,19.869
2.757,-1.806,2.882,5.753,2.316,6.196,9.984,16.157
5.973,2.046,4.395,4,4.563,1.721,7.781,10.152
4.783,2.778,6.422,1.369,6.701,-0.662,8.594,8.689
4.351,3.7,7.29,-0.521,7.17,0.513,7.418,8.993
11.286,7.986,7.624,-0.621,7.095,3.258,3.167,7.651
21.902,13.546,8.207,1.662,7.567,5.537,1.362,8.502
26.272,15.908,8.999,5.149,8.482,6.75,5.422,14.224
22.541,14.459,9.64,7.73,9.35,7.297,10.761,19.509
17.746,12.13,7.19,6.684,7.16,5.985,7.103,15.558
17.421,11.967,2.844,3.641,3.021,3.725,-3.465,6.128
20.669,15.004,3.206,4.115,3.451,4.875,-6.945,3.626
23.019,18.661,6.436,6.384,6.584,7.602,-4.151,5.438
24.318,21.941,8.561,7.73,8.453,9.126,-0.644,6.794
29.594,28.712,14.681,12.78,14.199,13.989,10.275,15.134
39.796,40.182,23.897,20.818,23.129,21.59,23.259,25.231
50.117,51.927,26.154,24.605,25.307,25.031,20.832,21.963
57.491,60.239,21.587,24.249,20.644,25.547,6.975,11.689
63.523,65.794,22.271,26.691,21.078,30.006,4.662,14.234
68.524,69.052,31.949,31.993,30.476,36.425,18.64,27.359
68.089,67.302,39.511,32.522,37.746,36.568,28.988,29.876
63.258,62.483,39.722,30.05,37.674,33.52,28.22,23.011
62.989,61.208,41.022,33.259,38.886,36.169,29.673,26.698
68.568,63.091,45.115,37.778,43.072,38.916,34.943,36.189
72.735,63.963,43.676,35.474,41.714,33.962,32.761,34.026
73.993,65.332,37.675,32.396,35.689,29.725,24.558,26.552
76.65,70.004,38.454,37.606,36.313,35.135,24.327,29.466
81.3,76.546,48.794,48.528,46.542,44.851,37.736,41.5
82.569,79.829,55.769,54.186,53.746,48.229,48.931,46.994
78.175,77.018,50.247,49.239,48.605,42.745,41.633,37.424
72.618,71.336,42.034,40.667,40.434,35.686,28.08,24.867
66.879,64.881,40.898,35.555,39.09,32.273,27.368,23.511
61.898,59.652,42.201,34.765,40.497,32.462,35.226,31.738
65.669,62.121,44.001,39.696,42.741,38.307,43.547,43.224
76.997,70.295,49.694,47.572,48.623,47.34,52.865,52.523
82.381,72.154,51.223,47.702,49.803,48.233,52.312,49.087
77.513,65.127,41.641,37.561,39.728,38.712,35.009,32.819
69.554,57.702,32.244,28.816,29.962,31.24,20.463,21.331
63.002,54.873,34.102,30.341,31.312,34.363,23.586,24.528
58.402,55.601,43.939,39.452,40.452,44.368,36.552,36.041
55.342,56.395,52.582,47.402,48.786,51.636,47.772,45.552
52.333,54.091,52.907,47.799,49.535,50.225,49.84,46.131
49.952,50.635,46.246,43.118,43.327,44.434,43,39.532
49.551,49.427,40.025,38.982,36.845,40.611,35.28,31.366
49.022,48.941,36.677,36.653,32.859,38.989,31.057,25.971
47.547,48.38,35.308,36.72,30.978,38.916,30.557,28.663
48.124,50.099,38.214,39.889,33.423,40.845,36.458,39.45
49.957,51.833,44.18,42.415,39.045,42.464,45.958,48.609
47.458,48.215,44.096,38.264,38.961,38.926,44.956,44.076
38.727,39.885,32.946,26.482,27.914,28.085,27.074,24.306
30.071,34.447,20.954,16.588,15.806,18.392,10.345,8.049
28.839,36.996,21.052,19.096,15.736,21.06,13.056,13.315
33.279,43.255,29.637,29.833,24.362,31.603,25.343,28.656
37.302,47.645,36.52,38.631,31.416,38.561,31.386,35.309
40.079,49.958,41.197,43.927,36.215,41.098,34.058,35.347
42.777,50.402,44.252,46.734,39.253,42.277,35.785,34.629
44.464,49.28,43.322,46.392,38.151,42.467,30.93,31.508
43.842,48.543,40.719,44.058,35.404,42.107,22.936,27.709
39.777,47.321,37.767,40.227,32.552,39.545,18.475,25.18
34.819,44.452,34.137,36.485,29.243,35.299,18.473,24.34
34.873,42.852,36.019,37.709,31.47,36.001,26.46,30.541
38.955,43.447,43.965,42.038,39.429,41.059,39.115,40.23
40.75,44.226,46.695,42.011,41.592,41.739,40.895,39.095
40.657,46.3,42.477,40.399,36.818,40.528,31.118,31.377
42.948,50.554,42.551,45.271,37.186,46.824,27.88,35.318
45.208,52.232,48.5,51.65,44.018,54.678,36.609,46.366
41.283,46.499,49.028,47.658,45.201,50.074,42.139,43.613
32.096,36.202,39.444,34.263,35.937,35.076,32.969,25.726
24.811,28.108,28.632,23.331,25.431,23.888,17.549,11.002
22.52,24.244,25.966,21.199,23.165,22.486,11.878,10.601
22.311,22.393,30.194,24.703,27.793,26.086,17.897,18.829
21.45,20.916,32.779,28.07,30.656,28.543,23.493,24.125
20.459,20.04,30.009,28.857,28.037,28.262,22.239,22.896
20.972,21.342,27.23,29.31,25.353,28.19,20.824,21.43
22.612,25.466,28.118,31.156,26.246,29.786,23.919,23.576
23.812,30.496,29.118,32.076,27.115,30.359,26.141,24.788
24.691,34.105,28.196,30.914,26.115,28.607,24.023,21.718
27.054,36.485,29.214,31.614,27.299,28.261,23.337,19.23
31.688,39.346,34.198,37.282,32.396,33.154,28.407,23.475
35.482,41.714,37.727,43.999,35.668,40.38,32.981,31.439
33.718,40.533,35.207,46.107,32.965,43.38,31.77,35.303
27.86,36.414,31.857,44.532,29.998,41.753,32.008,35.841
24.019,32.391,32.529,42.311,31.173,39.218,38.044,36.95
21.585,27.355,30.284,36.52,28.933,33.814,38.348,32.84
15.335,19.115,19.252,25.33,17.64,23.47,25.13,20.643
6.648,10.925,7.189,15.525,5.497,14.567,9.328,11.101
1.922,8.28,4.266,13.841,2.569,13.477,4.365,11.841
2.736,11.178,9.251,17.455,7.504,17.088,8.681,16.736
3.409,13.213,13.28,18.31,11.675,17.532,11.89,17.197
0.997,11.237,14.586,16.179,13.39,14.848,13.627,16.335
-0.529,8.959,18.78,17.653,17.949,16.066,20.752,21.815
-0.448,7.56,24.152,21.235,23.385,19.892,27.411,27.142
-1.958,4.148,24.078,20.626,23.167,19.343,23.563,23.794
-4.263,-1.112,19.919,17.506,18.715,15.945,14.361,19.105
-4.55,-4.809,16.808,15.963,14.995,14.62,8.122,17.418
-1.944,-4.585,16.966,16.07,14.254,15.622,5.079,13.218
2.025,-1.731,21.262,17.95,17.681,18.15,6.608,10.685
3.725,0.004,26.574,20.782,22.524,20.672,12.83,15.55
3.346,0.734,29.1,23.306,25.309,22.825,19.574,22.606
4.968,3.876,30.631,26.691,27.814,26.854,25.558,27.634
5.347,6.015,28.909,27.347,27.293,28.257,25.695,26.94
-2.118,0.845,17.762,19.732,17.139,20.59,13.069,16.213
-12.244,-6.976,4.342,10.593,4.363,11.334,-1.825,4.604
-14.044,-7.918,3.33,10.918,3.498,11.683,-1.019,6.013
-5.998,-1.807,15.099,18.639,14.948,18.551,13.924,17.776
4.907,5.74,26.424,25.038,26.042,23,26.358,27.163
12.105,11.817,28.708,27.928,28.684,24.275,27.443,29.396
14.283,15.13,25.738,29.371,26.375,25.456,22.229,27.78
13.544,14.454,22.661,28.362,23.628,24.68,16.503,23.323
10.261,10.402,17.065,21.591,18.021,18.128,8.509,13.755
6.035,6.323,9.392,11.582,10.472,9.485,0.501,3.468
5.887,5.517,6.911,6.773,8.308,7.612,0.91,1.267
8.573,6.249,8.381,8.281,9.961,11.896,5.818,4.244
7.21,5.042,6.23,9.367,7.85,13.637,4.171,3.083
2.172,3.83,3.646,10.077,5.347,12.727,0.604,1.245
0.27,6.288,8.366,16.145,10.141,15.959,6.418,7.834
4.939,12.055,18.624,27.297,20.522,24.317,19.557,21.176
11.827,17.435,25.747,36.056,28.01,31.969,28.898,30.889
12.417,17.812,22.624,34.379,25.255,31.353,26.004,27.43
6.602,13.836,11.61,24.73,14.231,23.007,12.517,13.374
4.204,12.153,3.813,19.111,6.153,17.429,0.679,3.314
7.981,14.539,4.278,20.613,6.464,18.481,-0.187,4.431
10.759,16.419,6.374,21.339,8.701,19.265,5.171,9.229
10.756,16.312,5.274,18.33,7.764,16.627,7.107,9.895
11.509,16.01,3.887,15.424,6.228,13.996,4.798,7.112
10.478,14.982,2.99,13.607,5.001,12.784,2.546,3.835
3.901,11.741,-0.957,9.843,0.94,10.128,-0.34,-1.094
-4.483,7.25,-7.417,3.485,-5.383,4.001,-6.221,-8.206
-8.291,4.876,-10.711,-0.767,-8.542,-1.361,-10.912,-11.192
-4.302,8.552,-7.022,2.273,-4.815,1.055,-7.609,-3.978
5.529,17.427,0.592,9.997,2.713,9.254,1.413,6.89
14.626,24.305,5.912,13.856,7.741,13.283,6.821,9.044
18.152,24.411,7.04,11.76,8.521,10.47,6.62,3.555
15.893,19.455,4.527,8.468,5.954,6.179,4.232,-0.087
10.442,12.8,-0.963,5.776,0.853,2.814,0.211,-1.188
5.976,7.594,-5.314,3.437,-3.001,0.418,-2.38,-2.325
3.549,4.919,-7.841,1.06,-5.473,-1.009,-3.799,-3.94
1.511,2.749,-13.549,-3.951,-11.616,-4.108,-12.087,-9.565
1.001,0.841,-20.096,-10.39,-18.494,-9.274,-23.079,-17.98
1.279,0.536,-19.998,-12.329,-18.222,-11.695,-21.767,-20.527
-2.497,-0.625,-16.102,-9.599,-13.971,-9.931,-11.12,-15.675
-10.859,-6.376,-19.04,-9.683,-16.891,-10.315,-11.618,-13.545
-19.405,-15.14,-29.173,-15.952,-27.336,-16.691,-27.39,-21.12
-25.191,-21.524,-34.453,-21.307,-32.792,-22.263,-37.509,-30.308
-26.844,-22.861,-29.507,-18.721,-27.676,-19.35,-30.055,-28.788
-24.732,-21.84,-22.274,-12.405,-20.37,-11.7,-17.874,-18.15
-24.311,-23.791,-22.236,-13.176,-20.784,-11.107,-17.115,-14.826
-28.782,-28.661,-29.794,-22.83,-28.879,-20.885,-28.793,-28.098
-32.286,-29.959,-35.783,-30.072,-34.857,-29.662,-38.694,-42.497
-32.004,-28.043,-36.64,-29.865,-35.455,-31.527,-38.958,-43.804
-33.293,-30.072,-39.038,-30.792,-37.867,-34.587,-39.393,-42.538
-35.555,-32.991,-41.288,-33.514,-40.204,-38.58,-41.439,-44.534
-31.626,-27.195,-34.058,-27.18,-32.917,-31.751,-31.698,-35.873
-21.774,-14.912,-19.645,-12.203,-18.634,-15.087,-11.616,-14.794
-12.558,-6.354,-9.301,-2.274,-8.71,-3.983,0.236,-1.181
-7.539,-3.697,-7.42,-3.308,-7.007,-4.979,-2.882,-5.281
-6.561,-1.744,-8.371,-7.262,-7.611,-9.066,-7.73,-13.04
-6.614,1.543,-6.143,-6.848,-5.014,-8.729,-3.474,-10.438
-4.399,4.266,-2.5,-4.352,-1.424,-6.821,3.817,-3.262
-0.889,5.537,-3.294,-5.065,-2.527,-8.665,2.504,-5.015
2.113,5.586,-9.496,-9.765,-8.958,-14.702,-8.782,-17.017
5.501,5.106,-14.706,-13.688,-14.131,-19.076,-18.309,-25.664
6.589,4.32,-14.419,-13.584,-13.573,-17.653,-16.926,-21.535
1.457,2.513,-12.159,-13.253,-11.144,-14.991,-10.834,-12.947
-4.038,1.469,-10.867,-15.743,-10.031,-15.345,-8.559,-10.701
-2.223,3.601,-9.268,-17.871,-8.628,-16.343,-9.585,-13.518
3.727,7.264,-6.671,-16.002,-5.907,-14.583,-9.752,-13.781
7.883,10.006,-2.796,-10.037,-1.905,-9.538,-6.187,-8.01
10.086,11.367,1.183,-3.757,1.888,-4.503,-0.92,-1.534
12.121,11.282,1.677,-1.995,2.146,-3.832,-0.08,-1.553
17.84,11.403,-0.851,-3.649,-0.423,-6.334,-4.743,-6.386
29.764,14.508,0.429,-1.933,0.819,-5.457,-7.039,-7.169
34.617,17.731,6.888,4.361,7.081,0.498,-1.592,-0.38
16.003,12.576,6.717,5.687,6.773,2.552,2.399,4.608
-12.272,-2.092,-7.014,-4.895,-6.917,-6.789,-6.55,-3.357
-21.09,-14.709,-21.032,-18.696,-21.011,-20.099,-22.358,-19.701
-11.155,-16.731,-22.158,-23.309,-22.478,-25.356,-30.215,-29.231
-8.075,-14.333,-17.036,-20.569,-17.663,-23.141,-27.119,-27.185
-19.683,-16.301,-17.099,-19.853,-17.771,-21.876,-21.446,-22.446
-30.484,-22.497,-22.5,-24.258,-23.056,-25.293,-21.755,-23.469
-36.429,-30.221,-30.143,-32.356,-30.586,-32.818,-31.245,-31.266
-47.939,-37.556,-38.21,-40.577,-38.572,-41.293,-43.168,-40.304
-56.558,-39.961,-40.516,-43.191,-40.74,-45.264,-45.935,-43.271
-44.121,-35.552,-33.073,-38.587,-33.052,-42.778,-38.857,-38.956
-21.108,-28.593,-20.907,-29.927,-20.715,-35.417,-28.888,-29.988
-12.604,-23.592,-10.974,-20.778,-10.8,-25.319,-17.595,-17.963
-21,-23.166,-8.715,-16.896,-8.474,-19.316,-9.979,-11.258
-29.955,-27.622,-17.467,-23.689,-16.97,-24.846,-18.011,-21.905
-27.365,-31.03,-29.609,-35.541,-29.049,-36.266,-37.483,-43.406
-16.877,-27.098,-31.965,-39.322,-31.61,-39.43,-46.447,-52.876
-14.83,-20.509,-26.053,-33.079,-25.773,-32.32,-37.875,-42.556
-28.085,-21.1,-24.11,-28.144,-23.832,-27.137,-27.447,-29.323
-39.742,-28.055,-27.65,-30.547,-27.74,-30.44,-26.396,-28.235
-33.263,-31.551,-28.733,-34.177,-29.448,-35.267,-29.748,-33.759
-19.074,-29.132,-26.672,-34.746,-27.724,-36.702,-31.832,-36.656
-17.546,-27.334,-27.066,-35.503,-28.029,-38.175,-33.744,-39.001
-27.178,-28.003,-29.092,-36.707,-29.881,-39.249,-33.656,-40.042
-29.687,-26.684,-27.292,-34.567,-28.027,-35.954,-27.992,-33.879
-20.68,-22.178,-21.711,-29.661,-22.359,-30.334,-21.062,-25.238
-14.633,-17.785,-17.116,-25.032,-17.508,-26.114,-18.404,-21.631
-17.498,-16.236,-15.486,-21.16,-15.577,-22.869,-17.559,-18.929
-15.474,-16.694,-13.779,-17.747,-13.653,-19.409,-13.97,-11.936
-0.689,-15.858,-9.994,-15.234,-9.673,-16.473,-9.094,-5.444
8.628,-14.009,-9.161,-15.546,-8.707,-16.755,-9.354,-7.084
-4.786,-14.202,-14.647,-19.553,-14.304,-20.911,-15.534,-15.29
-22.53,-13.945,-19.331,-22.585,-19.288,-23.668,-19.135,-19.888
-20.022,-10.143,-18.098,-21.275,-18.33,-21.646,-16.655,-17.24
-7.739,-6.496,-15.214,-18.594,-15.67,-18.181,-13.762,-13.234
-3.442,-5.744,-13.396,-16.659,-13.946,-15.686,-12.976,-10.919
-4.121,-7.222,-13.054,-16.621,-13.363,-15.078,-13.42,-10.654
-6.891,-11.919,-16.805,-20.84,-16.742,-18.569,-16.711,-14.953
-14.846,-18.461,-23.085,-27.162,-22.948,-24.702,-22.375,-22.84
-22.195,-22.07,-26.354,-31.005,-26.331,-29.332,-26.007,-29.195
-21.546,-22.378,-26.76,-33.005,-26.66,-32.051,-27.065,-33.092
-17.705,-23.713,-29.397,-36.787,-29.219,-35.122,-30.186,-38.298
-18.957,-26.809,-34.493,-41.704,-34.649,-38.515,-35.132,-43.791
-22.391,-26.658,-36.244,-42.804,-36.825,-38.99,-34.85,-43.267
-21.192,-20.925,-31.949,-38.38,-32.462,-34.932,-27.617,-36.487
-18.15,-14.551,-26.121,-32.972,-26.342,-29.988,-20.998,-30.631
-18.519,-12.079,-24.014,-30.906,-24.356,-28.135,-20.663,-29.379
-19.259,-12.507,-25.639,-31.701,-26.383,-28.875,-24.339,-30.593
-15.914,-13.444,-27.572,-32.592,-28.543,-29.826,-27.516,-32.525
-11.764,-13.502,-27.526,-31.623,-28.574,-29.484,-27.953,-33.982
-11.763,-11.956,-25.657,-28.718,-26.718,-27.47,-25.228,-32.671
-12.965,-9.501,-22.198,-24.935,-23.174,-23.951,-19.384,-27.515
-8.949,-6.696,-15.503,-20.265,-16.465,-18.661,-10.02,-19.518
-2.072,-4.103,-7.153,-15.587,-8.171,-13.537,-0.516,-12.64
-1.7,-5.225,-4.72,-15.267,-5.677,-13.569,0.806,-12.491
-8.624,-11.792,-9.645,-20.069,-10.647,-18.706,-5.67,-16.873
-15.313,-19.182,-13.517,-24.382,-14.882,-23.042,-9.491,-18.421
-19.253,-23.312,-13.526,-26.627,-15.196,-25.688,-10.345,-20.539
-19.882,-24.631,-14.016,-28.827,-15.508,-28.51,-14.898,-27.963
-16.651,-24.721,-15.34,-28.772,-16.375,-28.158,-18.649,-31.097
-16.617,-24.55,-15.906,-25.416,-16.711,-23.69,-15.916,-23.79
-20.682,-22.155,-14.535,-20.888,-15.356,-19.144,-10.166,-14.601
-17.115,-16.063,-9.327,-15.83,-10.142,-15.502,-4.533,-10.038
-6.564,-11.673,-3.11,-12.262,-3.957,-12.612,0.103,-8.482
-2.606,-12.833,-0.519,-11.845,-1.482,-11.734,2.07,-7.616
-6.434,-15.248,-0.126,-11.209,-1.11,-11.427,1.763,-6.363
-9.19,-16.085,1.233,-7.669,0.456,-9.128,1.59,-4.213
-7.488,-15.69,3.243,-2.659,2.915,-4.723,2.928,-0.867
-3.18,-12.772,4.673,1.53,4.575,-0.382,4.663,2.822
-0.349,-10.351,4.146,2.016,3.612,0.108,3.778,3.443
-2.539,-14.206,0.192,-2.08,-0.82,-4.132,-0.45,-0.146
-7.309,-20.618,-4.508,-5.997,-5.311,-7.889,-3.108,-2.611
-10.397,-21.368,-5.545,-6.471,-5.962,-7.831,-0.698,-0.406
-13.523,-18.261,-5.157,-7.436,-5.721,-7.655,1.499,1.496
-18.214,-18.178,-7.363,-11.265,-8.425,-9.633,-1.558,-1.149
-19.066,-20.931,-8.814,-13.964,-10.367,-10.733,-5.485,-4.419
-13.791,-22.776,-5.378,-12.811,-7.356,-9.511,-4.248,-2.984
-9.776,-23.286,-0.065,-9.23,-2.312,-7.422,1.099,2.659
-11.462,-21.719,3.285,-3.913,0.872,-3.717,6.517,7.996
-13.022,-15.871,6.078,2.839,3.339,2.284,10.586,10.019
-10.573,-9.151,8.3,6.038,5.093,4.929,11.186,8.206
-7.568,-7.882,6.332,1.346,2.806,-0.43,6.768,3.948
-6.615,-10.81,0.834,-6.148,-2.822,-7.97,0.996,-0.832
-9.199,-12.529,-4.914,-9.99,-8.697,-11.66,-3.801,-7.168
-16.144,-12.886,-10.39,-11.799,-14.196,-13.952,-8.53,-14.659
-21.365,-13.786,-15.233,-14.192,-18.744,-16.679,-12.665,-18.981
-18.304,-13.462,-17.75,-14.51,-20.824,-16.667,-15.694,-19.446
-12.335,-11.189,-16.083,-10.496,-18.842,-12.614,-15.367,-16.942
-11.271,-9.508,-9.484,-4.079,-11.989,-6.726,-8.081,-8.112
-10.068,-7.314,-0.466,2.744,-2.656,-0.084,2.81,5.751
-1.561,-1.188,6.393,9.324,4.474,6.998,9.149,14.584
7.158,5.24,7.987,13.229,6.093,11.455,8.146,12.78
4.661,4.519,4.092,11.466,2.066,9.941,2.76,5.733
-5.249,-1.98,-1.303,5.555,-3.192,4.264,-2.384,0.758
-7.805,-4.638,-1.925,1.527,-3.311,0.554,-2.777,0.038
0.956,0.909,3.815,3.896,2.824,2.781,3.023,2.868
9,8.821,10.791,11.133,9.687,9.121,11.423,8.254
7.972,12.839,13.273,17.856,11.619,15.035,16.566,13.739
6.454,14.335,11.225,20.724,8.997,18.008,16.72,16.481
12.451,16.579,8.872,20.405,6.402,18.353,15.332,15.701
17.157,17.561,8.089,19.203,5.633,17.859,14.996,12.99
11.977,14.536,7.212,18.387,4.759,17.859,15.624,11.758
4.4,9.662,5.061,16.87,2.592,17.199,16.185,13.116
3.568,6.066,2.261,13.408,-0.171,14.316,14.646,13.49
3.569,2.301,-1.332,8.322,-3.703,9.559,9.652,9.96
-5.671,-3.982,-6.405,2.267,-8.588,4.114,3.329,4.378
-15.997,-8.555,-9.066,-2.032,-10.93,0.893,1.795,2.267
-11.493,-6.46,-5.338,-1.945,-6.927,1.715,7.265,5.532
0.022,-3.562,-2.015,-2.014,-3.265,1.238,9.932,5.977
-1.895,-7.77,-7.222,-7.165,-7.987,-4.995,2.216,-2.158
-13.455,-13.921,-14.314,-12.37,-14.791,-10.768,-5.606,-9.927
-16.247,-14.052,-13.647,-12.328,-14.095,-10.532,-3.369,-9.006
-10.575,-12.737,-10.024,-11.032,-10.323,-8.943,0.857,-5.128
-8.505,-16.526,-10.001,-11.862,-10.001,-9.391,0.013,-3.982
-11.387,-21.727,-8.631,-11.786,-8.493,-8.678,2.11,-0.992
-15.096,-23.796,-4.477,-10.138,-4.334,-6.904,8.923,5.398
-20.11,-24.479,-5.16,-9.929,-4.796,-7.442,9.448,8.119
-24.578,-24.751,-9.7,-10.65,-8.976,-8.882,2.54,4.847
-23.152,-22.809,-8.768,-9.625,-8.096,-7.928,-0.852,1.328
-17.172,-19.426,-2.011,-6.879,-1.754,-4.957,2.913,1.453
-10.899,-18.002,3.375,-4.229,3.498,-2.074,7.383,4.019
-5.191,-19.99,5.204,-3.236,5.463,-0.893,8.477,6.599
-5.52,-23.202,4.679,-4.531,4.906,-2.32,6.862,7.109
-15.105,-25.062,0.849,-7.916,0.914,-6.061,2.106,3.166
-22.509,-25.789,-5.129,-12.267,-5.246,-10.336,-5.247,-4.552
-20.184,-27.211,-9.767,-16.102,-10.092,-13.571,-11.598,-11.183
-17.025,-29.342,-12.717,-18.909,-13.066,-16.362,-14.946,-14.119
-17.677,-28.914,-13.998,-19.422,-14.266,-18.115,-15.25,-14.027
-15.263,-23.368,-11.247,-15.653,-11.723,-15.708,-12.197,-10.634
-8.908,-15.321,-5.256,-9.083,-5.837,-9.442,-6.4,-4.108
-5.149,-8.633,-0.291,-3.43,-0.238,-3.113,0.153,2.622
-4.339,-4.636,2.015,-1.176,2.769,0.652,4.388,5.107
-3.425,-6.03,0.851,-4.845,1.618,-1.229,1.557,-0.061
-3.456,-13.006,-3.902,-12.15,-3.238,-8.265,-7.799,-8.793
-4.027,-17.35,-6.466,-13.676,-5.666,-11.564,-13.486,-10.932
-3.256,-14.945,-4.845,-8.761,-4.196,-8.261,-12.277,-7.478
-3.642,-12.85,-5.621,-7.937,-5.366,-7.362,-12.381,-8.493
-6.225,-13.829,-8.163,-11.725,-7.911,-10.614,-13.259,-11.232
-6.036,-11.682,-5.365,-10.37,-4.653,-9.236,-8.106,-6.86
-1.878,-6.234,0.484,-4.255,1.677,-2.748,-1.061,0.206
1.401,-3.496,3.077,-1.842,4.408,0.859,1.262,2.127
4.683,-1.707,4.204,-2.39,5.28,1.64,1.969,1.743
13.045,4.768,7.443,1.094,8.156,5.838,4.882,4.296
21.483,12.625,10.714,8.385,11.224,12.857,7.532,9.078
17.861,13.698,10.299,12.523,10.734,15.944,7.23,12.369
3.064,7.712,6.783,10.264,7.215,12.594,5.635,11.963
-6.819,2.809,5.343,7.135,5.822,8.992,6.729,10.791
-3.368,3.309,7.419,8.301,7.875,10.441,9.555,11.887
4.5,5.282,7.429,9.86,7.71,12.649,8.381,11.633
6.486,6.234,3.385,7.941,3.381,11.088,4.361,8.425
3.222,8.171,0.386,6.055,0.134,9.204,3.781,7.518
0.185,10.195,0.478,5.976,0.036,9.773,5.046,9.463
-1.527,8.865,0.267,4.001,-0.552,9.341,3.166,8.771
-3.318,4.614,-1.173,-0.598,-2.576,5.71,1.21,5.448
-4.345,0.576,-1.227,-3.584,-3.155,2.816,3.847,4.812
-4.151,-2.809,0.569,-2.854,-1.862,4.198,7.787,7.89
-4.013,-6.37,3.256,-0.144,0.275,7.928,9.409,11.787
-3.786,-8.699,6.694,2.107,3.347,10.256,10.693,14.593
-2.897,-10.119,7.696,0.121,4.128,7.765,10.173,12.439
-0.966,-12.307,3.409,-6.804,-0.573,0.776,3.489,3.1
2.244,-12.665,-2.035,-11.835,-6.634,-3.823,-6.13,-6.419
3.403,-9.704,-3.922,-10.608,-8.956,-2.262,-11.086,-8.86
1.425,-5.946,-1.226,-5.754,-6.271,2.297,-6.913,-4.269
3.554,-0.261,7.082,1.749,2.333,8.885,6.116,5.275
12.918,9.039,18.129,11.539,13.825,17.364,20.261,15.619
20.236,16.232,23.733,18.314,19.887,22.622,24.933,20.624
17.642,15.116,20.928,18.27,17.524,21.579,20.047,19.58
9.51,7.874,15.685,15.07,12.897,18.637,15.706,17.284
2.571,-0.267,11.68,12.202,9.628,16.754,15.028,15.115
-2.888,-7.371,5.696,7.506,4.107,12.487,11.066,10.047
-6.307,-11.576,-1.357,1.39,-2.764,5.622,3.996,3.54
-4.954,-10.851,-3.33,-1.177,-4.402,1.401,2.255,0.87
-1.005,-7.349,-1.221,0.241,-1.537,1.309,5.767,2.249
-0.706,-5.558,-1.681,1.686,-1.038,2.78,6.609,4.706
-6.69,-7.418,-5.216,1.928,-3.898,4.782,3.934,8.098
-13.956,-11.298,-7.085,2.032,-5.555,6.813,3.476,11.648
-15.575,-14.044,-5.876,2.208,-4.248,7.386,5.672,11.687
-11.452,-13.599,-3.532,2.844,-1.661,6.622,6.783,8.413
-6.927,-10.906,-1.22,4.075,0.833,5.941,7.193,6.706
-5.155,-8.752,0.135,4.271,2.131,5.286,8.808,8.186
-4.566,-7.596,-0.306,3.023,1.669,4.448,9.844,9.91
-3.013,-5.002,-1.067,3.401,1.243,5.254,8.229,10.119
-2.28,-0.751,-0.396,7.007,2.455,8.373,5.409,9.894
-4.911,1.419,0.642,10.017,3.766,10.482,3.838,10.06
-7.711,0.134,1.583,9.73,4.577,9.641,4.627,10.404
-5.083,-0.62,4.732,9.538,7.601,8.96,8.159,11.694
1.191,0.918,9.299,11.511,12.36,10.344,12.988,14.716
3.639,1.031,9.528,11.579,12.85,10.61,14.039,16.07
1.554,-0.83,3.357,7.251,6.671,7.319,7.202,10.932
2.01,0.373,-2.693,3.654,0.481,3.99,-2.309,3.39
7.783,6.467,-1.417,6.473,1.738,5.432,-3.396,3.464
13.673,12.804,5.636,12.436,8.806,9.755,5.049,10.552
14.184,13.634,9.597,13.149,12.738,10.289,10.899,13.457
9.625,8.503,6.266,7.973,9.555,6.011,7.551,8.739
5.931,3.946,2.334,5.125,6.063,3.574,3.852,5.09
8.817,5.806,3.33,7.871,7.527,6.145,6.149,6.856
17.254,12.253,5.549,10.734,9.887,9.507,8.114,8.504
23.941,17.917,6.256,10.893,10.316,11.092,6.843,7.677
23.352,20.098,8.129,11.104,11.748,11.853,8.564,8.128
19.272,19.969,12.589,13.045,16.069,12.298,15.689,11.837
19.218,20.45,17.114,15.466,20.842,13.028,22.189,16.884
22.597,22.994,18.606,16.257,22.481,13.674,21.99,18.584
25.027,27.194,18.26,15.268,21.959,13.435,17.582,14.992
28.744,32.916,19.792,15.893,23.403,15.037,16.453,12.184
35.671,39.523,22.514,20.157,26.342,20.056,19.103,14.681
39.719,43.4,22.715,23.916,26.682,23.301,19.65,17.118
37.961,42.123,21.616,23.623,25.314,21.412,18.398,16.031
37.046,38.974,22.949,22.15,26.262,18.769,20.097,16.052
40.69,37.599,25.375,22.106,28.663,18.842,22.934,18.564
44.308,37.767,26.898,22.427,30.419,20.455,23.432,20.118
44.264,38.426,28.705,22.917,32.292,22.687,23.283,20.163
42.254,39.385,30.542,25.048,33.949,25.819,24.344,20.85
41.146,40.017,31.643,28.971,34.873,29.553,26.988,24.368
40.955,38.972,32.595,31.783,35.825,31.886,30.457,29.426
38.87,35.757,32.234,29.989,35.493,29.826,30.848,29.457
34.103,31.954,29.851,24.918,32.998,23.964,26.95,22.547
30.456,29.73,28.213,22.12,31.257,19.255,23.751,16.722
29.965,29.225,28.433,23.712,31.474,18.343,23.726,17.301
30.75,29.752,29.175,27.245,32.14,20.271,25.427,21.49
32.667,31.09,31.553,30.763,34.307,23.863,29.818,26.757
34.119,30.01,34.122,31.761,36.684,25.444,34.691,30.428
29.709,23.432,30.32,27.586,32.844,21.367,31.465,27.382
21.439,16.265,21.403,21.855,24.027,15.916,20.218,19.417
18.795,15.092,18.411,21.241,21.259,16.266,14.442,16.274
21.806,17.24,23.723,24.462,26.803,20.629,19.433,19.821
20.757,16.066,27.023,24.673,29.959,21.366,23.929,20.948
13.53,11.799,22.951,21.277,25.336,17.453,21.072,16.232
6.441,8.654,16.452,18.539,18.462,13.987,16.024,11.343
2.137,6.503,11.205,16.502,13.287,12.175,11.023,8.136
-0.681,2.729,6.444,12.55,8.787,9.026,3.699,3.686
-2.836,-2.218,2.91,7.567,5.526,4.486,-2.707,-1.099
-5.927,-6.132,2.206,4.457,4.965,1.409,-3.549,-3.178
-10.852,-8.292,2.973,3.487,5.591,0.228,-1.708,-3.507
-14.564,-8.644,3.509,3.332,5.852,-0.097,-1.593,-3.647
-14.201,-7.267,3.948,3.795,6.211,0.959,-2.022,-2.204
-13.292,-7.078,2.836,3.479,5.239,1.97,-2.44,-0.219
-17.738,-12.216,-2.166,-0.453,0.265,-0.915,-5.874,-1.469
-26.309,-21.294,-9.523,-7.662,-7.328,-7.705,-12.072,-5.792
-32.494,-28.094,-15.387,-14.474,-13.448,-14.308,-17.48,-10.266
-34.232,-29.508,-18.19,-17.88,-16.287,-17.725,-20.431,-13.717
-33.842,-27.802,-19.144,-17.973,-16.952,-17.937,-21.441,-16.32
-31.477,-25.597,-19.823,-17.498,-17.138,-16.835,-22.045,-19.317
-27.168,-23.184,-21.175,-18.645,-18.351,-16.517,-24.607,-24.448
-25.278,-21.299,-23.106,-19.995,-20.893,-17.318,-28.847,-29.557
-27.609,-20.487,-22.413,-17.405,-21.112,-16.392,-28.904,-28.432
-28.912,-18.968,-17.246,-10.359,-16.325,-11.322,-21.978,-19.946
-26.426,-16.49,-12.791,-4.746,-11.446,-5.927,-15.939,-12.005
-23.539,-15.298,-13.159,-4.504,-11.173,-5.601,-17.566,-11.453
-22.169,-16.121,-14.414,-6.423,-12.247,-8.417,-21.415,-15.09
-21.252,-17.965,-13.098,-6.937,-11.1,-9.169,-20.263,-15.827
-20.38,-19.23,-11.506,-6.012,-9.671,-7.003,-15.921,-12.232
-20.226,-18.89,-10.923,-4.093,-9.349,-3.9,-11.76,-6.362
-21.979,-18.997,-10.108,-2.537,-8.851,-2.33,-6.992,-0.091
-25.174,-21.379,-10.239,-3.657,-8.955,-3.859,-3.177,3.094
-27.034,-23.714,-12.46,-6.88,-10.814,-6.714,-3.68,0.943
-27.202,-24.386,-14.34,-9.536,-12.358,-8.324,-6.656,-3.223
-27.452,-25.197,-14.431,-10.975,-12.332,-9.033,-8.799,-5.447
-27.032,-26.909,-15.271,-12.54,-13.217,-10.478,-11.398,-6.957
-25.501,-28.561,-18.691,-14.641,-16.589,-12.753,-15.509,-9.884
-25.78,-30.367,-22.779,-16.235,-20.452,-14.941,-18.513,-12.826
-29.239,-32.663,-25.226,-16.915,-22.82,-16.735,-18.934,-14.09
-32.431,-33.6,-25.37,-17.18,-23.187,-17.561,-17.343,-13.776
-31.541,-31.082,-22.724,-16.605,-20.766,-16.154,-13.814,-12.006
-26.784,-25.965,-17.953,-14.529,-16.107,-13.27,-10.174,-9.524
-21.451,-21.729,-14.646,-12.742,-12.989,-12.15,-10.649,-9.151
-18.379,-20.989,-15.186,-13.432,-13.689,-13.945,-15.282,-12.012
-16.711,-21.979,-15.795,-14.289,-14.225,-15.164,-17.004,-13.671
-12.819,-20.945,-12.153,-11.378,-10.53,-12.385,-11.427,-9.91
-7.335,-19.706,-8.98,-7.457,-7.626,-8.639,-6.208,-5.235
-6.987,-23.633,-14.058,-9.701,-13.047,-10.583,-11.184,-7.756
-13.576,-29.764,-22.8,-16.919,-21.78,-17.344,-21.232,-15.389
-18.37,-28.797,-22.57,-19.079,-21.279,-19.779,-22.081,-17.346
-14.638,-20.952,-13.004,-12.874,-11.641,-14.386,-12.377,-10.72
-8.097,-16.989,-7.474,-7.263,-6.374,-9.068,-5.877,-5.015
-8.372,-21.906,-11.683,-9.387,-10.852,-10.698,-9.691,-6.823
-15.149,-28.538,-14.523,-14.06,-13.657,-14.719,-13.604,-9.491
-19.703,-29.598,-8.033,-13.776,-6.859,-13.888,-8.572,-5.59
-20.141,-27.287,-0.647,-10.826,0.877,-10.689,-1.063,0.232
-23.791,-26.806,-0.217,-10.646,1.481,-11.193,0.97,1.075
-30.091,-27.464,-2.64,-11.737,-1.029,-13.522,-0.557,-1.237
-29.019,-26.065,-3.843,-10.95,-2.502,-13.171,-2.625,-3.162
-21.488,-24.414,-6.391,-11.107,-5.415,-12.591,-6.436,-6.209
-20.511,-26.499,-11.194,-15.392,-10.511,-15.904,-11.415,-11.584
-28.925,-30.333,-13.74,-20.067,-12.97,-20.305,-13.282,-15.884
-35.904,-31.266,-12.618,-20.786,-11.472,-21.051,-11.332,-16.613
-35.957,-31.169,-13.513,-20.286,-12.259,-19.935,-11.229,-16.84
-33.943,-34.45,-19.115,-22.353,-18.201,-21.314,-15.685,-19.49
-34.143,-39.361,-23.701,-25.111,-23.089,-24.362,-19.369,-22.024
-35.656,-40.216,-21.993,-24.986,-21.257,-25.173,-17.386,-20.862
-34.182,-33.826,-15.248,-21.305,-14.3,-22.475,-11.344,-16.249
-26.862,-23.142,-8.198,-16.116,-7.534,-18.556,-5.889,-11.485
-17.479,-15.078,-4.598,-11.907,-4.576,-16.064,-3.921,-9.149
-12.3,-12.781,-4.13,-9.232,-4.415,-14.802,-4.287,-7.879
-12.942,-14.496,-4.7,-8.396,-4.874,-14.252,-4.822,-6.012
-17.211,-18.573,-7.116,-11.07,-7.236,-16.423,-6.788,-6.221
-22.853,-22.586,-11.266,-15.961,-11.404,-21.135,-10.649,-9.858
-27.115,-22.119,-11.927,-17.56,-11.873,-23.313,-11.509,-11.856
-25.981,-16.821,-6.83,-13.599,-6.598,-19.913,-6.878,-8.554
-19.502,-12.891,-2.668,-9.239,-2.638,-15.219,-2.935,-4.52
-12.306,-13.723,-3.491,-8.341,-3.893,-13.1,-3.315,-3.282
-4.966,-13.885,-1.523,-5.835,-2.255,-8.832,0.364,1.492
1.387,-11.122,6.046,0.167,5.108,-0.896,10.718,11.435
-1.798,-13.134,6.023,-0.51,4.881,0.193,11.817,13.543
-13.97,-21.102,-5.636,-10.922,-7.019,-8.577,-1.998,3.349
-19.716,-23.896,-12.574,-17.724,-14.105,-14.197,-11.344,-5.028
-12.777,-17.579,-8.386,-14.402,-9.843,-10.524,-7.982,-5.232
-5.472,-12.396,-6.941,-11.18,-8.249,-6.908,-7.648,-6.983
-7.565,-15.461,-13.674,-14.903,-14.961,-9.672,-15.09,-13.908
-13.701,-21.306,-17.736,-19.742,-19.066,-14.431,-16.958,-18.362
-17.59,-23.616,-16.246,-21.146,-17.48,-17.86,-12.183,-18.572
-21.584,-24.219,-18.97,-22.766,-19.929,-22.492,-15.057,-21.758
-25.898,-25.251,-27.065,-26.227,-27.816,-27.914,-27.7,-28.923
-24.146,-22.875,-29.272,-26.158,-30.094,-28.097,-34.874,-31.406
-14.836,-14.615,-21.537,-19.937,-22.518,-21.531,-28.907,-26.059
-5.447,-5.266,-14.014,-13.172,-15.085,-15.012,-21.284,-21.069
-1.294,-0.835,-14.993,-11.36,-16.314,-13.739,-23.492,-22.891
0.798,-0.87,-19.786,-12.863,-21.496,-15.412,-30.485,-27.661
4.035,-0.833,-20.429,-12.964,-22.215,-15.41,-31.125,-28.078
5.592,0.305,-17.136,-10.972,-18.728,-12.722,-24.247,-22.602
3.096,-0.42,-15.567,-10.755,-17.24,-10.403,-17.977,-16.707
-1.452,-4.624,-19.501,-15.574,-21.474,-12.302,-20.069,-17.26
-5.845,-10.334,-26.904,-23.553,-28.84,-18.901,-28.591,-23.952
-7.709,-12.763,-30.132,-27.776,-31.82,-24.641,-31.734,-27.151
-5.001,-9.53,-26.083,-24.653,-27.936,-24.293,-25.627,-21.93
-2.284,-7.043,-23.505,-21.577,-25.882,-23.007,-22.679,-18.743
-4.549,-10.989,-28.078,-25.247,-30.773,-27.187,-28.342,-25.255
-7.247,-15.237,-32.264,-29.608,-35.011,-31.425,-31.283,-31.692
-6.072,-14.307,-31.832,-29.421,-34.681,-30.632,-28.351,-31.107
-5.013,-13.352,-32.487,-30.335,-35.592,-30.494,-30.218,-32.154
-6.862,-16.404,-36.165,-35.74,-39.745,-35.392,-39.52,-40.373
-6.886,-18.175,-37.149,-38.939,-41.463,-39.868,-46.674,-47.582
-0.636,-13.208,-30.689,-33.743,-35.601,-36.903,-43.423,-45.259
6.837,-5.668,-21.009,-24.939,-25.971,-29.096,-33.1,-37.492
8.186,-1.909,-16.822,-21.422,-21.497,-25.18,-26.525,-34.359
6.801,0.918,-16.467,-21.313,-20.923,-24.939,-24.335,-33.712
9.664,7.753,-10.501,-15.899,-14.905,-20.234,-17.003,-24.326
14.175,15.351,0.269,-6.489,-4.197,-11.659,-5.224,-9.225
16.878,19.341,6.576,-1.094,2.024,-6.71,0.409,-2.511
21.967,20.884,6.134,0.174,1.546,-5.337,-2.506,-5.113
27.826,20.439,3.323,0.82,-1.182,-4.066,-6.8,-7.182
24.597,16.695,1.066,-0.527,-3.145,-4.823,-7.142,-6.113
13.683,12.876,0.576,-3.938,-3.258,-8.316,-4.395,-5.55
9.448,13.859,2.304,-4.625,-1.373,-9.542,-2.243,-5.867
16.999,17.983,4.358,-0.929,0.597,-6.007,-2.765,-5.08
24.359,19.033,4.163,2.201,0.402,-2.38,-4.544,-3.589
20.806,15.393,2.103,0.698,-1.383,-3.335,-4.839,-3.222
11.574,11.887,0.944,-2.843,-2.206,-6.87,-3.274,-4
8.692,12.524,1.901,-3.446,-1.129,-7.825,-2.072,-4.343
14.141,15.433,3.372,-0.609,0.295,-5.105,-2.6,-3.442
18.943,16.247,3.538,1.786,0.511,-2.396,-3.51,-2.106
16.5,13.971,2.548,1.053,-0.243,-2.742,-3.098,-1.541
10.479,11.519,1.731,-1.264,-0.814,-4.965,-1.923,-1.974
8.306,11.432,1.797,-2.022,-0.653,-5.871,-1.689,-2.503
11.238,12.985,2.412,-0.466,-0.031,-4.396,-2.445,-2.139
14.075,13.745,2.921,1.354,0.565,-2.427,-2.607,-0.939
12.867,12.705,2.908,1.448,0.742,-2.074,-1.59,0.006
9.389,11.056,2.347,0.112,0.354,-3.245,-0.772,-0.142
6.018,9.298,2.107,-2.631,-2.576,-6.142,-3.815,-3.827
0.437,5.97,4.395,-8.843,-11.532,-13.192,-14.388,-15.477
-6.509,2.169,9.838,-16.002,-22.297,-21.653,-26.912,-30.243
-6.419,0.598,13.783,-18.207,-25.901,-24.158,-31.325,-35.572
1.316,-1.004,11.527,-18.045,-24.907,-22.363,-30.121,-32.832
4.809,-4.915,6.388,-20.965,-25.926,-22.998,-29.836,-32.206
-0.435,-6.41,4.655,-22.728,-25.185,-23.59,-27.879,-30.876
-4.615,-1.592,6.403,-17.639,-19.62,-18.666,-23.343,-22.267
-0.399,5.134,9.702,-8.829,-13.563,-10.501,-18.674,-10.822
6.702,7.192,13.689,-3.289,-10.587,-4.888,-13.892,-3.734
6.334,3.144,13.298,-4.683,-12.114,-4.714,-12.317,-2.418
-1.5,-1.864,8.457,-8.94,-14.015,-7.131,-12.442,-1.117
-5.135,-0.714,9.673,-7.354,-7.972,-5.241,-4.13,7.642
-0.202,4.671,17.934,-0.56,2.087,1.229,8.983,19.23
3.03,4.11,21.423,0.816,4.224,3.634,12.77,21.077
-2.996,-4.645,16.294,-6.765,-1.061,-2.085,7.32,11.794
-12.756,-12.499,8.422,-15.015,-5.634,-9.426,0.415,0.846
-16.246,-11.964,2.688,-15.85,-7.129,-10.668,-5.753,-4.358
-10.223,-5.074,-0.211,-10.821,-8.308,-6.734,-11.202,-3.525
-1.125,1.025,-3.899,-7.062,-12.728,-4.484,-17.291,-2.829
3.754,4.646,-9.048,-4.987,-17.787,-3.871,-22.326,-6.225
5.905,10.985,-6.734,2.51,-12.694,3.364,-15.103,-4.69
10.405,20.42,7.035,15.857,4.349,17.522,6.669,8.79
15.424,25.115,18.544,24.607,16.522,26.363,20.862,19.304
16.411,21.658,17.711,23.109,13.971,23.447,13.419,14.259
15.623,16.748,14.87,18.953,10.032,17.039,2.782,7.155
18.914,17.763,22.597,21.748,19.08,17.946,9.796,13.184
26.63,24.456,40.126,32.153,39.052,27.983,32.743,29.445
30.156,28.353,53.184,39.954,53.265,36.288,51.242,42.179
21.361,22.122,46.07,34.83,45.67,31.155,43.704,39.422
7.112,11.32,27.566,23.874,27.09,20.541,21.557,30.827
1.12,6.614,22.552,22.294,23.754,20.85,20.145,38.115
2.947,7.606,30.686,27.914,34.087,28.913,39.208,55.566
3.507,7.87,32.615,28.821,37.014,31.679,48.233,60.26
3.309,7.674,27.087,25.535,31.571,29.578,42.744,52.5
6.181,8.421,23.007,23.563,28.063,27.707,37.646,45.721
7.497,6.039,17.169,19.862,23.385,22.961,32.408,39.387
3.651,0.558,7.146,12.478,14.026,14.906,22.997,29.482
-0.354,-1.177,2.304,8.486,9.004,11.716,19.318,23.405
0.428,2.973,8.795,13.479,15.168,17.826,29.861,29.718
5.276,8.087,19.214,22.866,25.655,27.069,44.866,43.268
10.485,10.303,20.017,26.864,26.96,30.115,43.891,47.409
12.712,10.241,8.531,22.271,16.346,25.214,24.03,35.807
11.915,10.229,-0.319,16.418,8.631,19.402,10.094,22.466
9.789,10.417,4.246,15.945,14.282,18.381,18.667,19.933
4.546,7.737,10.261,16.184,20.911,18.112,31.428,22.367
-7.72,-1.248,0.564,7.085,11.231,8.868,23.068,15.433
-24.109,-14.471,-19.786,-9.827,-9.284,-8.596,-1.747,-2.855
-31.911,-21.367,-27.633,-18.128,-16.915,-17.63,-14.864,-14.633
-22.078,-13.596,-14.931,-8.363,-3.535,-7.977,-4.448,-5.276
-3.697,1.314,0.202,6.96,12.237,7.474,10.363,12.65
6.329,8.598,2.36,10.586,14.595,10.574,9.759,14.019
6.464,7.218,-1.872,4.234,10.369,3.394,0.17,-1.254
7.423,7.396,-0.181,2.708,12.288,1.74,0.815,-6.383
10.033,10.35,6.27,9.361,19.154,8.932,13.707,8.829
7.101,8.487,9.698,15.027,22.912,15.005,26.151,26.611
1.317,2.135,11.591,17.191,24.943,17.248,35.574,37.395
-0.199,-2.495,15.395,18.946,28.732,19.623,43.636,44.573
-1.4,-6.537,12.883,15.745,26.238,17.9,39.309,41.466
-5.721,-10.059,2.361,7.65,15.943,11.058,22.167,27.285
-5.129,-5.135,-0.301,7.65,13.414,11.624,15.021,21.56
1.546,6.481,8.524,17.357,21.938,21.646,25.307,30.76
4.973,13.253,13.282,23.088,26.477,27.672,33.499,37.582
3.712,13.341,7.209,20.22,20.863,25.439,27.197,31.234
3.406,12.096,-1.873,14.93,12.415,20.7,14.009,17.484
6.047,10.92,-5.484,11.505,8.868,16.682,7.259,7.975
8.976,8.797,-4.034,9.919,9.969,14.089,9.624,8.599
6.665,4.563,-6.035,6.797,7.732,10.72,10.317,10.703
-2.501,-1.429,-14.059,1.028,-0.271,4.9,3.601,4.611
-11.57,-5.239,-19.631,-1.518,-5.815,2.286,-2.554,-2.979
-15.016,-5.272,-18.365,1.831,-4.758,5.921,-3.094,-3.843
-15.384,-5.733,-15.51,4.549,-2.277,8.135,-2.197,-3.479
-14.366,-6.842,-12.621,4.957,0.267,6.87,-0.439,-4.699
-9.01,-2.147,-5.044,10.089,7.616,11.219,6.207,0.158
-0.799,7.704,4.611,17.881,17.111,19.662,14.125,9.443
3.214,12.993,5.999,17.201,18.075,19.217,13.586,10.642
0.658,9.998,-2.827,8.397,8.237,10.152,4.072,3.2
-3.629,4.348,-10.817,2.367,-1.064,5.095,-2.972,0.125
-4.039,1.865,-8.191,3.472,0.479,8.06,0.774,7.476
0.778,4.209,2.094,7.721,9.748,12.677,10.355,17.247
7.579,9.129,10.033,10.666,16.106,13.898,16.131,20.613
11.749,12.389,10.685,10.477,14.325,12.237,16.403,19.114
9.142,10.709,5.908,7.114,6.36,9.904,14.821,17.75
-0.709,4.534,0.182,1.864,-3.224,7.462,12.659,16.251
-10.463,-0.65,-1.62,-2.466,-9.663,5.361,9.991,13.464
-10.969,1.34,2.714,-2.532,-11.008,6.193,7.662,11.169
-1.271,10.036,12.456,2.974,-8.078,11.769,7.327,11.518
11.091,18.167,24.996,10.506,-2.99,18.375,10.463,14.636
18.591,20.712,36.181,14.76,1.122,20.856,16.04,18.945
20.263,19.785,44.648,15.48,3.621,20.499,21.991,23.244
19.255,18.816,52.697,16.138,6.668,21.705,27.001,26.201
19.902,19.721,61.377,18.487,11.239,24.826,30.202,26.523
25.352,23.846,67.709,21.256,15.246,26.842,30.359,24.7
30.571,27.661,66.546,21.303,14.422,25.082,25.817,21.311
26.21,24.821,57.384,17.398,7.888,20.01,18.216,16.207
13.064,16.177,46.716,12.44,0.903,15.148,12.391,10.567
1.858,8.871,39.883,9.667,-2.208,13.045,9.909,6.719
-0.938,5.668,35.428,8.146,-3.33,11.784,7.235,4.607
0.184,2.071,29.118,3.931,-6.638,7.159,1,0.993
-2.371,-5.212,19.827,-3.473,-12.962,-0.231,-7.671,-4.935
-8.037,-11.644,11.459,-8.905,-18.1,-4.338,-13.88,-8.908
-10.365,-11.082,9.061,-8.489,-16.788,-2.758,-12.958,-7.636
-8.92,-5.597,11.405,-5.01,-10.484,-0.154,-6.037,-3.779
-9.052,-2.533,10.868,-3.661,-7.396,-0.734,-0.651,-2.028
-11.715,-3.67,2.935,-5.482,-12.149,-3.102,-3.152,-3.099
-13.356,-4.702,-8.249,-7.807,-20.375,-3.937,-12.317,-5.234
-13.118,-3.797,-15.326,-9.023,-24.603,-3.104,-20.502,-8.109
-11.932,-2.758,-14.936,-9.07,-21.328,-2.228,-20.253,-9.922
-8.809,-1.861,-9.319,-7.638,-12.807,-0.988,-11.786,-6.866
-5.058,-0.868,-4.27,-6.181,-5.036,0.144,-3.272,-1.415
-4.438,-1.049,-3.139,-6.624,-1.446,-0.682,-0.297,-0.266
-5.291,-1.208,-2.831,-6.139,1.163,-0.779,0.692,-1.682
-3.173,1.653,-0.968,-1.394,5.384,3.418,2.92,0.601
0.848,6.79,-1.11,4.397,7.625,8.229,2.789,4.501
4.201,12.002,-5.051,6.405,5.767,8.286,-1.429,3.485
8.218,17.773,-9.007,5.424,3.353,5.075,-6.047,-2.787
13.908,24.253,-9.476,5.949,3.901,4.45,-7.039,-7.413
18.843,29.143,-5.891,9.703,8.219,8.413,-1.477,-3.928
