EEG 1,EEG 2,EEG 3,EEG 4,EEG 5,EEG 6,EEG 7,EEG 8
-4.486,-4.968,-11.696,-15.429,-11.828,-8.759,-17.838,-21.05
-2.34,-0.491,-11.543,-11.403,-11.518,-5.606,-14.353,-16.162
-2.982,0.73,-8.33,-7.436,-8.372,-3.614,-7.306,-8.171
-2.545,-2.365,-5.779,-6.047,-5.91,-3.278,-3.407,-3.997
0.147,-3.973,-3.979,-4.837,-4.033,-1.419,-1.627,-2.859
0.281,-2.104,-0.575,-3.157,-0.748,0.526,3.873,0.223
-2.023,0.155,4.469,-2.918,3.865,-0.457,12.504,4.849
-0.346,1.319,7.108,-4.009,6.314,-2.159,15.956,6.681
3.691,1.694,3.271,-5.822,2.799,-2.696,8.807,2.656
1.437,0.598,-4.577,-9.475,-4.555,-4.835,-3.422,-6.636
-4.785,-0.099,-7.439,-11.615,-7.192,-6.516,-8.286,-12.23
-4.154,3.546,-1.676,-6.469,-1.689,-1.478,-1.272,-5.243
2.597,9.368,4.401,2.423,3.914,7.372,8.198,7.843
6.061,11.7,5.053,7.659,4.413,12.858,12.873,16.271
4.91,10.243,4.721,9.018,4.329,14.263,15.41,19.297
2.68,6.672,3.798,7.26,3.745,11.427,14.598,15.869
0.85,2.296,-1.047,2.34,-0.839,4.751,6.95,4.984
1.903,1.627,-4.869,-0.862,-4.56,0.481,-0.09,-3.138
5.45,6.402,-3.432,0.318,-3.245,1.357,1.222,-1.548
5.542,10.72,-1.53,1.219,-1.56,1.954,5.274,1.231
1.791,9.942,-0.817,-0.221,-0.984,0.2,5.603,-0.005
1.592,7.586,4.063,0.917,3.947,1.15,6.413,2.141
4.643,7.654,10.81,5.127,10.933,4.955,9.745,7.826
3.927,8.466,10.059,5.654,10.333,4.723,9.403,6.255
1.96,8.766,4.425,2.881,4.557,0.909,6.028,-1.156
4.06,9.89,4.705,4.931,4.648,1.929,7.105,-0.986
6.309,11.016,10.226,12.163,10.179,9.077,11.354,7.92
5.729,10.484,13.759,17.096,13.764,15.294,12.474,14.325
5.864,9.807,14.938,16.649,14.874,16.483,11.556,13.625
7.649,11.104,14.691,13.389,14.525,14.16,11.025,9.622
9.015,13.297,10.674,10.01,10.49,11.001,7.656,5.266
11.417,14.95,5.726,8.931,5.585,9.674,2.708,3.21
17.041,16.734,7.449,11.567,7.305,11.919,4.348,6.404
22.404,17.881,15.446,15.209,15.355,15.744,12.501,11.818
21.533,15.949,20.351,15.317,20.613,16.662,16.73,12.587
14.694,11.394,17.752,11.188,18.445,13.012,12.595,8.113
8.581,7.18,12.288,6.357,12.903,7.933,7.023,4.68
7.556,5.183,8.09,3.5,8.25,4.195,5.599,4.402
9.332,5.816,6.359,2.341,6.381,1.243,5.737,2.732
10.687,8.499,8.363,3.085,8.514,0.34,5.571,0.347
13.816,12.209,12.64,6.552,12.719,4.228,8.913,2.99
20.686,16.202,16.283,11.084,16.264,10.467,16.942,9.602
24.431,18.972,19.719,14.311,19.788,14.068,24.591,14.977
19.728,18.987,23.388,15.849,23.44,14.085,27.68,17.158
16.143,17.861,25.979,17.149,25.873,13.926,26.903,16.975
22.304,17.873,27.852,19.792,27.712,17.258,25.619,17.804
26.122,15.453,27.382,20.488,27.225,20.355,24.444,19.286
16.207,7.467,21.995,15.047,21.733,16.212,20.888,15.897
7.574,1.808,17.95,10.087,17.764,9.553,17.971,11.565
14.72,5.718,22.3,13.991,22.369,10.018,21.114,15.821
24.217,12.568,29.334,21.343,29.452,15.955,26.497,24.825
22.669,14.487,30.66,23.342,30.589,20.492,26.931,28.018
18.489,13.609,27.766,22.069,27.515,22.803,23.188,25.46
18.398,13.29,25.876,23.365,25.539,25.618,20.961,25.133
16.521,12.314,25.357,26.298,25.085,28.225,22.899,29.017
12.986,11.361,25.41,28,25.306,28.903,26.992,32.222
14.543,14.071,28.114,30.016,28.105,30.221,29.713,33.352
18.61,19.559,32.398,33.275,32.463,34.2,28.938,34.182
20.085,23.798,34.226,35.473,34.393,38.216,26.136,33.943
23.31,26.707,33.968,34.705,34.053,38.368,25.767,31.39
30.316,29.585,34.702,31.741,34.573,34.395,29.126,28.158
35.101,31.668,37.348,30.564,37.193,31.711,32.66,27.587
36.148,33.271,39.784,33.63,39.758,34.066,34.544,30.801
37.884,35.188,39.552,37.697,39.582,37.5,36.408,35.888
40.805,35.713,38.906,39.528,38.877,38.302,39.186,40.63
41.324,34.105,41.438,40.367,41.259,38.67,41.533,42.88
40.49,33.164,44.364,41.388,44.047,39.653,41.474,40.791
43.189,34.121,43.552,41.211,43.223,38.604,39.704,36.3
46.742,33.803,40.622,39.058,40.265,35.423,38.212,33.383
43.595,29.979,37.743,36.086,37.266,32.996,35.668,32.189
35.282,24.54,33.491,33.17,33.074,31.609,29.907,30.445
27.957,19.91,26.659,29.63,26.581,28.72,22.272,27.401
22.976,17.827,20.319,25.86,20.508,24.475,16.874,24.147
23.601,20.82,20.919,25.396,21.007,23.336,18.068,23.5
33.75,29.067,30.214,31.07,30.009,28.762,26.176,27.877
47.292,37.983,40.581,39.705,40.294,37.37,35.099,34.59
54.002,42.965,44.669,44.938,44.518,42.055,38.85,37.925
51.012,43.371,44.53,45.309,44.377,41.699,39.295,38.485
43.392,40.576,43.992,43.756,43.667,40.466,40.023,40.511
38.613,35.723,39.993,40.249,39.625,37.787,36.493,39.415
38.988,30.801,31.651,33.698,31.446,31.133,26.348,30.1
42.411,30.378,28.944,29.539,28.914,26.32,20.782,22.414
49.008,37.053,38.505,33.361,38.435,29.945,27.484,26.572
58.736,45.309,50.428,40.259,50.071,37.54,37.021,36.143
67.98,48.182,53.132,42.961,52.532,42.179,39.858,41.35
71.036,46.235,48.979,42.257,48.378,43.314,38.477,41.292
62.487,42.743,45.037,40.738,44.589,40.859,36.656,37.356
47.065,38.721,42.288,38.556,42.015,35.302,33.64,31.568
37.79,34.98,38.991,37.102,38.706,31.406,30.782,29.166
33.562,31.316,35.048,36.888,34.532,31.116,31.8,31.775
24.127,26.928,32.078,35.842,31.413,30.959,35.595,34.386
16.958,23.75,31.901,33.273,31.254,29.168,37.959,34.371
24.341,23.272,33.988,30.188,33.435,26.755,38.542,33.873
35.324,22.002,34.358,25.439,34.088,22.137,36.627,30.118
32.676,17.332,29.511,17.868,29.536,13.625,28.089,18.914
22.095,14.085,22.572,12.577,22.428,7.423,16.958,9.155
19.917,16.757,20.796,15.486,20.116,10.878,15.046,12.114
26.166,20.791,25.327,22.465,24.326,19.046,22.762,20.907
28.34,19.73,29.758,24.904,28.847,21.536,28.677,22.816
22.537,14.944,30.088,22.493,29.403,17.852,28.271,19.449
18.107,12.31,29.689,21.319,29.089,15.402,27.102,19.124
23.037,13.379,31.158,23.036,30.528,17.035,28.42,22.428
31.003,14.481,30.862,23.572,30.293,18.62,28.874,24.441
30.827,14.429,29.072,22.712,28.623,19.276,27.882,25.917
26.108,17.067,33.62,25.942,33.117,24.293,31.719,32.707
29.212,24.164,44.66,34.078,43.98,33.998,41.219,43.092
38.549,31.836,50.656,40.607,50.013,40.934,45.822,47.255
41.244,35.054,45.931,41.339,45.512,41.327,39.838,42.431
36.315,33.403,38.691,39.506,38.325,39.693,32.401,37.608
35.016,30.988,36.852,39.368,36.424,39.848,31.365,39.079
37.408,29.378,37.428,40.232,37.077,39.579,32.381,42.421
33.012,26.08,35.18,39.377,34.905,36.428,30.428,41.863
25.667,22.401,31.976,36.981,31.634,32.4,27.626,37.678
28.784,23.711,31.901,35.427,31.485,30.65,26.543,32.98
37.049,29.001,33.119,34.868,32.673,30.572,25.501,29.145
32.628,29.992,30.817,32.662,30.416,29.188,23.205,26.856
17.895,23.871,25.475,27.978,25.293,25.781,21.566,27.134
10.794,16.203,20.166,21.879,20.131,20.676,19.497,25.849
12.05,10.242,13.996,14.267,13.776,13.391,12.522,16.654
10.667,5.975,8.191,8.043,7.92,7.482,4.402,5.836
9.487,4.587,8.568,7.946,8.801,7.392,4.073,5.404
15.844,4.999,14.175,10.981,14.768,9.153,9.174,11.368
23.445,5.59,17.878,12.152,17.99,8.761,11.587,13.253
22.033,7.195,17.815,13.745,17.335,10.299,11.204,12.761
13.79,8.593,16.019,17.153,15.719,14.497,10.086,13.792
9.404,8.448,13.252,18.402,13.443,15.758,6.845,12.555
11.22,8.546,10.233,15.845,10.567,12.789,1.935,6.819
11.354,8.45,7.339,12.26,7.712,9.207,-1.326,2.093
7.213,5.604,4.015,9.886,4.607,6.996,-1.49,3.361
4.385,1.259,0.14,8.069,0.826,5.558,-1.075,6.452
3.064,-1.529,-3.687,5.526,-3.305,3.953,-3.229,4.246
-2.359,-3.06,-6.475,2.812,-6.429,2.214,-7.446,-2.5
-9.593,-4.526,-6.774,2.4,-6.568,2.452,-9.228,-5.964
-10.174,-4.067,-4.32,5.613,-3.569,6.211,-5.818,-1.92
-4.047,-0.742,-2.28,8.901,-1.189,9.363,-1.918,2.77
2.601,2.976,-2.378,8.437,-1.411,7.524,-2.333,1.233
8.285,6.257,-0.749,7.5,-0.092,5.068,-2.651,-0.214
12.634,10.446,4.281,11.46,4.754,8.622,2.203,5.666
12.651,14.555,8.601,18.412,9.036,15.947,8.737,13.606
9.901,16.004,9.923,21.783,10.351,19.389,12.382,16.066
10.506,14.953,10.42,20.449,10.798,17.417,13.984,14.372
15.178,14.145,11.806,19.491,12.103,15.47,14.473,13.67
18.625,15.258,13.816,22.099,14.006,17.357,13.609,16.196
20.235,19.211,17.753,28.518,17.814,23.941,15.201,22.724
24.713,26.132,24.813,37.588,24.823,33.917,21.784,31.116
30.066,31.122,30.659,43.428,30.807,40.213,27.17,35.11
29.885,28.992,31.062,41.113,31.358,37.362,26.34,33.427
27.043,23.749,29.76,35.651,29.905,31.402,24.7,32.094
27.757,21.649,30.767,33.152,30.625,29.084,26.415,32.603
28.584,20.163,30.409,30.033,30.255,26.091,25.387,28.493
23.293,14.635,25.298,22.648,25.331,18.765,17.558,18.403
14.181,7.289,18.717,15.994,18.843,12.975,8.578,9.991
7.319,2.416,13.421,13.51,13.583,11.341,2.782,5.529
3.23,-0.328,7.969,11.229,8.348,8.041,-1.919,0.007
0.252,-3.143,3.143,7.334,3.864,1.447,-5.86,-4.951
0.349,-4.313,2.699,6.335,3.467,-1.444,-5.839,-2.927
3.472,-1.546,5.966,9.868,6.481,2.69,-3.098,2.416
3.707,0.287,6.623,11.017,7.2,5.114,-4.238,0.023
-1.377,-4.376,2.566,5.115,3.525,-1.503,-9.43,-8.932
-5.764,-10.554,0.387,-0.753,1.241,-8.882,-10.093,-11.156
-5.145,-11.345,3.273,0.141,3.549,-7.453,-4.922,-4.981
-2.829,-9.192,4.706,3.125,4.867,-2.86,-2.917,-2.723
-3.512,-8.901,0.329,2.046,0.882,-4.325,-7.493,-8.816
-8.648,-11.422,-5.945,-2.124,-5.242,-10.562,-13.268,-15.525
-16.177,-15.808,-9.434,-5.492,-8.875,-15.018,-16.139,-17.1
-21.361,-19.136,-9.987,-5.76,-9.546,-15.141,-16.128,-15.151
-21.851,-19.843,-10.345,-4.13,-10.047,-13.494,-14.964,-13.229
-21.04,-20.834,-11.975,-4.5,-11.756,-13.547,-15.703,-13.529
-21.251,-22.472,-12.582,-6.892,-12.178,-14.459,-18.76,-15.217
-20.468,-21.143,-10.456,-6.646,-9.906,-12.436,-19.218,-14.226
-19.67,-18.843,-9.473,-4.329,-9.042,-9.128,-15.289,-10.329
-20.439,-19.941,-11.86,-4.464,-11.46,-9.065,-11.555,-8.185
-18.585,-20.791,-11.804,-4.202,-11.192,-9.021,-9.393,-7.483
-13.532,-17.839,-6.243,0.488,-5.556,-4.888,-6.286,-3.332
-11.797,-15.926,-1.855,4.163,-1.393,-1.918,-3.661,2.692
-13.199,-16.443,-2.019,3.038,-1.748,-2.796,-3.171,4.699
-10.754,-13.153,-0.373,3.115,-0.079,-0.99,-1.273,4.439
-6.047,-6.464,4.664,5.996,4.888,3.776,2.635,6.847
-5.794,-3.081,5.699,5.372,5.658,4.461,3.642,9.625
-7.895,-2.826,0.58,0.989,0.519,1.575,0.406,8.682
-8.152,-2.847,-5.763,-2.381,-5.403,-0.42,-4.502,4.661
-8.6,-4.673,-10.016,-4.255,-9.306,-2.333,-8.452,0.642
-9.996,-7.742,-11.158,-5.441,-10.621,-4.912,-9.294,-1.844
-8.809,-7.933,-9.128,-4.246,-8.958,-5.038,-8.129,-3.559
-3.927,-4.515,-5.626,-0.169,-5.451,-0.857,-7.842,-4.319
-0.189,-2.137,-4.173,3.169,-3.666,3.97,-9.134,-3.821
-1.14,-4.11,-6.053,2.781,-5.312,4.516,-9.781,-2.992
-2.894,-7.084,-6.461,1.287,-5.747,1.777,-6.439,-1.361
-2.295,-7.142,-2.401,2.2,-1.898,0.588,-0.779,1.429
-2.363,-5.72,0.957,4.412,1.206,2.26,0.854,2.795
-4.191,-4.321,0.061,5.292,0.302,3.867,-2.411,0.691
-3.292,-0.807,-0.258,6.017,0.333,4.667,-4.029,-0.429
2.355,5.077,4.182,9.666,5.044,7.874,-0.127,4.973
7.624,8.779,9.409,14.595,10.112,12.807,4.56,11.08
7.279,6.987,9.661,15.753,10.031,13.328,4.174,8.427
4.023,3.059,5.77,13.073,6.061,8.566,0.159,1.038
3.828,1.502,2.199,10.561,2.707,4.554,-3.091,-1.928
3.869,-0.511,-0.644,7.559,0.013,2.596,-5.672,-2.788
-2.49,-6.85,-4.586,1.503,-4.064,-0.817,-8.784,-7.162
-10.682,-12.796,-7.478,-3.83,-7.182,-4.301,-9.704,-11.132
-14.217,-14.082,-7.147,-5.05,-6.958,-5.873,-7.819,-10.464
-17.531,-15.513,-7.075,-6.294,-6.838,-9.085,-8.35,-9.821
-22.763,-20.007,-10.467,-9.715,-10.089,-14.358,-13.505,-12.678
-24.087,-22.024,-14.364,-10.313,-13.845,-15.574,-18.171,-14.573
-21.275,-18.865,-14.748,-6.378,-14.134,-11.174,-17.844,-12.198
-20.062,-16.275,-12.462,-3.616,-11.91,-7.596,-14.688,-9.206
-22.163,-18.15,-11.217,-5.558,-10.987,-8.77,-13.37,-10.25
-24.886,-20.92,-12.276,-9.262,-12.31,-12.034,-13.989,-15.047
-24.951,-20.642,-13.204,-10.766,-12.932,-13.627,-12.822,-17.958
-21.366,-18.805,-12.396,-9.324,-11.508,-11.805,-9.206,-14.043
-18.406,-20.242,-12.777,-8.446,-11.803,-9.232,-7.677,-8.301
-22.752,-27.694,-18.849,-13.172,-18.261,-12.141,-13.265,-11.398
-34.463,-38.636,-30.379,-23.472,-29.855,-21.788,-25.264,-23.123
-45.001,-47.404,-40.936,-33.008,-40.125,-31.478,-36.127,-31.746
-48.37,-50.519,-44.68,-36.859,-43.752,-35.467,-40.013,-31.845
-47.05,-48.786,-41.86,-35.602,-41.09,-33.726,-38.36,-27.643
-44.593,-44.837,-36.899,-31.837,-36.435,-28.746,-34.731,-21.639
-42.657,-42.17,-36.179,-30.423,-35.93,-26.628,-33.504,-17.939
-42.544,-43,-42.548,-35.454,-42.095,-32.463,-38.485,-23.373
-42.289,-43.974,-48.498,-41.164,-47.686,-39.386,-44.335,-32.207
-40.254,-41.84,-46.372,-40.05,-45.662,-38.446,-42.502,-32.527
-40.028,-39.79,-41.373,-36.089,-41.076,-33.719,-36.232,-27.184
-41.663,-38.819,-40.879,-34.378,-40.584,-31.25,-33.575,-24.808
-38.268,-34.861,-42.462,-32.309,-41.662,-29.175,-33.853,-24.328
-30.491,-29.874,-42.715,-29.995,-41.592,-27.837,-34.129,-23.983
-28.984,-29.552,-43.194,-30.797,-42.332,-30.043,-34.809,-25.365
-35.43,-31.758,-43.541,-32.019,-43.011,-31.945,-33.593,-24.959
-39.773,-31.79,-41.954,-30.373,-41.335,-29.508,-29.342,-20.251
-38.785,-31.416,-40.417,-29.358,-39.642,-26.922,-27.539,-17.722
-37.491,-33.085,-40.303,-31.643,-39.778,-28.54,-30.357,-21.375
-36.315,-34.592,-39.481,-33.518,-39.291,-31.122,-32.423,-25.061
-32.929,-33.219,-37.478,-31.622,-37.143,-30.111,-31.216,-23.658
-29.882,-29.061,-35.398,-27.573,-34.742,-26.222,-29.338,-19.708
-31.307,-25.245,-33.485,-25.347,-33.053,-23.475,-28.27,-17.335
-35.09,-24.899,-33.192,-27.183,-33.29,-24.52,-28.059,-18.007
-32.914,-25.465,-33.877,-29.888,-34.017,-26.792,-27.577,-19.465
-21.833,-21.421,-30.468,-27.897,-30.217,-25.14,-23.589,-17.023
-12.243,-14.512,-23.444,-22.443,-22.897,-20.268,-17.051,-11.443
-13.975,-12.232,-21.371,-20.672,-20.558,-18.338,-15.518,-10.593
-20.152,-15.37,-26.64,-24.591,-25.423,-21.589,-21.442,-17.463
-20.211,-17.611,-31.504,-29.054,-30.082,-26.1,-27.386,-25.14
-18.177,-16.474,-31.089,-30.099,-29.933,-27.898,-27.742,-26.929
-21.152,-15.204,-28.074,-28.216,-27.39,-26.376,-24.03,-22.593
-24.188,-15.838,-25.534,-25.514,-25.105,-23.569,-19.037,-15.986
-21.951,-17.412,-24.776,-24.825,-24.371,-22.896,-16.084,-13.21
-19.918,-19.337,-26.875,-27.733,-26.489,-25.555,-19.055,-17.518
-23.167,-21.71,-30.828,-31.471,-30.375,-28.26,-25.945,-24.303
-26.943,-23.459,-33.607,-32.434,-32.928,-28.08,-29.791,-27.174
-23.655,-22.794,-32.773,-30.674,-32.066,-25.884,-28.049,-25.386
-14.882,-19.023,-28.542,-27.874,-28.217,-23.167,-24.243,-22.371
-11.144,-13.521,-24.623,-25.16,-24.646,-20.633,-22.283,-21.418
-14.932,-8.375,-23.537,-23.114,-23.463,-18.956,-22.416,-22.375
-15.397,-4.248,-22.802,-21.03,-22.524,-17.561,-21.713,-21.678
-8.258,-1.663,-20.563,-18.481,-20.369,-15.901,-19.594,-18.77
-4.009,-2.321,-19.734,-17.265,-19.62,-15.71,-19.758,-18.819
-7.451,-5.494,-22.805,-18.205,-22.456,-17.677,-23.288,-23.702
-8.073,-6.41,-26.602,-18.568,-26.009,-18.501,-26.006,-27.569
-1.339,-2.769,-26.155,-16.136,-25.718,-15.491,-25.274,-26.057
2.196,2.133,-21.428,-11.955,-21.353,-10.072,-21.933,-20.316
-2.004,5.869,-15.947,-7.789,-15.898,-4.951,-16.989,-12.996
-5.7,8.441,-12.928,-5.756,-12.526,-2.734,-13.384,-9.052
-2.457,9.107,-12.93,-7.211,-12.365,-4.292,-13.86,-12.087
5.756,8.421,-12.924,-9.754,-12.832,-6.63,-15.559,-17.118
10.313,8.387,-11.538,-10.476,-12.149,-7.223,-14.865,-17.145
5.555,8.936,-11.498,-9.885,-12.216,-7.002,-12.535,-12.832
-2.157,8.002,-14.13,-10.185,-14.344,-7.505,-11.084,-9.529
-4.964,4.545,-17.53,-12.515,-17.345,-9.295,-12.343,-10.135
-6.69,-0.772,-21.136,-16.507,-20.951,-12.293,-16.915,-14.36
-14.144,-6.336,-26.079,-20.652,-26.05,-15.433,-23.15,-20
-21.452,-8.253,-29.194,-21.755,-29.343,-16.326,-26.251,-22.263
-18.144,-3.996,-26.328,-18.374,-26.685,-14.11,-23.72,-19.561
-9.052,0.894,-22.975,-15.788,-23.435,-12.657,-22.169,-19.266
-7.657,-0.91,-26.875,-19.498,-27.213,-15.734,-27.778,-26.238
-15.34,-7.556,-33.479,-25.581,-33.622,-20.251,-34.243,-32.369
-22.876,-12.515,-34.731,-27.639,-34.837,-21.687,-34.09,-30.378
-25.32,-14.38,-32.383,-27.178,-32.728,-21.802,-31.307,-25.738
-24.359,-14.875,-30.726,-27.456,-31.527,-22.959,-30.481,-24.327
-21.446,-13.876,-30.033,-27.26,-31.067,-23.42,-29.111,-24.891
-17.335,-11.823,-31.796,-26.897,-32.48,-23.495,-28.169,-28.425
-15.076,-11.606,-37.203,-28.804,-37.32,-25.486,-32.077,-35.914
-16.18,-13.537,-41.15,-30.773,-40.945,-27.114,-36.852,-39.872
-16.134,-12.27,-36.897,-27.781,-36.636,-24.051,-34.259,-34.02
-10.961,-4.743,-25.899,-20.105,-25.901,-17.044,-24.701,-23.336
-3.662,3.489,-16.507,-13.414,-16.98,-10.855,-15.438,-15.9
1.522,6.711,-12.855,-10.731,-13.457,-7.707,-10.202,-13.265
3.19,6.397,-12.872,-10.014,-13.123,-6.136,-8.178,-13.212
2.006,6.188,-14.807,-9.41,-14.737,-5.029,-9.178,-14.793
2.072,7.791,-16.299,-8.323,-16.262,-3.958,-11.726,-16.311
6.72,11.64,-13.007,-5.26,-13.119,-1.536,-10.728,-14.073
13.292,15.74,-5.485,-0.781,-5.637,2.015,-4.865,-7.811
16.832,16.605,-0.517,1.174,-0.76,3.561,-0.366,-2.932
14.185,13.511,-2.458,-1.135,-2.874,1.504,-2.075,-3.447
6.501,9.407,-7.985,-4.062,-8.351,-1.087,-6.047,-5.833
-0.455,7.159,-11.251,-3.792,-11.374,-1.167,-6.069,-5.323
-5.131,5.102,-13.05,-3.489,-13.139,-2.262,-5.126,-6.175
-11.874,-0.1,-18.354,-8.822,-18.66,-8.821,-10.177,-13.98
-18.936,-6.415,-24.412,-16.799,-24.897,-16.33,-17.174,-21.743
-18.923,-9.356,-23.998,-20.324,-24.564,-18.51,-17.663,-21.389
-11.697,-8.536,-18.568,-19.645,-19.21,-17.171,-14.457,-18.225
-6.041,-6.361,-15.721,-18.78,-16.321,-15.746,-14.655,-18.711
-9.072,-5.389,-17.7,-18.409,-18.032,-14.071,-16.663,-20.016
-17.817,-6.78,-20.152,-17.655,-20.227,-12.727,-15.225,-18.695
-22.78,-7.851,-19.25,-16.109,-19.314,-12.587,-11.021,-16.014
-18.766,-4.952,-15.115,-12.732,-15.317,-11.039,-7.49,-12.65
-10.821,0.013,-10.398,-7.838,-10.786,-6.316,-4.797,-7.794
-7.696,2.004,-7.552,-4.729,-8.178,-1.888,-1.882,-3.481
-9.084,1.332,-5.174,-4.462,-5.975,-0.253,1.557,-1.75
-7.594,2.669,-0.133,-3.214,-0.987,1.482,5.603,-0.465
-2.556,7.021,5.951,1.349,5.067,5.354,9.224,2.465
0.793,11.193,9.245,6.942,8.351,9.044,11.665,6.033
1.536,13.678,10.243,11.5,9.501,11.013,14.022,9.12
0.957,14.449,10.499,14.154,10.037,11.63,15.733,10.684
-2.093,12.131,8.904,13.001,8.605,10.159,14.512,9.318
-6.646,7.72,6.121,8.885,5.823,7.446,12.308,6.934
-8.365,5.838,5.704,6.762,5.432,7.129,13.726,7.346
-5.849,7.907,8.678,8.495,8.537,9.751,18.201,9.905
-2.972,9.873,11.796,10.68,11.85,11.747,20.99,10.979
-2.852,10.046,13.043,12.155,13.253,12.287,20.999,10.847
-3.32,11.807,14.516,15.262,14.721,13.963,21.16,12.193
-0.57,15.981,17.707,19.316,17.752,17.142,22.933,14.927
4.853,19.029,20.517,21.168,20.227,19.655,24.97,17.575
7.158,18.515,19.634,19.967,18.943,19.634,24.517,18.618
2.256,14.587,14.289,16.935,13.641,16.931,20.282,16.891
-5.756,9.077,7.717,13.23,7.62,13.218,14.641,13.164
-9.6,5.333,3.872,9.884,4.063,10.349,10.503,8.975
-8.078,5.328,4.017,8.583,3.932,9.609,9.042,6.633
-4.103,7.911,7.761,11.041,7.427,12.203,11.231,9.193
2.395,11.8,13.836,16.564,13.655,17.545,16.381,15.627
10.737,16.288,19.079,21.119,19.176,21.74,20.526,20.09
15.679,19.949,21.756,22.598,21.779,22.787,21.773,20.711
15.727,22.536,24.19,24.204,23.738,24.268,23.374,22.578
15.708,24.76,27.209,27.185,26.473,27.679,26.46,27.041
16.891,25.907,28.012,27.931,27.539,29.152,27.731,29.058
16.212,25.617,26.522,26.151,26.337,27.773,27.353,28.577
14.951,25.912,25.905,25.778,25.686,26.855,28.425,30.022
16.665,28.912,26.922,27.783,26.81,27.366,29.601,31.456
19.615,33.116,27.558,29.458,27.863,27.49,27.914,28.116
19.972,33.996,26.582,28.772,27.022,26.33,24.933,22.203
19.391,30.741,25.801,26.859,25.834,25.134,24.075,19.279
21.28,27.952,27.608,25.984,27.235,24.942,25.187,19.331
22.491,27.926,30.066,25.878,29.847,24.783,25.721,18.779
19.121,28.542,29.78,25.372,30.078,24.245,25.573,17.748
14.894,28.785,27.53,24.927,27.997,24.242,25.731,17.61
13.764,28.735,25.275,24.209,25.45,24.026,24.324,16.184
13.653,26.815,22.933,21.885,22.932,21.716,20.139,12.261
13.771,23.221,22.017,20.126,22.001,18.875,17.502,10.164
17.035,21.714,25.34,22.659,24.982,19.531,21.093,14.035
21.823,23.772,30.858,27.055,30.107,22.809,27.808,20.445
23.052,26.698,33.9,28.551,33.403,24.643,31.851,23.904
21.665,28.411,34.106,28.63,34.169,25.515,33.371,25.132
21.395,28.157,32.637,29.05,32.753,26.4,33.505,25.654
21.769,25.949,29.012,26.976,28.837,24.538,30.126,22.952
22.412,24.341,25.071,23.052,24.819,20.2,24.317,17.04
25.027,25.328,24.671,22.577,24.495,18.462,21.694,13.532
28.712,28.083,29.338,27.937,29.241,22.931,25.791,17.462
30.759,32.165,36.77,36.11,36.86,31.471,33.976,26.976
30.52,36.489,41.306,40.792,41.561,36.888,38.837,33.792
28.765,37.711,38.78,37.801,38.894,34.174,35.883,31.803
26.085,34.542,31.598,29.797,31.4,26.401,28.55,23.61
23.15,29.185,24.892,22.588,24.598,19.608,21.945,16.05
20.456,24.652,21.163,19.454,21.03,16.4,18.42,13.524
18.236,23.079,20.225,19.901,20.224,15.938,18.623,14.993
16.496,23.592,19.445,20.32,19.366,15.103,19.43,14.916
14.577,22.923,16.426,17.727,16.177,11.684,17.005,10.531
14.397,21.465,13.9,14.324,13.64,8.585,13.997,6.37
20.694,23.992,16.375,15.051,16.304,10.505,15.632,8.238
31.426,30.82,23.159,20.485,23.248,17.014,21.995,16.005
36.911,35.696,30.448,26.205,30.469,23.438,29.952,24.753
33.759,35.025,35.354,28.465,35.091,26.078,35.912,29.431
28.953,31.812,35.848,27.161,35.34,24.369,36.301,28.144
29.426,30.69,34.009,25.671,33.548,22.085,33.254,25.182
35.294,33.206,35.742,27.925,35.533,24.369,34.158,27.208
40.28,36.047,41.138,32.648,41.137,29.893,40.262,34.028
37.613,34.578,43.577,34.487,43.658,32.357,45.282,39.703
29.601,29.686,41.404,32.357,41.429,30.776,46.397,41.839
24.722,26.165,39.781,29.966,39.608,29.425,46.46,42.284
23.675,24.288,40.027,28.409,39.706,29.137,46.064,41.301
20.53,20.431,37.838,25.762,37.672,27.248,42.865,38.629
15.733,15.111,32.807,22.911,32.963,24.163,38.559,37.521
14.03,11.651,28.738,21.388,28.958,21.603,36.034,38.548
13.78,8.633,24.79,17.569,24.684,16.669,31.29,34.038
11.347,3.941,18.898,10.267,18.384,8.454,22.276,22.505
9.247,1.589,15.263,7.297,14.718,4.413,17.147,16.516
10.284,4.348,16.788,12.095,16.713,7.981,19.596,20.923
11.967,8.028,19.604,16.878,20.037,12.056,22.473,24.856
11.961,9.333,21.283,17.041,21.763,12.585,22.813,23.529
12.302,9.747,23.681,16.535,23.871,13.082,24.769,23.262
13.342,8.998,25.397,15.864,25.338,12.988,26.702,23.717
10.003,3.804,21.362,9.904,21.158,7.211,21.37,16.647
2.721,-3.394,13.305,0.542,12.997,-1.353,10.841,3.694
0.832,-4.278,10.012,-2.592,9.737,-3.669,6.425,-2.726
5.608,1.479,13.019,2.255,12.924,0.42,10.38,0.766
6.964,3.844,14.724,5.648,14.717,2.43,12.883,4.122
2.502,-1.485,12.21,2.198,11.993,-0.737,9.003,1.248
0.437,-7.932,9.372,-2.996,8.793,-4.383,4.272,-2.612
1.547,-11.648,6.865,-5.284,6.056,-5.881,2.761,-2.649
-2.081,-16.036,1.914,-6.734,1.097,-7.343,1.494,-1.74
-9.803,-21.18,-3.946,-9.278,-4.64,-9.35,-1.936,-3.248
-12.895,-21.965,-5.988,-10.284,-6.588,-9.357,-4.316,-4.822
-11.093,-17.799,-4.206,-7.995,-4.78,-6.681,-2.486,-3.004
-12.807,-15.254,-4.199,-6.725,-4.69,-5.73,-0.647,-1.161
-20.216,-19.166,-9.396,-11.765,-9.746,-11.433,-5.707,-6.864
-25.189,-24.845,-15.502,-19.609,-15.85,-20.3,-14.716,-17.776
-21.161,-23.653,-15.472,-20.454,-15.969,-22.087,-16.752,-20.202
-13.142,-16.674,-9.87,-13.527,-10.409,-15.362,-10.052,-10.582
-10.962,-13.962,-6.729,-9.562,-7.095,-11.114,-4.934,-3.028
-14.072,-17.43,-8.29,-12.419,-8.441,-13.693,-5.855,-5.005
-13.255,-18.195,-7.81,-13.429,-7.853,-14.397,-5.653,-6.857
-6.551,-12.551,-2.072,-8.203,-2.041,-8.921,-0.421,-2.459
-1.134,-6.48,4.711,-2.241,4.878,-2.988,5.511,2.817
-1.614,-5.769,8.403,0.015,8.615,-0.911,8.45,5.098
-4.376,-9.323,9.11,0.288,9.13,-0.646,8.714,6.2
-4.149,-11.528,9.237,1.808,9.062,1.237,8.219,7.845
-3.17,-11.073,8.464,3.189,8.359,2.892,7.372,8.153
-6.915,-12.442,4.067,0.385,4.06,-0.628,4.235,4.248
-13.035,-15.844,-2.745,-4.958,-2.952,-7.163,-1.168,-1.759
-14.654,-16.118,-7.985,-7.742,-8.463,-9.937,-6.23,-5.761
-11.692,-13.15,-10.557,-8.252,-11.023,-9.202,-9.782,-8.378
-10.617,-12.752,-11.382,-9.583,-11.69,-9.259,-11.334,-10.314
-14.389,-17.272,-12.15,-12.314,-12.407,-11.064,-11.699,-10.621
-18.812,-22.527,-14.967,-15.866,-15.113,-14.494,-14.457,-12.204
-19.822,-24.19,-18.394,-18.409,-18.288,-18.057,-18.699,-15.891
-18.656,-22.43,-18.703,-17.619,-18.623,-18.216,-18.346,-16.424
-18.036,-19.634,-16.377,-14.666,-16.695,-15.132,-13.655,-12.975
-17.014,-16.913,-14.536,-12.685,-15.018,-12.617,-10.919,-10.701
-13.374,-14.239,-13.33,-12.354,-13.486,-12.202,-11.359,-10.916
-9.562,-12.007,-11.209,-11.919,-11.094,-12.155,-10.604,-10.218
-8.709,-10.249,-8.183,-9.962,-8.191,-10.972,-6.483,-7.202
-8.59,-8.472,-5.967,-7.891,-6.167,-10.039,-2.926,-5.367
-7.799,-7.574,-6.243,-8.457,-6.422,-11.154,-4.595,-8.726
-8.937,-8.653,-7.926,-10.976,-7.937,-12.445,-8.146,-14.114
-11.299,-10.472,-8.01,-12.001,-7.838,-11.219,-7.218,-14.021
-10.807,-10.9,-5.847,-10.748,-5.586,-8.725,-3.812,-9.108
-6.413,-9.302,-3.31,-9.322,-3.196,-7.508,-3.169,-6.687
-1.634,-7.654,-2.847,-9.622,-3.062,-7.823,-4.79,-8.351
-1.751,-9.104,-6.405,-12.622,-6.788,-9.578,-6.587,-11.072
-7.255,-12.448,-11.716,-16.768,-12.041,-12.455,-8.521,-13.68
-11.632,-12.373,-12.767,-17.485,-13.026,-13.328,-9.581,-14.404
-10.373,-8.341,-7.735,-12.585,-7.835,-9.775,-7.991,-10.948
-6.809,-5.804,-1.203,-6.564,-1.079,-5.76,-4.91,-6.169
-5.719,-7.299,2.503,-4.884,2.564,-6.311,-3.208,-5.377
-6.498,-9.732,3.074,-6.296,2.945,-8.584,-2.492,-7.208
-4.828,-9.811,2.153,-6.978,2.158,-7.785,-0.294,-5.949
-0.273,-8.285,-0.24,-8.579,0.02,-7.105,1.228,-3.839
1.315,-9.197,-6.537,-14.282,-6.357,-11.447,-4.053,-8.734
-2.917,-13.603,-14.973,-20.448,-15.076,-17.044,-13.873,-16.743
-8.534,-18.16,-18.318,-21.726,-18.433,-17.688,-16.898,-15.939
-13.202,-22.494,-15.809,-21.012,-15.596,-16.296,-12.308,-9.282
-19.303,-28.452,-14.746,-23.506,-14.359,-18.843,-11.308,-9.407
-26.342,-34.047,-18.941,-27.996,-18.905,-24.004,-17.924,-16.375
-29.508,-36.15,-24.915,-31.134,-25.368,-27.494,-26.444,-21.716
-25.722,-34.001,-26.415,-31.031,-26.972,-27.484,-30.057,-21.114
-19.123,-29.982,-23.052,-28.645,-23.532,-25.907,-26.787,-16.646
-17.061,-28.737,-22.535,-28.951,-23.049,-27.468,-22.627,-15.902
-20.638,-31.368,-27.981,-33.539,-28.399,-32.171,-23.252,-22.485
-24.584,-33.67,-32.645,-37.059,-32.747,-34.536,-26.37,-29.5
-24.034,-32.381,-31.201,-35.21,-31.085,-32.106,-27.303,-29.71
-20.301,-30.171,-27.293,-30.815,-27.242,-28.429,-27.4,-26.47
-20.047,-32.18,-26.664,-29.415,-26.846,-27.177,-30.449,-26.839
-23.171,-35.901,-25.66,-28.908,-25.973,-25.028,-30.138,-25.959
-20.245,-32.48,-17.387,-22.581,-17.652,-17.163,-18.974,-16.056
-11.026,-23.439,-8.453,-14.425,-8.693,-9.114,-7.314,-6.157
-7.831,-20.472,-10.581,-14.418,-10.652,-9.33,-8.184,-7.176
-13.041,-24.7,-18.849,-19.867,-18.352,-14.359,-14.331,-11.188
-15.732,-26.276,-19.589,-20.93,-18.724,-16.481,-13.008,-8.794
-13.493,-23.496,-14.53,-18.612,-14.125,-16.766,-9.195,-6.9
-14.69,-22.96,-15.82,-19.929,-16.232,-18.699,-14.396,-12.615
-20.208,-25.294,-22.936,-23.546,-23.72,-19.725,-24.812,-19.572
-22.489,-25.693,-24.959,-23.69,-25.603,-17.318,-28.382,-19.78
-19.83,-24.456,-19.993,-21.39,-20.387,-15.356,-23.234,-14.953
-17.928,-26.192,-16.412,-21.895,-16.675,-17.754,-18.412,-13.081
-19.43,-30.631,-17.829,-24.788,-18.112,-20.754,-20.439,-17.639
-20.119,-31.981,-17.185,-24.635,-17.617,-19.335,-22.082,-21.123
-15.561,-26.665,-10.178,-19.357,-10.784,-15.244,-14.529,-15.975
-7.489,-17.753,-4.542,-11.968,-5.268,-11.156,-6.923,-7.754
-1.438,-11.598,-4.951,-5.892,-5.688,-6.454,-9.034,-4.146
1.44,-9.845,-2.881,-1.295,-3.447,-1.607,-8.687,-0.42
5.686,-7.629,7.219,3.874,6.843,2.593,5.631,9.131
12.139,-1.998,16.662,8.876,16.295,6.425,21.063,16.831
14.056,2.516,14.643,8.917,14.273,7.232,18.991,12.31
7.48,0.206,2.22,1.435,2.037,1.246,0.425,-2.08
-1.132,-6.604,-9.675,-8.207,-9.664,-8.416,-17.318,-14.939
-3.195,-10.063,-12.417,-10.985,-12.408,-12.536,-20.115,-16.922
0.898,-7.369,-7.575,-5.308,-7.631,-7.4,-10.536,-8.345
4.398,-2.841,-2.688,0.811,-2.769,0.361,-2.947,0.466
4.737,-0.908,-1.166,0.62,-1.365,2.9,-3.586,1.748
6.189,-0.567,-0.079,-3.069,-0.551,0.58,-5.103,-0.676
12.655,2.913,3.909,-2.353,3.14,0.173,-1.799,0.258
20.933,9.558,9.524,4.304,8.633,3.963,2.038,3.547
24.823,13.601,14.078,11.454,13.342,7.762,4.076,6.538
25.43,14.709,20.854,18.828,20.354,12.518,14.887,17.005
27.207,17.248,30.492,27.617,29.916,20.597,35.994,35.094
25.24,16.824,29.694,26.992,28.708,21.959,41.568,37.105
14.706,7.699,11.829,10.685,10.646,10.024,17.73,13.573
6.825,-0.646,-2.738,-3.389,-3.558,0.302,-4.489,-4.213
13.19,2.853,4.652,0.738,4.369,5.369,3.311,5.547
23.398,9.494,16.472,8.143,16.376,9.892,15.949,15.084
18.822,3.915,6.589,-1.25,6.442,-2.469,-0.07,-2.799
1.108,-10.831,-13.976,-17.16,-13.965,-18.524,-24.161,-24.837
-11.013,-19.025,-16.916,-18.011,-16.599,-18.11,-19.405,-19.682
-10.08,-16.399,-3.592,-6.872,-3.129,-6.462,5.093,1.127
-8.186,-14.287,2.298,-2.624,2.756,-2.012,14.078,8.221
-13.744,-19.971,-5.531,-8.979,-5.212,-7.414,-0.129,-2.175
-18.719,-26.056,-11.52,-13.716,-11.534,-11.004,-13.384,-11.231
-17.28,-25.751,-8.84,-12.231,-9.111,-9.421,-10.591,-9.368
-15.856,-23.388,-7.363,-11.705,-7.505,-9.893,-3.697,-6.186
-18.473,-23.629,-10.81,-14.801,-10.675,-13.396,-3.65,-8.101
-20.554,-24.491,-10.62,-15.844,-10.496,-12.88,-2.531,-7.002
-19.244,-23.904,-4.972,-13.023,-4.975,-7.653,4.089,0.174
-18.581,-23.972,-5.076,-12.995,-4.88,-6.196,3.054,1.334
-21.447,-25.142,-13.899,-17.768,-13.301,-10.825,-8.704,-7.749
-23.296,-23.228,-17.422,-18.411,-16.635,-12.549,-11.984,-12.354
-19.929,-17.776,-9.837,-11.106,-9.122,-7.271,-0.644,-4.047
-14.79,-14.638,-2.539,-4.589,-1.909,-2.168,8.823,6.611
-13.324,-16.553,-1.788,-5.114,-1.111,-2.422,9.166,8.39
-16.337,-20.295,-3.717,-9.134,-2.885,-5.453,6.314,1.47
-20.679,-22.966,-7.514,-12.783,-6.498,-8.63,0.797,-8.313
-22.831,-24.357,-13.572,-16.743,-12.471,-12.604,-7.962,-16.622
-21.801,-24.349,-16.723,-20.476,-15.782,-16.147,-12.381,-20.172
-18.876,-22.016,-13.483,-20.299,-12.908,-14.953,-7.975,-16.312
-15.311,-17.67,-7.752,-15.254,-7.445,-8.051,-1.178,-7.694
-11.712,-12.995,-3.128,-8.411,-2.783,-0.104,2.853,-0.128
-7.99,-8.26,1.933,-1.842,2.444,4.669,7.477,5.321
-3.966,-3.521,7.623,4.01,8.17,6.998,14.717,10.929
-1.181,-1.59,9.792,7.356,10.196,8.922,19.153,15.8
0.021,-2.949,7.902,7.719,8.075,10.677,18.191,18.642
2.245,-3.16,6.71,7.773,6.813,12.225,16.917,20.267
3.629,-2.554,6.232,6.961,6.663,11.52,15.904,18.496
-1.105,-6.67,2.522,2.354,3.413,6.258,11.015,12.745
-9.292,-14.028,-2.95,-3.262,-2.009,0.265,4.392,8.368
-13.199,-17.388,-5.769,-4.803,-5.288,-1.05,0.62,7.684
-10.8,-14.456,-4.152,-1.499,-4.133,2.229,1.212,9.636
-5.138,-8.496,1.189,4.353,1.218,7.141,5.821,14.373
2.23,-1.822,8.257,10.434,8.49,12.023,11.637,19.307
11.911,6.168,15.744,15.782,15.836,16.631,16.188,21.245
20.723,13.436,21.834,18.751,21.713,19.103,19.124,21.18
23.258,15.657,23.798,17.713,23.836,17.713,19.976,20.945
21.415,14.672,23.219,15.711,23.445,15.809,20.197,21.076
21.205,15.352,24.312,16.377,24.432,16.236,22.338,21.006
22.12,15.768,25.154,17.048,25.23,15.499,22.991,17.958
20.479,12.318,21.035,14.347,21.278,11.706,16.964,11.111
18.293,8.921,15.461,11.308,15.704,9.506,8.96,5.752
20.212,10.934,15.48,12.151,15.582,12.028,7.563,6.556
26.03,16.653,20.161,16.49,20.403,17.006,11.797,11.679
30.968,20.909,23.951,21.521,24.441,21.37,14.94,16.857
31.222,21.399,25.155,24.732,25.548,23.501,14.718,19.124
27.543,19.786,25.26,25.212,25.453,23.553,13.709,18.025
24.295,20.365,25.498,25.232,25.755,23.923,15.684,17.861
25.417,25.837,26.715,27.903,27,26.916,22.223,23.016
28.742,31.739,26.693,30.038,26.71,29.483,25.826,26.325
28.582,32.121,21.655,26.23,21.449,26.32,17.417,17.917
25.82,29.668,15.618,21.046,15.484,20.877,6.553,7.488
24.723,28.933,14.421,20.808,14.415,19.741,6.508,8.526
24.878,28.719,14.166,21.495,14.171,20.297,7.491,11.492
26.262,28.791,11.63,19.499,11.656,18.711,-1.135,5.036
30.429,30.251,11.773,18.565,11.782,17.565,-6.884,-0.402
32.697,29.075,14.425,18.537,14.288,16.595,-0.673,3.346
27.095,22.113,12.573,14.399,12.512,11.665,5.341,5.336
17.984,15.121,7.198,8.306,7.576,5.698,3.74,1.04
12.783,13.311,3.516,4.695,4.21,2.98,-0.255,-2.305
11.237,13.638,-0.431,0.893,0.189,-0.458,-6.782,-7.069
12.881,15.587,-4.319,-1.617,-3.933,-3.713,-14.629,-14.053
19.253,22.573,-1.848,4.628,-1.602,2.464,-14.46,-10.801
25.24,29.965,6.021,16.176,6.298,15.491,-5.468,4.009
24.373,29.739,10.433,20.252,10.803,20.112,2.155,13.059
19.473,23.866,7.209,13.708,7.563,11.614,2.034,7.051
17.468,20.296,2.018,6.346,2.21,2.252,-2.149,-2.651
19.061,20.498,1.631,5.158,1.628,1.7,-3.988,-3.877
21.047,20.86,4.91,7.128,4.756,6.01,-2.213,0.679
23.565,21.956,8.917,10.135,8.681,10.62,3.788,6.668
27.18,25.819,14.792,16.361,14.649,17.132,15.275,16.585
27.685,27.87,18.976,21.049,19.045,21.443,23.243,24.069
22.189,22.762,12.927,15.03,13.011,14.655,14.494,15.44
15.661,14.543,-1.175,1.939,-1.432,0.605,-5.308,-3.805
14.436,11.374,-9.183,-4.21,-9.788,-5.929,-14.1,-11.222
17.341,14.093,-4.866,-0.439,-5.288,-1.293,-4.925,-2.469
17.951,16.212,1.132,2.096,1.318,3.006,4.016,3.29
13.5,12.955,-1.575,-2.631,-1.071,-0.052,-0.214,-2.488
8.119,7.17,-8.484,-8.273,-8.209,-5.082,-7.391,-8.61
5.987,4.115,-11.301,-10.039,-11.357,-7.479,-7.743,-10.564
5.164,2.911,-12.116,-11.697,-12.3,-9.816,-8.588,-14.644
4.33,1.339,-14.64,-14.061,-14.912,-12.289,-15.274,-18.657
7.507,2.657,-14.329,-11.833,-14.717,-10.733,-19.422,-16.439
12.82,6.436,-10.015,-7.14,-10.324,-7.535,-17.064,-13.66
11.21,4.936,-8.828,-8.336,-8.83,-9.727,-15.233,-16.794
2.291,-3.701,-12.651,-14.847,-12.37,-15.981,-16.738,-19.64
-5.387,-12.628,-17.11,-19.693,-16.82,-19.563,-18.884,-16.956
-8.918,-17.85,-22.423,-23.265,-22.489,-21.899,-23.842,-18.131
-10.855,-20.285,-29.787,-29.954,-30.324,-28.814,-33.691,-31.726
-9.998,-18.997,-33.492,-34.9,-34.185,-35.204,-40.557,-45.249
-4.622,-13.17,-29.079,-30.494,-29.578,-31.908,-36.578,-42.317
0.828,-7.483,-21.324,-22.236,-21.649,-24.334,-26.905,-30.215
0.174,-7.318,-17.277,-20.934,-17.492,-23.857,-20.727,-25.072
-6.466,-11.347,-18.809,-24.811,-18.744,-28.293,-19.885,-25.725
-12.696,-13.807,-22.885,-24.55,-22.68,-28.065,-22.288,-23.343
-13.465,-12.665,-25.769,-19.635,-25.968,-22.925,-26.775,-19.725
-10.48,-11.251,-27.862,-17.04,-28.513,-19.457,-33.296,-21.354
-8.155,-11.301,-30.735,-18.548,-31.288,-18.938,-39.114,-26.771
-7.063,-10.598,-31.537,-20.057,-31.741,-19.011,-38.797,-31.025
-4.592,-7.798,-26.943,-19.411,-27.072,-19.585,-32.017,-32.362
0.189,-3.605,-17.978,-16.232,-18.277,-18.633,-22.111,-28.036
4.208,0.296,-9.456,-10.236,-9.877,-13.535,-11.885,-18.492
3.705,2.007,-6.658,-4.167,-7,-7.596,-7.465,-11.48
-0.264,2.041,-8.983,-1.38,-9.066,-4.771,-11.45,-10.483
-3.39,2.128,-10.865,-2.009,-10.798,-4.432,-16.365,-13.033
-3.145,2.865,-10.072,-4.024,-10.211,-4.682,-16.222,-17.869
1.225,5.751,-8.097,-4.009,-8.527,-3.356,-13.103,-20.595
8.336,11.615,-5.904,-0.101,-6.39,0.939,-10.288,-15.266
13.693,16.529,-3.916,4.894,-4.313,5.723,-7.76,-4.941
13.868,15.509,-4.029,6.525,-4.29,6.346,-6.397,-0.48
10.111,9.498,-8.474,2.749,-8.449,0.869,-10.512,-7.434
7.398,5.05,-13.54,-3.24,-13.167,-6.361,-17.601,-16.816
9.522,6.157,-11.752,-4.73,-11.358,-8.026,-17.18,-16.877
12.981,8.656,-5.413,-1.557,-5.41,-4.157,-10.131,-10.804
10.946,6.572,-5.393,-1.495,-5.656,-2.471,-9.644,-8.748
3.938,1.131,-13.755,-7.266,-13.789,-6.104,-17.688,-11.677
-0.627,-1.51,-20.525,-12.458,-20.266,-10.227,-22.042,-14.65
1.506,0.856,-18.782,-12.178,-18.605,-11.1,-17.152,-15.394
6.293,4,-13.951,-9.75,-14.035,-10.852,-11.572,-15.137
7.103,3.867,-14.205,-9.947,-14.517,-12.006,-13.12,-15.479
3.56,1.882,-17.309,-10.59,-17.816,-12.255,-16.648,-14.965
0.136,0.848,-16.678,-8.544,-17.15,-9.95,-15.241,-13.219
-1.391,0.372,-14.075,-7.837,-14.315,-9.589,-13.99,-14.695
-0.698,0.859,-13.027,-10.259,-13.309,-12.503,-17.183,-18.56
3.266,4.523,-10.909,-9.795,-11.504,-12.154,-18.096,-17.58
7.512,9.068,-7.426,-5.22,-8.038,-7.004,-13.783,-12.546
8.073,10.011,-5.842,-1.932,-6.052,-3.004,-9.216,-9.619
7.455,8.4,-4.41,-0.351,-4.291,-1.407,-5.209,-7.511
10.782,8.973,0.606,3.877,0.675,2.425,0.854,-1.68
16.93,12.622,7.166,10.385,7.066,8.959,6.629,6.396
18.845,14.993,9.883,13.201,9.83,12.113,7.237,10.995
14.523,14.049,7.441,10.41,7.458,9.439,3.007,9.003
9.842,12.283,3.504,6.922,3.26,5.873,-1.024,2.778
6.937,9.186,0.3,4.517,-0.311,3.268,-2.917,-3.371
2.554,2.609,-3.742,0.185,-4.351,-1.079,-6.029,-7.151
-2.156,-3.285,-8.344,-4.584,-8.674,-5.293,-11.067,-7.902
-3.028,-2.811,-10.016,-5.774,-10.261,-6.229,-13.792,-7.421
-1.079,1.051,-7.88,-5.279,-8.288,-6.291,-12.984,-9.139
-0.99,0.736,-5.194,-6.498,-5.693,-7.607,-11.104,-12.015
-3.395,-3.458,-4.665,-7.894,-5.053,-8.301,-9.125,-12.39
-4.841,-5.293,-5.99,-7.509,-6.181,-7.698,-7.409,-10.449
-5.117,-4.558,-8.115,-6.626,-8.204,-7.098,-6.566,-7.646
-7.287,-5.426,-9.931,-6.331,-10.012,-6.396,-4.787,-3.942
-11.326,-7.628,-9.729,-6.029,-9.611,-5.138,-0.768,-0.592
-14.647,-8.458,-8.002,-5.776,-7.544,-4.302,1.712,-0.197
-15.64,-7.435,-6.902,-5.678,-6.619,-4.143,0.022,-3.316
-12.515,-4.643,-6.231,-3.978,-6.746,-2.735,-3.171,-6.4
-5.329,-0.304,-5.582,-0.029,-6.536,0.922,-5.616,-4.577
0.86,3.735,-6.01,3.452,-6.539,4.281,-5.92,0.73
2.343,5.721,-6.238,3.603,-6.331,3.936,-3.52,2.109
0.413,4.453,-5.184,0.117,-5.469,-0.526,-1.985,-2.338
-3.165,0.022,-5.006,-3.607,-5.627,-4.811,-2.783,-5.575
-5.687,-3.262,-5.289,-2.493,-5.872,-3.219,-1.615,-2.204
-3.722,-1.533,-3.534,3.159,-3.892,3.177,1.808,3.752
1.531,2.778,-1.436,7.397,-1.735,7.306,2.027,5.45
4.972,5.344,-1.526,7.205,-1.906,6.242,-1.162,3.139
3.126,4.757,-2.487,4.932,-2.903,2.95,-1.742,1.666
-2.332,2.412,-2.195,3.094,-2.613,0.451,2.029,2.721
-6.035,1.161,-1.9,1.801,-2.356,-0.575,4.207,3.487
-5.522,1.595,-4.634,0.441,-5.133,-0.48,0.113,1.385
-3.47,1.437,-8.532,0.035,-8.966,1.369,-5.055,-0.487
-3.514,-0.737,-9.189,1.336,-9.43,4.499,-4.479,1.773
-7.939,-5.428,-9.142,0.747,-9.179,4.117,-2.67,3.602
-16.83,-12.609,-13.626,-5.605,-13.514,-3.901,-7.702,-2.122
-25.754,-18.556,-20.173,-14.045,-19.97,-14.876,-17.078,-12.437
-27.992,-17.942,-21.912,-16.71,-21.711,-18.486,-21.602,-17.096
-23.785,-12.505,-18.767,-13.73,-18.603,-13.882,-19.142,-14.617
-20.71,-9.672,-16.866,-13.086,-16.747,-11.813,-16.998,-14.612
-20.793,-10.09,-16.653,-14.886,-16.662,-14.554,-18.337,-18.629
-18.892,-7.946,-13.513,-10.781,-13.621,-12.049,-17.502,-16.738
-14.373,-3.428,-8.238,-1.416,-8.296,-3.291,-12.729,-7.756
-10.413,-0.452,-2.827,5.704,-2.842,3.129,-6.412,0.711
-6.502,3.024,4.527,10.519,4.453,6.999,2.494,7.996
-3.069,8.655,10.138,14.363,10.108,11.476,10.102,14.294
-2.958,12.916,8.884,14.64,9.19,13.405,9.925,14.571
-4.329,14.658,6.858,13.081,7.55,12.11,7.788,10.891
-3.506,15.164,9.328,12.956,10.029,10.942,9.702,9.758
-0.46,14.993,10.356,13.109,10.642,10.611,8.656,9.866
3.42,15.397,8.015,12.845,7.783,11.202,3.404,9.516
5.508,15.329,8.289,12.774,7.774,12.71,4.239,11.942
2.806,11.373,11.177,11.379,10.732,12.627,11.695,15.998
-2.312,5.181,11.36,7.751,11.175,9.418,14.913,15.943
-4.294,2.663,8.306,4.137,8.375,5.946,10.267,11.394
-2.677,4.605,6.944,3.636,7.155,6.663,6.79,9.536
-0.938,6.91,10.152,6.583,10.288,10.834,11.027,13.661
-1.539,7.517,11.837,8.102,11.729,10.963,13.102,14.833
-6.605,4.777,3.61,2.323,3.418,2.324,2.084,5.298
-15.518,-3.274,-10.279,-8.489,-10.301,-9.049,-12.226,-6.67
-21.762,-12.563,-16.193,-15.344,-16.275,-13.824,-13.66,-8.753
-22.931,-18.558,-12.469,-16.156,-12.931,-13.313,-5.596,-4.333
-26.423,-25.005,-11.407,-17.62,-11.909,-16.07,-3.12,-4.502
-35.295,-34.279,-16.894,-21.051,-16.959,-21.139,-8.325,-8.151
-43.292,-41.482,-20.258,-21.337,-20.026,-21.03,-11.138,-8.125
-45.777,-43.487,-17.121,-18.673,-16.973,-17.204,-7.709,-5.349
-42.769,-41.675,-12.534,-17.447,-12.566,-16.187,-4.457,-4.848
-36.35,-37.913,-11.855,-17.869,-11.968,-17.579,-7.333,-8.338
-28.337,-32.12,-10.881,-14.883,-11.016,-14.76,-10.068,-9.276
-20.167,-24.349,-1.78,-6.043,-1.847,-6.003,-1.221,0.077
-16.448,-19.348,8.599,0.606,8.813,-0.749,10.863,8.844
-19.073,-20.545,6.486,-2.427,6.99,-5.48,6.199,1.036
-21.575,-23.375,-2.73,-8.356,-2.333,-11.521,-8.238,-11.861
-20.04,-23.939,-3.404,-9.087,-3.45,-11.139,-8.629,-11.13
-18.751,-24.509,1.837,-8.551,1.487,-10.254,0.727,-5.62
-21.274,-26.977,-1.503,-11.815,-1.816,-14.188,-2.646,-9.303
-27.021,-30.57,-14.529,-16.955,-14.765,-19.202,-18.374,-16.119
-32.587,-33.015,-24.612,-20.389,-24.981,-21.992,-28.003,-19.067
-31.876,-30.322,-22.9,-19.66,-23.434,-22.283,-24.512,-20.714
-24.553,-22.946,-13.753,-15.317,-14.293,-19.799,-17.055,-21.211
-19.679,-18.59,-7.606,-12.031,-8.056,-16.875,-14.872,-19.232
-21.239,-21.254,-7.525,-12.518,-7.895,-16.418,-16.303,-17.468
-23.785,-26.44,-9.566,-15.249,-9.92,-17.98,-16.606,-18.208
-24.809,-29.514,-11.814,-18.392,-12.096,-20.293,-17.442,-20.977
-24.581,-28.75,-13.271,-18.935,-13.315,-20.801,-19.473,-22.245
-22.351,-24.828,-12.966,-14.865,-12.989,-16.99,-18.991,-18.246
-21.435,-21.43,-12.924,-10.452,-13.375,-12.135,-16.095,-11.996
-24.608,-20.183,-14.071,-10.222,-14.775,-10.414,-13.997,-9.578
-29.965,-21.29,-17.43,-14.32,-17.845,-12.288,-16.192,-13.326
-36.499,-27.471,-26.164,-22.135,-26.325,-18.374,-26.238,-23.394
-42.593,-36.973,-36.648,-30.838,-36.837,-26.842,-40.189,-35.148
-44.649,-42.693,-39.283,-35.532,-39.341,-32.136,-45.764,-39.375
-41.397,-41.373,-30.687,-33.627,-30.469,-30.962,-36.328,-32.925
-34.647,-35.243,-17.922,-25.799,-17.66,-23.649,-21.069,-21.204
-29.551,-30.101,-12.535,-18.911,-12.323,-16.488,-16.616,-14.723
-29.155,-29.83,-15.626,-19.054,-15.293,-17.1,-22.523,-18.813
-26.685,-28.631,-13.295,-17.162,-12.891,-18.006,-17.753,-18.165
-18.247,-22.544,-2.257,-6.978,-2.008,-10.199,-0.903,-3.849
-15.724,-22.095,-1.168,-5.188,-1.022,-7.642,-0.561,-1.242
-27.035,-33.586,-18.471,-21.025,-18.168,-21.713,-25.204,-23.619
-39.473,-44.688,-35.664,-35.731,-35.155,-36.732,-47.425,-43.931
-40.625,-45.17,-36.276,-34.972,-35.818,-37.796,-46.834,-42.711
-35.85,-41.023,-27.941,-27.769,-27.84,-31.152,-33.928,-31.979
-33.487,-39.476,-23.633,-24.415,-23.897,-26.757,-25.179,-25.066
-32.724,-39.018,-20.827,-22.459,-21.182,-24.777,-18.339,-19.636
-29.472,-35.272,-11.641,-16.898,-11.829,-21.016,-5.075,-11.072
-21.795,-26.664,0.475,-9.213,0.56,-14.715,7.93,-3.359
-13.639,-17.636,3.914,-5.571,4.172,-10.499,5.726,-3.536
-10.176,-12.085,-0.457,-5.449,-0.19,-8.696,-5.131,-5.518
-7.681,-5.927,1.476,-0.938,1.753,-3.281,-2.809,2.034
-3.833,0.178,7.047,3.232,7.317,0.505,3.942,5.232
-4.037,-0.135,4.032,-1.507,4.187,-4.186,-3.103,-8.075
-3.976,0.714,4.966,-0.502,5.184,-1.835,-1.313,-8.967
5.019,12.148,22.784,18.045,23.371,17.309,26.793,19.695
15.583,23.23,38.315,34.024,39.027,31.252,49.27,43.153
16.636,21.762,32.185,29.245,32.484,23.509,38.31,33.846
8.632,12.043,12.923,12.492,12.911,6.051,8.323,6.426
-1.351,4.087,0.016,-0.118,0.186,-5.409,-10.996,-14.45
-2,6.957,6.081,3.157,6.313,-1.667,-0.016,-9.678
9.568,20.073,24.454,20.415,24.18,15.957,30.715,20.109
16.209,26.468,28.387,27.716,27.556,24.74,37.373,34.722
6.973,16.465,7.647,10.956,6.695,8.645,2.004,6.187
-4.337,3.273,-10.166,-8.636,-11.069,-12.879,-28.938,-27.206
-5.736,-0.056,-2.833,-8.682,-3.82,-16.134,-16.025,-22.744
-3.103,4.037,13.621,3.803,12.516,-4.637,14.192,1.868
-2.796,8.699,16.289,11.495,15.193,6.12,22.62,12.776
-2.892,10.707,5.818,9.608,4.844,7.965,9.096,6.636
-1.105,9.856,-2.967,5.463,-3.837,4.325,-5.383,-2.812
1.281,8.103,-1.312,6.763,-2.154,4.145,-7.725,-4.9
4.422,9.872,9.77,15.166,8.965,11.619,4.36,4.438
12.767,19.768,29.839,30.621,29.138,26.793,33.105,28.719
24.809,33.27,51.997,47.404,51.427,43.419,66.288,59.429
29.409,37.341,56.423,51.077,55.747,47.115,71.468,68.581
24.639,29.832,40.213,38.673,38.879,35.259,44.109,48.021
24.768,25.858,30.698,29.016,28.593,26.53,25.236,29.4
36.215,34.767,44.133,36.037,41.951,34.251,39.724,36.48
47.054,46.706,62.245,50.049,60.42,48.565,63.629,55.521
49.59,50.919,66.214,57.509,64.499,55.875,71.274,66.664
47.155,46.767,57.333,54.392,55.729,52.368,61.052,62.077
38.827,35.224,41.659,40.605,40.482,38.168,38.482,40.994
27.376,23.381,30.753,28.512,29.908,25.274,23.964,24.669
27.294,25.381,39.4,36.167,38.482,32.597,40.872,39.179
39.43,39.053,55.792,53.678,54.807,51.111,66.809,63.915
44.204,44.28,49.396,51.783,48.926,50.091,55.845,55.376
34.08,33.819,21.921,29.258,22.255,27.649,15.831,20.471
23.92,22.169,8.379,15.199,8.991,14.102,0.84,6.278
24.681,22.11,23.127,24.222,23.571,23.959,27.91,27.791
30.612,29.86,42.958,39.656,43.437,38.581,56.149,52.631
32.272,34.052,44.184,41.27,44.79,36.822,50.123,49.565
28.369,30.455,31.198,30.222,31.592,22.474,24.512,26.407
24.671,25.235,24.456,23.495,24.575,15.817,15.798,16.21
24.803,24.42,31.163,28.604,31.348,23.812,30.978,30.334
26.608,26.106,39.589,34.913,39.975,33.159,45.159,45.122
26.612,25.55,37.907,32.52,38.316,32.831,39.508,40.17
23.169,22.218,28.216,25.214,28.528,26.851,22.561,25.64
18.421,19.691,22.183,22.231,22.504,24.191,15.442,22.728
15.27,18.656,22.784,23.24,23.321,24.06,20.87,29.105
12.335,15.395,21.442,20.394,22.301,19.851,22.964,26.535
8.787,10.719,16.38,15,17.53,14.659,17.396,16.701
8.133,10.408,14.588,14.712,15.973,15.835,14.288,15.572
12.219,15.17,18.106,19.16,19.592,21.464,18.294,24.999
16.155,18.157,20.696,20.15,21.996,22.673,22.349,31.127
11.881,13.245,14.456,10.434,15.359,12.271,15.418,20.219
0.105,4.501,0.947,-4.765,1.594,-3.958,-0.906,-1.527
-7.144,2.452,-6.471,-9.465,-5.703,-8.869,-9.163,-10.31
-3.61,8.421,-0.092,0.743,0.952,1.828,-0.614,1.12
3.185,13.358,11.502,13.068,12.58,13.976,12.711,15.144
6.953,14.013,18.629,18.822,19.468,19.23,20.328,21.708
11.312,16.638,22.739,21.989,23.333,22.931,26.168,27.988
18.863,23.146,26.58,25.633,27.076,27.622,31.552,34.452
23.762,26.783,25.858,25.674,26.405,27.453,28.267,31.004
22.113,25.086,19.108,20.692,19.727,20.612,16.639,18.569
20.098,24.633,14.612,17.436,15.146,15.446,10.848,11.86
23.838,29.359,19.004,21.943,19.356,19.715,18.755,18.572
30.365,35.419,27.622,30.38,27.977,29.75,30.659,29.917
33.442,37.465,30.815,33.611,31.462,34.922,33.266,33.054
31.048,33.129,25.049,28.239,26.016,30.537,25.878,26.337
27.158,26.306,17.833,20.879,18.78,23.493,19.636,20.791
27.525,25.088,19.039,20.94,19.548,23.348,23.206,25.269
30.301,29.108,25.041,25.917,25.057,27.061,30.614,31.619
28.681,29.634,24.078,24.759,24.093,24.341,30.009,27.064
23.499,24.814,16.178,17.942,16.735,17.284,20.61,15.511
19.03,18.667,9.88,13.452,10.938,13.976,9.921,7.789
14.312,12.443,7.674,11.713,8.786,13.239,4.502,6.21
8.569,6.79,6.239,8.857,7.202,10.4,5.378,6.844
3.076,2.16,1.857,2.521,2.761,4.079,4.789,2.822
-1.422,-0.921,-4.568,-4.743,-3.757,-2.431,-1.654,-5.899
-2.673,-0.105,-6.3,-6.477,-5.563,-2.928,-4.974,-8.37
1.209,4.214,0.292,-1.613,1.363,3.022,1.538,-0.273
7.297,7.71,8.806,3.813,10.379,8.478,9.837,8.283
10.686,8.873,10.574,5.359,12.139,8.836,10.411,8.642
10.097,10.403,6.405,5.051,7.577,7.401,6.392,4.762
6.717,11.343,3.166,5.222,4.2,8.01,5.798,4.369
3.288,8.313,4.004,4.752,5.247,9.366,10.024,8.377
3.929,4.853,8.059,4.464,9.474,10.273,15.704,13.412
7.665,6.115,12.092,6.608,13.425,11.843,18.683,17.134
9.926,9.951,12.77,10.071,13.987,14.145,17.06,18.988
10.879,12.291,12.156,12.269,13.437,15.593,15.728,19.989
12.05,12.801,14.674,12.883,15.968,15.544,20.463,21.304
10.945,11.433,17.675,12.601,18.73,14.813,25.706,21.445
6.594,6.982,14.883,10.636,15.647,13.117,21.362,17.996
3.233,1.738,8.895,7.688,9.495,10.592,11.78,13.322
3.935,0.883,8.414,7.666,8.948,10.463,10.785,13.469
6.246,4.878,13.863,11.619,14.405,14.384,19.294,19.364
6.379,8.237,16.144,14.003,16.713,17.488,23.966,22.673
3.493,6.767,9.241,9.534,9.752,14.041,15.868,15.092
-1.145,1.767,-2.499,0.883,-2.029,6.039,-0.041,0.314
-5.351,-2.681,-11.203,-5.579,-10.535,-0.365,-12.922,-11.093
-6.594,-4.045,-14.895,-8.062,-13.913,-3.362,-17.336,-14.877
-4.121,-2.195,-15.435,-7.663,-14.381,-3.891,-14.587,-12.16
0.372,1.796,-13.216,-4.856,-12.295,-2.213,-8.717,-5.328
3.214,4.785,-10.5,-2.762,-9.664,-1.035,-5.739,-1.718
0.841,3.746,-11.397,-4.975,-10.603,-3.29,-9.074,-6.096
-5.195,0.933,-14.521,-8.448,-13.798,-5.814,-13.682,-10.582
-8.835,0.434,-15.554,-8.474,-14.929,-5.08,-13.807,-7.954
-6.494,1.552,-14.869,-7.106,-14.388,-4.565,-11.458,-3.501
-0.951,2.093,-14.11,-7.653,-13.681,-6.67,-9.439,-1.934
0.704,1.967,-12.911,-8.948,-12.413,-7.603,-7.095,-0.274
-4.838,0.166,-13.664,-10.707,-13.288,-7.329,-6.986,0.454
-12.118,-3.81,-18.81,-14.61,-18.748,-10.358,-12.319,-4.519
-15.445,-6.911,-24.13,-18.804,-24.134,-14.888,-18.255,-11.244
-15.441,-6.803,-24.942,-19.924,-24.652,-15.582,-18.097,-11.577
-14.222,-5.974,-24.288,-19.289,-23.664,-14.199,-14.385,-7.674
-14.48,-8.75,-27.934,-21.092,-27.223,-16.196,-15.046,-9.198
-20.142,-14.614,-34.429,-25.23,-33.828,-20.581,-20.925,-17.542
-28.815,-17.287,-34.847,-26.266,-34.21,-20.715,-22.62,-22.057
-30.302,-13.013,-25.209,-20.616,-24.389,-13.684,-13.838,-15.028
-20.088,-5.543,-14.867,-12.389,-14.16,-5.261,-3.841,-4.436
-7.319,-0.913,-14.461,-8.955,-14.07,-3.292,-5.113,-2.562
-3.719,-1.879,-21.447,-12.244,-21.075,-8.298,-14.846,-8.419
-12.202,-7.955,-27.916,-19.403,-27.45,-16.233,-23.669,-16.375
-27.069,-15.558,-32.108,-26.202,-31.83,-22.969,-29.485,-25.681
-37.922,-17.924,-33.126,-26.703,-32.982,-22.888,-29.948,-29.206
-36.736,-11.64,-28.627,-20.143,-28.283,-16.104,-22.167,-21.052
-25.1,-2.617,-21.652,-14.447,-21.201,-11.005,-14.243,-13.065
-11.608,1.899,-17.195,-13.758,-16.931,-10.287,-14.321,-14.583
-3.389,3.782,-14.516,-12.388,-14.31,-7.807,-15.782,-15.455
-1.357,8.376,-10.957,-6.468,-10.548,-1.435,-11.669,-9.233
-2.114,13.682,-8.1,-1.076,-7.583,3.119,-7.646,-5.607
-2.712,14.53,-8.387,-1.028,-7.901,2.075,-9.284,-10.385
-0.331,13.977,-9.039,-2.183,-8.486,-0.164,-11.794,-15.3
6.617,18.499,-5.734,1.066,-5.132,1.359,-8.757,-12.029
12.86,24.9,-0.437,6.225,-0.027,4.599,-2.425,-4.076
11.68,25.771,2.197,8.375,2.436,6.087,0.979,0.524
5.272,21.943,2.519,7.597,2.929,5.705,1.298,0.289
2.047,19.039,3.317,6.082,3.956,4.056,1.905,-1.502
5.201,18.735,4.137,4.704,4.628,2.256,1.661,-3.108
8.851,18.287,2.315,3.312,2.522,1.566,-2.434,-5.131
8.379,16.162,-1.259,2.196,-0.905,1.487,-6.778,-6.752
7.743,16.065,-0.964,3.418,-0.237,2.346,-3.81,-3.969
11.923,21.721,5.7,7.923,6.27,5.71,5.763,3.69
18.3,28.179,12.526,11.117,12.48,8.636,11.137,7.655
19.434,26.55,11.946,7.624,11.659,5.781,5.523,1.113
13.494,18.359,5.082,0.523,5.04,-0.355,-4.311,-8.659
5.504,12.507,-2.7,-4.043,-2.622,-3.387,-10.086,-12.428
-2.482,9.346,-10.979,-7.972,-10.898,-5.453,-14.849,-14.995
-11.879,3.117,-19.827,-14.717,-19.428,-11.566,-22.206,-22.296
-19.053,-5.054,-24.382,-20.417,-23.536,-18.727,-26.269,-27.583
-18.649,-9.109,-21.618,-20.909,-20.681,-21.154,-22.938,-25.213
-13.791,-7.908,-16.117,-18.343,-15.36,-18.687,-17.745,-20.831
-11.46,-6.212,-14.821,-17.62,-14.133,-16.473,-17.885,-21.509
-12.695,-8.259,-19.118,-20.855,-18.519,-18.968,-23.798,-27.352
-14.36,-12.884,-24.572,-24.729,-24.449,-23.68,-29.192,-32.182
-12.66,-14.103,-26.039,-23.54,-26.446,-23.249,-28.336,-29.618
-8.01,-9.287,-22.195,-16.883,-22.526,-15.946,-22.142,-20.377
-8.818,-5.463,-17.652,-12.154,-17.486,-10.01,-16.49,-12.394
-17.267,-8.882,-17.179,-14.758,-16.805,-12.162,-15.329,-11.402
-22.652,-14.999,-18.726,-20.215,-18.616,-17.824,-17.187,-14.912
-21.291,-17.941,-19.06,-22.115,-19.299,-19.902,-19.687,-18.482
-20.218,-18.217,-18.716,-19.04,-19.048,-16.572,-20.917,-18.914
-19.656,-17.238,-17.41,-12.195,-17.611,-8.801,-17.749,-13.228
-15.645,-15.922,-15.542,-6.957,-15.532,-2.982,-12.465,-6.746
-13.32,-17.316,-17.245,-10.243,-17.064,-7.497,-12.781,-10.138
-18.917,-22.203,-22.624,-19.666,-22.619,-18.901,-18.568,-20.712
-25.958,-25.465,-24.987,-25.394,-25.49,-25.227,-21.343,-25.618
-24.393,-22.678,-21.424,-23.278,-22.109,-22.505,-18.215,-22.296
-16.573,-16.857,-16.721,-17.6,-17.013,-16.243,-13.889,-17.507
-12.639,-13.933,-15.027,-13.837,-14.943,-12.148,-11.555,-14.652
-16.322,-15.376,-15.799,-14.155,-15.734,-12.382,-11.125,-13.722
-22.383,-19.378,-17.067,-16.999,-17.167,-15.422,-12.325,-14.503
-25.09,-23.971,-17.757,-19.055,-17.985,-17.55,-13.708,-15.923
-24.182,-26.064,-17.806,-19.121,-18.125,-17.619,-13.416,-17.47
-22.516,-23.841,-17.868,-19.142,-18.147,-18.055,-13.537,-20.295
-21.384,-20.414,-18.164,-20.371,-18.329,-19.371,-16.67,-23.872
-20.732,-20.389,-18.079,-21.707,-18.26,-19.671,-20.121,-25.172
-22.865,-24.011,-17.82,-22.027,-18.098,-19.154,-20.624,-23.408
-27.604,-26.136,-17.121,-19.908,-17.368,-17.702,-18.085,-19.739
-26.516,-22.317,-13.879,-14.541,-13.935,-13.351,-13.366,-14.593
-16.162,-15.453,-8.874,-9.043,-8.72,-7.835,-8.275,-9.738
-8.44,-12.271,-6.723,-7.727,-6.542,-6.372,-4.955,-7.833
-12.622,-14.085,-9.089,-11.106,-9.141,-10.739,-5.288,-10.735
-19.796,-15.36,-11.378,-14.629,-11.701,-15.67,-8.866,-16.744
-19.119,-12.561,-9.399,-13.207,-9.815,-15.027,-10.354,-18.687
-14.774,-9.18,-5.97,-8.365,-6.362,-10.53,-6.258,-13.433
-13.087,-7.756,-4.059,-3.94,-4.4,-6.181,0.995,-5.079
-9.745,-5.486,-0.791,0.968,-1.124,-0.997,8.244,3.54
-1.672,-1.165,4.427,6.124,3.923,4.276,12.002,8.713
6.632,4.259,8.44,9.275,7.711,7.296,11.103,7.499
14.193,12.038,13.082,13.09,12.31,11.064,12.094,6.893
22.62,20.757,20.98,19.509,20.24,17.031,19.92,13.329
27.664,24.656,27.439,24.442,26.68,21.189,29.315,22.327
27.163,23.487,29.547,27.352,28.871,24.441,35.707,30.138
26.462,23.503,32.486,32.722,32.001,31.698,41.884,38.453
27.056,25.464,37.49,37.838,37.098,38.776,47.225,44.324
23.462,23.387,37.65,33.915,37.252,35.456,45.046,40.72
15.253,16.346,30.439,20.874,29.983,21.767,34.802,27.946
9.613,10.125,21.748,8.547,21.102,8.845,24.294,15.503
9.275,6.461,15.89,2.449,15.061,2.988,17.936,9.629
8.408,1.245,10.898,-1.791,10.106,-1.219,12.739,5.458
4.212,-5.4,5.551,-7.476,4.988,-8.394,6.978,-1.811
2.169,-8.076,3.096,-10.377,2.833,-13.271,3.923,-7.218
2.926,-7.13,3.76,-8.972,3.639,-12.06,4.3,-6.636
-2.082,-9.136,2.092,-9.639,1.795,-10.97,3.82,-4.797
-13.623,-15.47,-4.28,-15.777,-4.718,-15.465,-0.798,-7.559
-19.62,-20.347,-10.618,-22.257,-10.899,-21.966,-9.204,-15.447
-13.375,-19.443,-11.451,-22.83,-11.723,-23.514,-16.332,-22.142
-3.895,-15.848,-7.815,-17.74,-8.366,-18.877,-15.661,-20.039
-1.953,-15.832,-5.451,-12.961,-6.096,-14.403,-9.278,-12.254
-6.026,-19.136,-5.965,-11.581,-6.429,-14.238,-5.41,-8.409
-8.814,-20.017,-5.766,-10.201,-6.034,-13.834,-5.427,-8.67
-7.373,-17.351,-3.986,-6.756,-4.173,-9.655,-5.57,-6.878
-4.375,-15.492,-3.916,-5.235,-4.223,-6.861,-6.382,-4.43
-4.184,-15.782,-5.736,-7.975,-6.153,-9.424,-9.172,-6.459
-4.698,-14.324,-4.945,-9.921,-5.166,-11.919,-10.633,-10.604
0.201,-10.216,-0.61,-7.206,-0.657,-9.47,-8.663,-11.529
7.923,-7.597,2.751,-3.158,2.49,-5.157,-5.111,-8.61
10.993,-6.349,4.348,0.313,3.876,-1.319,-0.346,-2.28
11.215,-1.642,8.68,5.779,8.309,4.036,6.388,6.803
15.747,5.986,16.379,12.487,16.14,10.374,12.961,14.495
24.599,11.191,23.021,16.996,22.808,15.039,17.14,18.158
31.954,12.913,26.493,19.022,26.305,17.322,19.722,20.129
32.332,13.051,27.253,19.06,27.061,16.492,20.804,20.902
25.312,12.055,26.166,17.727,25.923,13.88,19.44,18.596
19.6,11.849,26.491,18.979,26.194,15.104,19.14,17.176
21.654,13.816,29.407,23.965,29.056,20.45,23.289,21.293
25.726,16.2,31.249,27.763,30.846,23.658,27.879,26.567
27.693,19.402,31.858,28.924,31.403,24.694,29.644,28.637
30.715,24.069,34.521,30.263,34.007,27.622,31.587,30.496
32.469,25.419,36.698,30.776,36.123,29.965,33.718,32.586
27.773,19.968,33.929,28.258,33.33,27.94,32.087,31.092
20.448,12.596,29.394,24.748,28.834,24.071,28.288,27.666
17.487,9.946,28.576,23.442,28.102,22.949,27.415,27.376
19.29,11.991,30.355,24.579,30.032,25.292,29.404,29.956
23.804,14.711,30.829,26.083,30.585,28.027,30.86,31.549
29.754,16.313,28.973,25.939,28.546,27.954,30.37,30.236
32.752,16.944,25.822,23.865,25.19,25.104,28.233,26.862
29.465,16.533,23.215,21.586,22.68,22.463,25.661,24.154
25.403,16.183,22.922,21.423,22.603,22.489,24.726,24.342
28.833,18.801,25.876,24.693,25.582,25.617,27.147,27.68
38.488,24.679,30.989,29.66,30.62,30.267,32.1,32.776
44.881,28.782,34.121,31.8,33.813,32.808,35.387,35.803
42.552,26.688,32.147,28.934,32.014,30.683,33.892,33.296
37.121,21.689,28.097,24.473,28.055,26.551,30.387,27.963
38.165,21.484,27.823,23.472,27.628,26.026,29.886,26.145
45.968,27.878,31.532,25.905,31.042,29.307,32.144,28.55
52.917,35.446,34.055,27.652,33.504,31.252,33.18,30.422
55.361,39.584,33.104,27.262,32.858,30.535,32.104,29.723
54.786,39.933,31.387,26.042,31.385,29.836,30.738,28.168
53.464,39.104,31.876,25.198,31.751,30.005,30.186,27.535
53.662,40.867,34.562,26.126,34.248,30.88,30.498,28.366
54.542,44.521,36.052,27.974,35.761,32.014,29.864,28.568
51.579,43.216,31.866,25.59,31.585,29.655,24.946,24.204
44.52,35.09,22.82,17.166,22.366,21.603,16.528,15.939
38.473,28.198,16.087,9.842,15.535,13.997,11.251,10.864
34.775,27.265,14.995,8.961,14.499,12.737,12.242,12.328
33.361,29.524,16.498,11.402,15.848,15.384,15.658,15.782
38.742,34.371,19.193,14.818,18.222,18.693,18.936,18.304
49.908,41.494,22.629,19.528,21.732,22.346,22.188,21.268
57.193,46.574,24.805,23.4,24.355,25.412,24.602,24.709
56.604,48.077,26.214,25.501,25.962,28,26.424,27.609
53.793,49.027,28.726,28.137,28.205,31.721,28.992,29.729
53.854,50.394,31.318,31.44,30.387,35.434,31.377,30.33
54.921,49.083,30.911,32.19,29.885,35.257,31.145,28.77
51.052,42.66,25.973,29.214,25.304,30.628,28.031,26.204
40.957,33.531,19.552,25.505,19.24,26.055,24.693,24.624
31.413,26.89,17.339,23.824,16.944,24.37,23.792,24.689
29.062,25.334,20.551,23.93,19.886,23.727,25.119,25.49
33.639,27.469,24.221,24.471,23.509,22.535,25.926,25.795
39.934,30.363,24.102,24.515,23.458,21.623,24.271,24.891
40.916,31.093,20.945,23.526,20.308,21.354,20.985,23.069
33.636,28.251,17.473,21.278,16.946,20.284,17.984,21.102
24.471,23.825,15.265,18.189,14.985,17.59,16.431,19.056
19.653,20.446,14.016,14.767,13.772,14.281,15.795,16.106
16.242,17.447,12.15,10.871,11.624,10.992,14.24,11.537
11.368,13.323,9.041,6.974,8.441,7.572,11.096,5.899
8.599,8.674,5.839,4.228,5.626,4.695,7.366,1.319
10.821,5.522,4.862,3.704,4.866,4.214,4.824,0.51
15.085,5.304,6.672,5.013,6.365,5.889,4.185,2.475
15.102,5.668,6.581,3.939,6.088,4.629,2.145,1.288
8.661,2.86,0.585,-2.126,0.514,-2.013,-4.278,-5.214
-0.066,-2.85,-7.643,-8.772,-7.198,-8.616,-11.77,-12.17
-7.85,-9.289,-13.154,-12.028,-12.633,-11.373,-16.295,-16.246
-14.585,-15.292,-16.51,-13.74,-16.232,-13.185,-19.048,-18.547
-20.501,-21.124,-21.147,-17.651,-21.164,-17.827,-23.328,-20.913
-26.673,-28.933,-29.089,-25.461,-29.242,-26.025,-30.585,-25.218
-32.135,-38.114,-37.936,-34.363,-37.849,-34.655,-38.989,-32.127
-34.312,-44.097,-43.431,-39.724,-42.965,-39.619,-45.491,-39.556
-34.66,-44.698,-45.017,-40.298,-44.563,-39.994,-49.082,-44.389
-34.681,-41.428,-43.463,-37.218,-43.402,-36.86,-49.242,-44.4
-32.381,-37.17,-38.872,-32.358,-39.051,-31.935,-45.448,-40.201
-29.493,-35.964,-34.901,-29.431,-34.904,-28.808,-40.459,-35.873
-31.313,-40.023,-35.504,-30.961,-35.182,-30.271,-37.801,-34.047
-36.764,-46.324,-37.514,-34.151,-37.022,-33.891,-36.574,-32.42
-39.314,-49.539,-35.022,-34.129,-34.511,-34.542,-33.783,-28.693
-37.156,-47.601,-28.659,-30.483,-28.216,-31.623,-29.57,-24.863
-34.55,-43.669,-24.676,-27.675,-24.35,-29.891,-27.158,-24.103
-34.498,-42.49,-26.327,-28.494,-25.966,-31.682,-28.202,-26.329
-35.251,-44.669,-30.096,-30.142,-29.56,-33.552,-30.408,-28.6
-35.47,-47.308,-31.623,-29.631,-31.2,-32.832,-31.219,-28.857
-37.953,-49.429,-31.793,-28.891,-31.888,-31.36,-31.272,-27.565
-44.605,-52.918,-34.211,-31.493,-34.797,-32.126,-32.835,-26.97
-53.298,-59.106,-39.358,-37.632,-40.015,-36.377,-36.54,-29.275
-60.894,-66.414,-44.584,-43.765,-44.867,-42.556,-40.376,-33.662
-65.133,-71.021,-48.443,-46.157,-48.241,-46.883,-41.876,-36.57
-65.148,-70.324,-51.226,-44.609,-50.779,-47.103,-41.011,-36.408
-62.139,-65.75,-52.488,-42.217,-52.031,-45.123,-40.069,-35.626
-59.553,-61.044,-51.924,-41.212,-51.641,-43.993,-40.69,-37.039
-59.706,-58.476,-50.779,-41.007,-50.899,-44.211,-42.236,-39.992
-60.04,-58.439,-49.723,-41.201,-50.207,-45.181,-43.105,-41.951
-58.24,-60.472,-47.655,-42.061,-48.114,-46.516,-42.254,-41.81
-57.318,-62.606,-44.102,-41.575,-44.285,-46.259,-39.632,-39.246
-60.161,-63.72,-40.898,-38.675,-40.774,-43.32,-36.243,-34.514
-63.512,-64.783,-39.485,-36.171,-39.017,-39.894,-33.368,-29.819
-63.025,-65.132,-39.021,-35.397,-38.47,-37.539,-31.95,-27.49
-62.204,-64.253,-39.481,-34.905,-39.298,-36.092,-32.79,-27.869
-65.854,-64.518,-41.784,-34.941,-41.94,-36.431,-35.06,-29.674
-68.477,-65.695,-44.064,-36.354,-44.264,-38.943,-36.061,-31.058
-63.982,-64.451,-44.063,-37.638,-44.239,-41.189,-35.34,-31.23
-58.344,-62.46,-43.826,-38.207,-43.992,-41.653,-36.204,-31.87
-59.73,-65.399,-46.463,-40.557,-46.591,-42.937,-40.781,-35.375
-66.755,-73.026,-51.637,-45.705,-51.675,-47.126,-47.448,-41.614
-74.825,-80.754,-58.824,-52.912,-58.813,-53.794,-55.649,-49.543
-83.425,-87.501,-68.386,-62.562,-68.502,-62.649,-66.438,-59.151
-89.882,-91.075,-74.944,-70.69,-75.202,-69.788,-74.975,-66.88
-88.92,-87.141,-71.59,-70.098,-71.859,-69.151,-74.334,-67.096
-81.597,-78.602,-62.004,-61.963,-62.332,-62.25,-67.26,-60.763
-71.248,-71.018,-53.861,-52.672,-54.258,-54.288,-60.374,-52.67
-61.051,-64.402,-47.958,-44.579,-48.117,-46.759,-54.109,-45.142
-57.946,-58.952,-43.843,-39.578,-43.594,-42.076,-48.159,-40.552
-60.371,-55.916,-41.436,-38.899,-41.073,-41.926,-43.931,-39.369
-57.2,-52.531,-36.326,-37.828,-36.267,-40.944,-38.959,-36.056
-48.86,-47.525,-27.056,-32.525,-27.419,-34.664,-30.984,-27.275
-47.02,-45.961,-20.594,-27.404,-20.938,-27.928,-24.529,-19.629
-53.369,-50.351,-21.24,-27.205,-21.007,-26.487,-23.917,-19.707
-57.042,-53.876,-22.777,-28.069,-22.119,-27.255,-24.69,-22.089
-52.312,-49.643,-18.783,-23.999,-18.309,-23.947,-20.601,-18.214
-45.034,-40.638,-12.42,-16.972,-12.317,-17.523,-14.139,-11.439
-41.248,-34.786,-10.086,-13.54,-10.15,-14.202,-12.237,-11.172
-40.62,-34.756,-12.459,-15.308,-12.726,-15.614,-16.188,-17.089
-40.773,-37.636,-16.21,-19.095,-16.83,-18.528,-21.758,-21.313
-41.653,-42.003,-20.018,-23.543,-20.541,-22.513,-26.186,-22.456
-44.037,-47.644,-23.737,-28.579,-23.548,-28.241,-29.368,-24.468
-45.996,-50.095,-24.117,-30.652,-23.489,-30.983,-28.995,-24.807
-44.5,-45.396,-18.88,-26.562,-18.52,-26.449,-22.689,-18.469
-38.373,-36.303,-12.292,-19.397,-12.275,-18.9,-15.457,-10.735
-28.656,-26.724,-8.784,-13.802,-8.867,-14.38,-14.076,-10.249
-18.856,-17.454,-6.233,-9.304,-6.547,-11.523,-15.022,-13.032
-12.895,-10.74,-3.009,-4.987,-3.769,-7.935,-11.782,-11.127
-12.227,-10.799,-3.481,-5.096,-4.452,-8.231,-8.687,-9.863
-15.11,-17.174,-9.482,-11.755,-10.147,-15.269,-12.684,-16.925
-16.734,-23.565,-15.189,-18.823,-15.362,-22.419,-19.853,-25.854
-14.086,-24.721,-15.229,-19.406,-15.235,-22.319,-21.472,-26.164
-12.185,-21.261,-11.806,-13.793,-11.992,-15.64,-16.743,-18.153
-17.169,-18.053,-10.322,-7.983,-10.603,-9.131,-12.274,-9.968
-24.176,-18.446,-11.176,-6.861,-11.277,-8.249,-12.068,-7.479
-24.285,-20.001,-10.784,-9.153,-10.836,-11.321,-13.698,-9.509
-18.476,-18.359,-8.087,-10.013,-8.446,-12.366,-13.739,-11.188
-12.091,-13.9,-4.909,-7.627,-5.434,-9.227,-11.917,-10.045
-5.22,-9.98,-2.246,-4.044,-2.479,-4.662,-9.256,-6.885
2.939,-6.527,0.698,-0.342,0.723,-0.135,-5.466,-2.785
10.506,-0.166,5.43,5.328,5.237,6.188,1.038,3.121
15.437,8.665,11.393,12.602,10.834,13.294,8.738,10.479
17.108,13.703,14.262,15.838,13.703,15.314,10.859,13.569
16.679,12.065,11.747,12.563,11.509,11.16,5.52,9.35
14.81,8.99,7.67,8.484,7.717,7.494,0.313,3.662
11.677,9.241,6.101,8.131,6.351,7.929,-0.066,0.853
9.582,10.673,7.157,9.159,7.638,9.259,1.504,-1.23
10.383,9.484,9.351,8.519,9.89,8.744,2.64,-3.068
13.47,7.066,12.33,7.806,12.618,8.364,4.677,-0.834
16.161,6.588,16.051,9.663,16.068,10.668,8.745,6.123
14.181,6.386,17.925,11.992,17.926,13.29,12.064,11.139
8.361,4.683,15.534,11.576,15.67,13.253,11.328,8.644
6.548,5.095,11.753,10.292,11.893,12.954,8.853,3.083
11.269,9.309,10.927,10.834,10.973,14.429,9.379,2.985
14.961,12.229,11.436,10.973,11.544,14.245,11.913,8.007
12.88,10.175,8.798,7.765,9.037,9.98,11.459,10.16
10.972,7.528,5.385,4.279,5.594,6.139,8.769,8.861
14.953,10.122,7.431,6.131,7.54,8.019,9.616,11.502
20.692,15.732,12.833,11.976,12.924,13.142,14.025,17.636
22.417,17.903,13.908,15.192,13.96,15.619,16.358,19.442
19.544,15.357,9.138,13.327,9.11,14.261,14.001,15.9
13.7,11.434,3.119,9.035,3.099,10.891,8.744,12.034
8.772,8.919,-0.683,5.177,-0.693,7.06,3.144,8.928
7.046,7.535,-3.407,2,-3.464,3.544,-1.654,4.043
4.579,5.048,-7.238,-1.822,-7.206,-0.101,-5.159,-1.842
0.363,1.954,-10.227,-5.189,-9.994,-3.253,-5.944,-4.367
0.369,0.95,-10.073,-5.771,-9.781,-4.282,-4.299,-2.545
5.393,1.577,-9.038,-4.869,-8.781,-4.323,-3.856,-0.809
8.259,1.84,-9.017,-4.662,-8.698,-5.132,-6.108,-2.572
5.673,1.487,-8.893,-4.565,-8.526,-5.886,-8.4,-6.593
1.191,-0.22,-9.08,-4.762,-8.82,-6.644,-9.405,-10.111
-1.843,-3.539,-10.518,-6.428,-10.297,-8.731,-9.844,-11.863
-2.237,-5.316,-11.237,-7.902,-10.811,-10.776,-9.076,-12.48
-0.902,-3.564,-10.733,-7.55,-10.134,-11.046,-7.839,-13.754
-1.029,-1.348,-11.917,-7.404,-11.4,-10.975,-9.379,-16.011
-2.463,-0.497,-14.342,-8.746,-13.949,-11.493,-12.748,-16.354
-2.042,1.083,-14.695,-10.056,-14.291,-11.439,-13.936,-13.992
-2.391,1.774,-14.922,-12.081,-14.468,-11.858,-14.573,-13.829
-6.208,-1.864,-18.518,-16.28,-18.077,-13.858,-18.221,-17.641
-7.86,-6.252,-22.278,-19.676,-21.948,-14.574,-21.938,-19.973
-6.196,-7.102,-22.505,-19.836,-22.367,-13.174,-21.927,-18.792
-7.791,-6.801,-21.875,-18.709,-21.856,-13.061,-20.748,-18.457
-11.103,-7.583,-22.887,-17.314,-22.766,-14.553,-21.552,-20.214
-9.477,-7.993,-23.339,-15.073,-22.969,-15.187,-22.574,-21.579
-3.379,-6.559,-21.189,-12.965,-20.623,-14.554,-21.8,-22.383
3.47,-2.9,-17.856,-11.473,-17.221,-12.66,-20.796,-23.034
7.108,0.633,-16.688,-10.744,-16.088,-10.273,-21.697,-23.291
3.424,-0.106,-18.52,-12.134,-17.973,-10.301,-23.638,-24.153
-3.984,-3.711,-18.918,-13.444,-18.395,-11.874,-22.874,-23.69
-6.76,-4.571,-15.213,-10.279,-14.868,-10.178,-17.76,-18.311
-5.435,-3.299,-11.869,-5.246,-11.854,-6.011,-12.289,-11.843
-5.89,-4.175,-10.998,-4.047,-11.057,-4.46,-9.78,-10.543
-7.279,-5.704,-8.205,-5.309,-8.043,-5.606,-8.2,-12.383
-5.693,-4.493,-3.321,-5.18,-3.064,-6.785,-6.81,-13.499
-2.46,-1.85,-2.044,-4.517,-1.939,-7.833,-8.745,-16.037
-1.705,-1.507,-6.303,-5.789,-6.351,-9.502,-14.647,-21.759
-4.071,-5.05,-12.784,-9.838,-12.832,-12.981,-21.614,-28.17
-6.471,-9.464,-18.196,-15.527,-18.197,-18.947,-27.152,-32.893
-6.953,-10.27,-20.943,-19.048,-20.901,-23.676,-29.614,-33.965
-7.287,-8.68,-20.981,-17.441,-20.712,-22.294,-28.093,-29.309
-10.297,-10.304,-20.428,-13.843,-19.69,-17.297,-24.316,-21.265
-15.411,-16.022,-21.748,-14.343,-20.653,-16.532,-21.837,-16.334
-18.646,-21.093,-24.776,-19.661,-23.81,-21.621,-22.396,-17.619
-18.911,-23.126,-27.675,-25.074,-27.153,-26.373,-25.022,-22.155
-19.825,-24.283,-29.632,-27.794,-29.393,-27.686,-28.218,-26.363
-22.523,-25.715,-30.268,-28.557,-29.971,-28.261,-30.31,-29.125
-23.677,-25.741,-28.397,-27.721,-27.917,-28.78,-29.008,-29.902
-21.664,-23.643,-23.995,-25.027,-23.528,-26.909,-24.281,-28.54
-18.221,-20.317,-19.293,-20.999,-19.011,-22.094,-19.093,-24.912
-14.251,-15.848,-15.58,-16.598,-15.3,-16.536,-14.923,-18.905
-9.753,-10.828,-12.496,-13.628,-12.107,-13.78,-12.009,-14.671
-7.125,-7.723,-10.694,-12.916,-10.502,-14.529,-11.472,-16.158
-7.315,-6.845,-9.537,-11.463,-9.693,-14.084,-10.432,-17.348
-6.684,-5.293,-6.124,-7.234,-6.282,-9.847,-4.188,-11.513
-3.186,-1.586,-0.291,-2.896,-0.173,-5.565,4.542,-2.892
1.697,2.997,5.301,0.166,5.522,-2.972,9.761,2.449
6.226,6.126,8.813,3.501,8.938,0.828,11.184,4.879
8.16,5.678,9.137,5.647,9.222,4.939,11.094,5.549
5.729,1.447,4.951,2.174,5.012,3.072,7.767,1.9
0.892,-3.863,-3.165,-7,-3.194,-6.447,-1.003,-7.874
-1.58,-6.421,-10.267,-14.856,-10.369,-15.523,-10.013,-18.109
-0.901,-5.897,-12.205,-16.122,-12.319,-16.857,-12.756,-20.23
-3.453,-6.584,-12.744,-14.768,-12.725,-14.247,-12.916,-15.455
-11.787,-9.56,-15.445,-14.559,-15.213,-13.154,-15.009,-11.295
-15.684,-9.362,-14.513,-11.21,-14.26,-10.311,-13.767,-8.427
-7.674,-4.044,-6.842,-3.653,-6.641,-3.663,-6.677,-4
3.569,2.052,0.382,2.235,0.699,2.367,-0.219,1.222
9.3,7.432,3.308,5.525,3.646,6.639,2.369,5.587
12.171,12.639,6.487,9.693,6.573,11.027,5.348,9.13
14.234,14.916,12.445,14.082,12.388,14.417,12.359,13.46
14.333,14.159,18.542,16.814,18.668,16.143,20.969,19.232
18.047,16.773,23.718,19.917,24.096,18.716,27.522,24.881
30.842,26.279,30.797,26.34,31.28,24.335,33.631,30.891
44.358,36.377,39.386,34.237,39.894,31.152,41.146,38.137
48.712,40.02,44.3,38.398,44.828,34.728,46.365,42.501
50.087,39.382,45.109,38.351,45.44,34.581,46.86,41.351
56.931,40.17,46.772,39.076,46.605,35.094,46.515,39.63
65.439,44.162,51.632,44.525,51.08,39.818,50.26,43.126
71.307,50.761,58.698,53.875,58.182,47.97,58.213,51.231
76.049,57.663,65.178,61.517,64.976,54.916,64.965,57.975
79.354,61.265,67.544,63.118,67.649,57.274,65.808,59.324
79.201,60.609,65.267,60.594,65.392,56.131,62.132,56.573
76.967,58.003,61.33,57.397,61.153,53.79,58.203,52.425
76.108,55.859,59.183,54.634,58.753,51.957,56.789,49.266
78.172,55.7,60.5,53.239,60.142,52.046,58.936,50.118
81.143,58.1,64.395,54.721,64.325,54.512,64.68,57.31
81.052,61.336,68.189,58.324,68.493,58.248,71.555,67.646
78.572,63.735,69.781,60.662,70.361,60.535,74.477,71.965
79.944,66.347,69.811,60.598,70.323,60.154,72.423,68.231
85.94,69.444,70.629,60.994,70.89,60.012,71.374,66.671
89.995,71.604,73.013,63.513,73.225,62.668,75.132,71.891
89.061,72.293,74.917,65.38,75.346,65.422,79.424,75.285
85.231,70.435,73.247,63.068,73.955,63.774,78.305,70.656
80.304,64.993,66.615,56.527,67.428,57.279,70.166,60.227
75.111,58.465,57.949,49.125,58.6,49.646,58.577,48.197
70.044,54.718,52.778,44.917,53.11,44.997,50.742,40.046
65.59,54.423,51.945,44.399,52.1,43.761,49.874,39.076
63.699,56.282,52.129,45.42,52.495,44.453,52.639,43.193
65.662,59.606,53.547,48.417,54.226,48.107,56.937,49.882
67.882,61.913,55.899,52.75,56.405,52.831,60.705,54.855
64.643,59.701,54.523,53.78,54.378,52.366,59.233,52.716
56.858,54.539,50.39,51.002,49.782,47.427,54.493,46.877
51.519,51.729,49.277,48.765,48.863,44.904,52.984,45.172
52.634,53.851,50.334,48.849,50.444,46.549,53.327,47.82
59.186,60.161,50.422,50.597,50.782,49.62,51.556,49.67
67.292,67.256,51.294,52.852,51.66,51.854,50.369,47.909
70.584,68.779,52.51,52.622,53.011,50.767,51.356,44.018
65.064,61.207,49.26,47.466,49.883,45.058,49.598,39.883
54.737,50.72,42.427,40.158,42.847,38.149,43.59,35.25
48.322,47.52,39.662,36.974,39.761,35.416,40.113,31.856
49.319,52.257,43.488,40.043,43.466,37.841,43.423,33.67
52.704,55.802,47.523,44.756,47.578,41.586,48.103,39.82
53.616,53.174,46.961,46.186,47.104,43.211,48.374,44.863
51.182,47.799,43.57,43.62,43.699,42.142,45.318,45.806
44.022,41.962,38.118,37.499,38.382,37.783,39.128,41.09
35.807,36.182,30.594,30.147,31.3,31.334,28.711,31.643
36.786,35.492,27.34,28.499,28.361,29.628,22.159,27.082
46.237,41.908,32.37,34.544,33.253,35.247,27.014,33.321
50.537,47.678,38.39,39.797,38.936,39.877,35.036,40.71
45.411,46.492,39.08,38.488,39.381,38.284,36.528,41.091
40.324,42.182,37.05,34.302,37.258,34.71,34.006,38.558
40.235,41.113,34.374,31.164,34.602,31.754,30.551,35.697
40.629,43.939,31.091,30.544,31.271,29.759,26.403,31.952
39.188,47.203,30.347,34.058,30.412,31.94,26.269,32.44
37.401,47.256,31.421,38.212,31.665,36.365,30.41,37.68
33.384,42.515,27.007,35.389,27.614,34.764,29.03,36.938
24.441,34.93,15.87,25.11,16.365,25.661,18.108,25.464
13.456,28.441,6.004,14.758,6.035,16.26,6.654,12.233
6.146,25.784,2.378,9.675,2.43,11.911,2.698,5.86
2.579,25.624,1.624,8.644,2.084,11.3,3.817,5.858
-2.513,23.781,-1.091,7.279,-0.648,9.91,3.376,6.79
-8.72,20.544,-4.78,4.883,-4.683,6.892,0.368,5.314
-9.783,20.58,-4.675,5.225,-4.637,6.25,-0.386,3.484
-6.896,22.425,-1.705,7.41,-1.591,8.062,1.653,2.964
-7.888,20.388,-1.268,6.582,-1.355,8.222,2.002,2.1
-13.183,16.844,-2.597,5.036,-2.846,8.219,1.349,1.794
-17.846,16.521,-2.794,6.354,-2.772,10.117,1.69,1.772
-22.439,14.493,-5.61,4.972,-5.298,8.262,-1.423,-3.454
-28.114,5.986,-13.386,-3.008,-13.149,-0.259,-9.389,-13.08
-30.667,-2.109,-20.07,-10.363,-19.919,-8.007,-14.962,-17.641
-29.195,-2.381,-20.883,-10.259,-20.618,-8.223,-13.903,-13.7
-30.032,0.159,-20.421,-7.257,-20.116,-4.992,-11.776,-8.708
-35.893,-2.935,-24.437,-9.071,-24.214,-6.361,-14.052,-9.407
-40.819,-9.096,-29.727,-13.881,-29.492,-11.57,-17.333,-13.103
-40.781,-10.89,-29.883,-14.773,-29.552,-13.172,-15.883,-12.977
-39.133,-9.312,-25.774,-11.527,-25.463,-9.492,-10.562,-8.229
-38.372,-9.852,-23.341,-10.28,-23.202,-7.289,-7.426,-6.475
-37,-12.069,-24.533,-13.403,-24.531,-10.609,-9.595,-12.661
-34.861,-11.559,-25.562,-15.412,-25.498,-13.742,-12.41,-19.032
-32.932,-8.117,-23.682,-12.164,-23.362,-11.42,-10.285,-17.258
-30.673,-5.376,-20.224,-6.774,-19.617,-6.363,-4.685,-10.695
-28.794,-4.696,-16.658,-2.845,-16.064,-1.921,-0.294,-5.038
-29.292,-4.73,-14.101,-1.019,-13.927,0.857,0.006,-2.332
-32.814,-6.296,-15.6,-3.047,-15.832,-1.104,-5.762,-5.791
-39.298,-12.807,-22.614,-11.378,-22.904,-10.455,-16.74,-16.583
-46.126,-22.736,-30.111,-22.647,-30.364,-22.579,-26.32,-27.686
-48.53,-28.583,-31.7,-28.33,-32.071,-28.601,-28.325,-29.962
-46.177,-28.006,-28.523,-26.015,-28.969,-27.066,-25.05,-23.854
-42.913,-25.789,-25.803,-21.8,-26.116,-24.047,-22.91,-18.212
-41.178,-24.806,-25.104,-20.395,-25.205,-23.034,-23.887,-18.28
-41.066,-24.858,-25.787,-21.556,-25.701,-23.415,-26.101,-21.451
-40.813,-25.224,-27.125,-23.416,-26.941,-23.915,-27.421,-23.06
-37.937,-24.202,-27.364,-24.201,-27.252,-23.379,-26.634,-22.033
-32.571,-20.964,-25.298,-22.871,-25.35,-21.404,-24.102,-20.155
-28.059,-16.693,-21.904,-19.512,-22.053,-18.203,-21.117,-17.788
-27.174,-13.295,-19.365,-15.795,-19.523,-14.774,-18.523,-14.247
-29.176,-12.682,-18.606,-13.982,-18.714,-12.912,-16.306,-10.397
-31.521,-14.836,-18.737,-14.421,-18.78,-13.284,-14.759,-8.23
-32.705,-17.137,-19.615,-15.907,-19.695,-15.155,-15.219,-9.401
-32.524,-17.676,-21.8,-16.919,-22.065,-16.814,-17.517,-12.706
-30.95,-16.173,-23.475,-14.968,-23.984,-15.002,-18.472,-13.386
-27.247,-11.469,-21.317,-8.462,-22,-7.855,-15.276,-8.179
-21.429,-3.105,-15.156,0.119,-15.822,1.584,-8.835,0.182
-16.614,4.67,-9.497,5.209,-10.045,7.561,-3.69,5.34
-15.953,5.876,-8.865,2.714,-9.524,6.086,-4.528,3.184
-17.888,1.044,-12.432,-5.198,-13.445,-1.348,-10.633,-3.95
-19.316,-3.059,-16.041,-11.375,-17.075,-7.773,-16.429,-9.177
-20.269,-3.24,-17.833,-12.129,-18.308,-8.299,-18.991,-8.961
-21.004,-1.837,-17.783,-9.329,-17.783,-4.475,-19.126,-5.408
-19.18,0.887,-15.014,-4.378,-15.086,0.749,-16.675,-1.166
-13.638,6.258,-10.001,1.537,-10.234,5.589,-12.436,1.413
-8.021,10.168,-6.552,3.954,-6.717,7.41,-10.569,-0.106
-7.144,7.277,-7.817,-0.027,-8.015,4.445,-12.984,-4.65
-10.711,0.702,-11.628,-6.377,-11.999,-0.968,-16.148,-8.352
-15.338,-2.485,-13.844,-9.483,-14.192,-4.608,-17.051,-9.972
-20.153,-2.229,-14.417,-9.664,-14.526,-5.565,-17.238,-11.648
-24.189,-3.032,-15.014,-9.959,-14.857,-5.846,-18.128,-14.051
-24.641,-5.422,-15.204,-9.975,-14.965,-6.207,-18.147,-14.999
-22.239,-7.402,-15.089,-9.04,-15.18,-6.722,-17.131,-13.676
-20.415,-8.576,-15.809,-8.742,-16.408,-7.56,-17.235,-11.486
-20.866,-9.164,-17.28,-9.234,-18.009,-7.731,-18.78,-9.533
-24.103,-9.835,-18.966,-9.835,-19.403,-7.794,-20.489,-9.106
-26.336,-9.698,-18.625,-9.078,-18.695,-7.612,-20.108,-9.35
-20.054,-4.693,-12.493,-2.943,-12.254,-2.238,-14.071,-5.193
-6.956,4.502,-2.714,7.479,-2.288,8.334,-4.172,3.359
1.582,10.307,3.127,13.86,3.505,14.925,1.557,8.258
1.723,10.669,3.714,13.756,3.915,14.164,1.326,7.422
0.513,11.875,4.958,13.55,5.101,13.121,1.612,7.552
2.239,16.159,9.153,16.543,9.353,15.939,4.642,10.896
4.161,18.672,12.639,19.392,12.76,19.02,6.283,13.245
4.692,17.504,13.021,19.536,12.889,19.198,5.352,12.741
6.303,16.588,12.167,18.669,11.935,18.509,5.18,11.727
8.843,17.103,11.555,17.821,11.578,19.263,6.77,11.785
7.064,14.832,9.147,14.714,9.49,18.962,6.784,11.022
-0.409,8.865,4.154,9.283,4.495,14.648,3.418,7.892
-6.945,4.255,0.382,5.437,0.408,8.785,-0.375,4.362
-8.961,3.348,0.38,4.531,0.047,5.421,-1.93,1.96
-10.933,2.702,1.433,3.568,0.948,3.913,-2.673,-0.41
-14.187,1.083,1.044,1.36,0.718,2.16,-4.009,-2.712
-13.452,2.383,0.84,1.033,0.795,2.058,-4.196,-2.98
-8.33,7.05,2.078,4.16,2.191,5.091,-2.668,-0.946
-4.868,9.734,2.945,7.234,3.101,7.771,-2.159,1.119
-5.006,8.387,2.243,7.032,2.302,7.151,-3.971,1.545
-5.856,6.127,0.759,4.477,0.482,4.701,-6.32,0.88
-6.225,4.541,-0.788,1.748,-1.294,2.407,-7.492,0.301
-6.62,3.036,-1.912,-0.125,-2.113,0.188,-7.231,-0.155
-6.44,2.275,-1.491,-0.91,-1.224,-2.148,-5.874,-1.017
-5.196,2.995,0.958,-0.657,1.152,-3.18,-3.964,-2.044
-4.218,4.394,3.856,0.455,3.556,-1.629,-2.123,-2.686
-2.868,6.625,6.308,2.343,5.805,1.672,0.127,-2.13
2.425,10.562,9.707,4.907,9.371,5.088,3.545,0.574
11.513,15.404,14.358,8.171,14.021,8.216,7.24,4.865
19.112,19.55,18.24,11.68,17.68,10.813,10.091,8.76
20.615,20.643,19.094,12.775,18.537,10.846,11.257,10.027
16.689,17.22,16.41,9.133,16.172,7.253,9.277,7.642
12.24,12.139,11.96,3.129,11.918,2.788,4.469,3.855
9.48,8.677,7.652,-0.882,7.426,0.212,0.017,2.146
5.82,6.033,3.542,-2.199,3.135,-1.638,-2.312,1.989
0.514,3.051,-0.905,-2.788,-1.177,-4.522,-4.738,0.213
-3.127,1.013,-4.729,-3.083,-4.87,-6.548,-8.603,-2.473
-2.692,0.73,-6.152,-3.048,-6.457,-5.813,-10.673,-3.326
0.756,1.101,-4.964,-4.059,-5.5,-4.726,-8.234,-3.201
3.76,0.854,-3.63,-6.278,-4.141,-6.233,-4.595,-3.72
3.171,-0.717,-4.861,-8.391,-5.085,-9.893,-5.291,-4.831
-0.212,-3.51,-7.383,-10.267,-7.295,-13.53,-10.029,-7.39
-1.426,-4.82,-6.94,-11.543,-6.686,-14.881,-12.724,-10.861
3.387,-1.203,-2.12,-10.255,-1.933,-12.499,-9.941,-11.385
11.908,5.947,3.56,-6.535,3.484,-7.864,-5.209,-8.366
17.192,11.15,5.12,-4.718,4.902,-5.531,-4.216,-7.388
14.677,10.693,0.987,-8.642,0.888,-9.15,-8.328,-11.955
7.549,6.16,-4.518,-15.236,-4.568,-15.756,-13.437,-17.692
1.612,2.293,-7.101,-18.404,-7.313,-18.947,-16.13,-19.997
-3.389,0.296,-9.769,-19.417,-10.017,-19.824,-19.044,-22.174
-8.238,-1.416,-14.74,-22.324,-14.785,-22.949,-23.975,-27.062
-8.073,-0.778,-15.608,-22.909,-15.521,-24.135,-25.306,-28.138
-2.782,3.668,-10.264,-17.081,-10.193,-18.671,-20.478,-21.548
-0.542,6.986,-7.686,-11.201,-7.619,-12.944,-16.965,-15.548
-3.19,5.77,-10.967,-10.409,-10.931,-12.452,-18.253,-14.845
-3.492,3.59,-11.717,-10.184,-11.756,-12.216,-17.4,-12.339
-0.714,2.541,-7.87,-8.271,-7.961,-9.813,-12.116,-6.321
-2.519,-0.847,-7.603,-9.267,-7.735,-10.906,-9.65,-5.201
-10.51,-7.956,-12.951,-13.804,-13.049,-16.439,-12.983,-10.257
-17.276,-14.18,-16.241,-16.356,-16.228,-19.538,-16.075,-12.994
-17.346,-15.227,-13.374,-14.509,-13.377,-16.922,-14.217,-10.394
-12.033,-11.686,-8.434,-11.018,-8.58,-12.366,-9.278,-7.111
-4.504,-6.003,-5.131,-7.498,-5.341,-8.974,-4.401,-4.69
2.46,-0.645,-2.839,-3.973,-2.99,-6.557,-0.795,-1.391
6.746,2.098,-0.35,-1.713,-0.429,-4.845,1.186,1.259
9.797,3.057,2.445,-0.779,2.272,-3.239,2.291,1.329
13.751,5.008,4.6,0.258,4.137,-1.079,3.141,0.571
16.473,7.672,4.198,0.532,3.601,-0.158,2.215,-0.049
15.977,8.923,1.445,-1.333,1.1,-1.992,-0.941,-1.863
14.753,9.124,-0.426,-3.519,-0.429,-4.384,-3.203,-3.902
14.566,9.957,0.045,-3.931,0.07,-5.079,-2.515,-4.035
13.915,11.536,1.229,-3.054,0.945,-4.581,-0.788,-2.456
12.913,12.796,2.618,-1.53,2.139,-3.368,-0.054,-0.024
13.362,12.832,4.919,0.993,4.789,-0.963,0.125,2.807
14.489,12.058,7.378,4.14,7.788,2.062,1.048,5.13
13.468,11.352,8.22,5.696,8.652,3.339,2.396,5.672
7.824,8.593,5.011,2.308,5.06,-0.229,1.345,3.149
-2.024,0.608,-3.239,-6.982,-3.37,-9.056,-3.828,-2.039
-10.423,-9.704,-12.153,-17.875,-12.166,-18.724,-9.675,-7.199
-11.511,-14.64,-15.396,-23.752,-15.174,-23.532,-10.786,-9.593
-6.95,-11.913,-11.723,-22.023,-11.245,-21.868,-6.142,-7.653
-3.571,-7.399,-5.162,-16.609,-4.661,-17.46,-0.004,-2.604
-4.748,-6.195,-0.49,-12.955,-0.408,-15.047,2.622,0.429
-9.187,-7.901,-0.496,-13.171,-1.036,-16.297,0.07,-2.743
-14.699,-10.965,-5.52,-17.057,-6.386,-20.581,-6.253,-10.601
-18.307,-14.116,-12.335,-22.685,-12.952,-25.792,-13.127,-18.074
-17.439,-15.367,-15.187,-26.293,-15.176,-28.14,-15.918,-20.992
-13.468,-14.73,-12.453,-26.298,-11.977,-26.092,-12.698,-18.786
-10.449,-15.119,-8.854,-25.416,-8.526,-23.553,-7.752,-14.999
-9.642,-17.81,-7.474,-25.106,-7.675,-23.525,-5.876,-12.914
-8.477,-19.594,-6.331,-22.228,-6.629,-22.533,-6.183,-11.534
-6.168,-17.797,-4.976,-16.339,-4.8,-18.26,-6.359,-9.901
-5.318,-14.829,-6.389,-13.283,-6.005,-15.185,-7.896,-10.761
-6.549,-13.755,-10.633,-15.782,-10.571,-16.311,-12.049,-14.936
-7.741,-14.516,-13.693,-19.404,-13.876,-18.39,-15.891,-18.035
-8.304,-16.656,-13.948,-20.99,-14.126,-18.651,-16.817,-17.289
-8.227,-19.563,-12.819,-21.002,-13.053,-17.551,-15.148,-14.98
-5.337,-20.008,-9.009,-18.036,-9.317,-14.58,-10.469,-11.993
0.618,-15.946,-1.45,-11.828,-1.689,-9.623,-3.28,-7.142
4.132,-11.935,3.115,-8.803,2.96,-7.119,0.599,-4.285
1.471,-12.976,-1.633,-13.498,-1.815,-10.329,-2.953,-7.752
-2.756,-16.163,-9.746,-20.441,-10.105,-15.185,-8.616,-13.049
-4.231,-16.838,-12.852,-23.582,-13.49,-17.088,-10.045,-14.15
-4.477,-15.146,-11.924,-23.165,-12.704,-16.136,-8.037,-11.913
-4.557,-12.206,-10.623,-20.233,-11.301,-13.211,-5.196,-9.004
-3.749,-9.176,-9.386,-15.909,-9.96,-9.663,-2.511,-6.979
-2.169,-7.949,-7.925,-12.617,-8.543,-7.291,-1.102,-7.158
0.202,-7.678,-6.178,-10.406,-6.813,-5.425,-1.195,-8.558
3.741,-5.545,-4.299,-7.827,-4.954,-3.303,-1.705,-8.929
7.456,-1.689,-2.593,-5.093,-3.533,-1.802,-0.948,-7.017
8.34,-0.722,-1.259,-4.041,-2.575,-1.973,1.949,-3.043
4.134,-6.345,-1.694,-7.24,-3.103,-5.624,3.915,-0.415
-3.439,-14.697,-5.467,-14.307,-6.771,-12.312,0.769,-2.933
-10.402,-19.148,-11.103,-20.183,-12.37,-17.064,-5.863,-8.434
-13.371,-18.855,-14.043,-20.446,-15.42,-16.145,-9.993,-11.273
-10.098,-15.609,-10.522,-14.914,-12.173,-9.981,-8.345,-9.29
-2.928,-10.235,-2.817,-7.056,-4.748,-1.752,-3.515,-4.646
0.723,-6.18,1.571,-3.036,-0.283,2.296,-1.249,-1.999
-2.205,-7.33,-0.653,-6.507,-2.06,-1.625,-4.078,-4.643
-6.844,-12.641,-4.712,-13.86,-5.841,-8.901,-8.804,-10.075
-9.907,-19.137,-6.602,-19.924,-7.888,-14.057,-12.064,-13.978
-13.026,-24.754,-7.371,-22.763,-8.73,-16.911,-13.252,-15.144
-16.015,-26.309,-6.321,-20.118,-7.318,-16.388,-10.841,-12.684
-17.17,-23.231,-1.805,-12.659,-2.589,-11.262,-4.828,-7.011
-17.498,-19.922,2.135,-7.673,0.992,-6.168,-0.487,-2.851
-17.205,-18.169,1.452,-8.844,-0.057,-5.38,-0.742,-3.136
-14.108,-15.6,-0.561,-11.34,-2.002,-6.724,-1.492,-4.898
-8.679,-12.306,0.727,-11.193,-0.557,-6.308,0.805,-4.498
-4.394,-10.124,4.046,-9.416,2.711,-3.026,4.647,-1.611
-2.756,-8.518,5.831,-7.305,4.355,1.603,7.641,2.03
-2.492,-6.987,5.716,-4.938,4.125,4.899,8.903,4.572
-2.88,-6.905,4.629,-3.212,2.95,5.049,7.827,4.709
-3.802,-7.764,2.643,-3.043,0.915,3.025,5.173,2.496
-3.883,-6.92,0.915,-3.611,-0.799,1.67,3.428,-0.225
-2.641,-4.811,0.185,-4.474,-1.45,1.455,2.828,-2.18
-2.96,-5.292,-1.729,-7.082,-3.344,-0.599,0.733,-4.401
-6.599,-9.316,-5.105,-10.786,-6.888,-5.059,-2.59,-7.074
-10.216,-13.451,-6.438,-12.067,-8.346,-7.959,-3.254,-7.953
-11.955,-16.962,-5.768,-11.008,-7.417,-8.064,-1.125,-6.849
-14.805,-22.414,-6.542,-11.644,-7.779,-9.304,-0.546,-7.247
-18.491,-27.59,-7.967,-14.288,-9.167,-13.093,-2.535,-10.689
-18.139,-27.465,-7.375,-15.099,-8.835,-15.562,-3.951,-13.721
-13.392,-23.408,-6.473,-13.286,-7.987,-14.509,-3.598,-13.323
-9.414,-20.64,-7.166,-11.525,-8.397,-12.368,-2.617,-10.495
-8.376,-19.908,-6.9,-10.822,-7.669,-11.337,-1.348,-6.861
-8.951,-19.6,-4.656,-11.277,-4.953,-11.234,-0.471,-3.954
-11.047,-20.157,-3.622,-13.051,-3.717,-10.084,-0.845,-3.338
-12.509,-20.452,-3.878,-13.267,-4.017,-5.532,-0.63,-3.239
-9.621,-17.866,-2.611,-9.862,-2.65,-0.276,1.629,-1.145
-4.023,-13.6,-1.077,-6.638,-0.847,0.019,3.186,0.968
-0.899,-11.233,-2.674,-7.713,-2.308,-4.247,1.063,-0.173
-2.788,-11.963,-7.065,-11.754,-6.833,-8.369,-3.592,-4.013
-7.702,-14.509,-10.553,-15.108,-10.686,-10.307,-7.117,-7.411
-11.152,-17.592,-10.411,-16.626,-10.854,-10.938,-7.419,-8.712
-10.243,-19.664,-6.552,-15.922,-6.837,-9.961,-4.7,-7.806
-5.637,-17.975,-0.322,-11.03,-0.071,-5.004,0.479,-3.985
0.437,-12.258,5.627,-3.316,6.243,2.34,5.994,1.732
7.142,-6.164,8.727,1.739,9.293,5.93,8.066,5.126
13.35,-2,9.138,2.551,9.412,4.132,6.195,4.064
14.905,0.728,7.755,1.871,7.737,0.796,3.481,0.57
9.657,1.319,3.72,-0.313,3.565,-2.72,0.829,-4.027
2.112,-1.37,-1.878,-5.037,-1.979,-7.304,-2.869,-9.108
-1.905,-5.344,-4.235,-9.005,-4.221,-10.786,-5.771,-11.497
-1.424,-7.468,-1.225,-8.908,-1.175,-10.612,-5.183,-9.408
1.759,-6.8,4.116,-5.593,4.231,-7.274,-1.733,-5.088
7.21,-3.414,9.658,-0.235,9.969,-1.794,3.088,-0.03
13.79,2.072,15.341,6.424,15.829,4.478,8.552,5.659
17.597,6.725,19.034,11.317,19.493,8.824,12.758,9.735
17.438,7.967,18.634,11.848,18.786,10.587,14.056,10.211
17.373,7.527,16.244,10.283,15.965,12.445,13.873,9.587
19.287,7.658,14.648,10.211,14.203,14.987,14.419,10.86
19.444,6.395,12.682,9.667,12.501,13.643,14.475,11.193
15.051,1.766,8.624,4.947,8.796,6.134,11.505,7.077
8.46,-3.761,4.395,-0.967,4.585,-1.694,6.719,2.066
4.202,-6.635,3.18,-2.212,3.169,-3.889,4.162,1.374
4.895,-6.08,5.88,1.885,5.928,-1.266,5.798,4.517
8.986,-3.857,10.119,7.711,10.514,3.052,8.938,7.636
12.48,-1.946,11.679,12.174,12.277,7.324,9.571,8.437
14.595,0.022,9.302,14.859,9.811,10.709,8.183,7.902
17.386,3.09,6.397,16.02,6.723,12.371,7.648,7.62
19.071,5.066,5.761,14.658,5.94,11.115,7.608,7.137
15.855,3.045,6.422,11.141,6.524,7.568,6.907,6.298
9.123,-2.134,6.211,7.634,6.287,3.99,5.967,5.818
3.081,-7.896,4.054,4.705,4.01,0.624,3.915,4.282
-1.757,-13.244,0.31,1.854,0.048,-3.274,-0.361,-0.155
-6.483,-17.731,-3.625,-0.443,-3.957,-6.758,-5.367,-6.082
-7.937,-19.578,-5.656,-1.608,-5.886,-8.942,-8.721,-10.276
-2.108,-17.058,-3.507,-1.01,-3.609,-9.483,-8.853,-10.622
7.796,-11.154,2.885,2.575,3.008,-6.834,-5.101,-6.769
13.954,-5.283,9.83,8.586,10.243,-0.642,0.874,-0.731
13.531,-2.815,12.291,12.59,12.815,4.902,5.017,3.359
10.536,-4.754,8.587,10.687,9.059,5.08,4.559,2.96
8.792,-8.336,2.895,6.056,3.335,1.753,1.402,0.577
7.037,-9.758,0.247,4.799,0.64,0.438,-0.522,0.266
3.829,-8.138,1.147,7.507,1.411,2.357,0.058,2.5
2.865,-4.334,4.633,11.911,4.858,5.893,2.54,6.364
6.514,-0.127,9.749,16.861,10.226,10.316,5.681,11.446
9.668,0.953,12.962,19.632,13.843,13.461,7.142,14.685
7.666,-2.494,11.686,17.462,12.75,12.069,6.287,12.553
3.972,-6.666,8.169,12.265,9.055,6.663,5.172,7.246
3.827,-6.449,5.65,8.823,6.26,1.853,4.892,4.185
6.712,-1.382,4.031,9.337,4.596,1.093,4.462,4.384
9.436,4.183,1.815,12.336,2.557,3.772,3.261,5.014
10.568,6.662,-0.488,14.771,0.385,6.345,1.588,4.59
9.875,6.015,-1.747,13.35,-0.866,4.951,-0.476,2.895
7.005,3.321,-3.466,6.951,-2.546,-1.009,-3.274,-0.845
2.26,-0.352,-7.19,-0.853,-6.216,-7.64,-6.589,-5.873
-2.523,-3.993,-11.067,-5.579,-10.173,-11.061,-9.384,-9.46
-7.366,-8.68,-14.739,-8.276,-13.917,-12.577,-11.942,-11.391
-13.752,-14.969,-20.447,-12.021,-19.472,-15.05,-15.331,-13.569
-18.683,-19.309,-26.224,-15.04,-25.115,-16.995,-18.537,-15.254
-18.458,-18.714,-27.656,-13.753,-26.724,-15.401,-19.245,-14.121
-14.835,-14.337,-23.97,-7.885,-23.227,-10,-15.632,-9.42
-10.851,-9.366,-17.331,-1.054,-16.454,-4.002,-8.662,-3.059
-7.802,-7.382,-11.01,1.784,-9.951,-2.258,-3.039,1.027
-7.321,-9.963,-7.767,0.127,-6.762,-5.372,-1.687,1.316
-10.926,-14.978,-8.057,-2.185,-7.094,-9.229,-2.909,-0.149
-16.966,-19.089,-10.743,-3.792,-9.719,-11.997,-5.088,-2.389
-20.069,-20.199,-13.395,-5.242,-12.451,-13.878,-7.618,-5.074
-17.318,-17.817,-13.366,-4.379,-12.479,-12.41,-8.891,-5.89
-12.486,-13.132,-10.729,0.368,-9.714,-6.17,-8.268,-3.771
-10.407,-8.664,-7.827,5.241,-6.929,0.079,-6.927,-0.999
-11.734,-7.181,-6.822,4.565,-6.346,-0.048,-6.459,-0.5
-14.046,-9.525,-8.306,-1.644,-7.972,-5.889,-7.968,-2.799
-15.556,-13.994,-11.093,-7.764,-10.508,-11.16,-10.838,-5.691
-16.854,-18.015,-13.388,-9.955,-12.591,-12.782,-12.859,-6.915
-17.837,-19.435,-13.773,-8.933,-12.984,-12.306,-12.848,-6.49
-16.888,-18.096,-12.533,-7.079,-11.84,-11.435,-12.415,-6.251
-15.171,-16.422,-12.401,-6.066,-11.72,-10.744,-13.839,-7.194
-16.097,-16.746,-15.416,-6.593,-14.566,-10.87,-17.411,-8.59
-18.551,-17.59,-18.505,-8.015,-17.437,-11.532,-20.822,-9.246
-17.735,-15.08,-16.28,-8.077,-15.226,-10.583,-20.727,-8.029
-13.516,-9.308,-9.468,-5.59,-8.566,-7.147,-16.993,-5.126
-9.754,-4.461,-3.998,-1.833,-2.96,-3.144,-13.004,-2.176
-8.242,-3.059,-2.034,1.625,-0.685,-0.388,-10.555,-0.155
-9.21,-4.846,-1.46,3.681,-0.259,0.828,-8.916,0.656
-12.413,-8.874,-1.321,3.291,-0.783,0.509,-7.902,0.116
-15.326,-13.271,-1.313,0.804,-1.227,-1.118,-7.548,-0.577
-14.823,-15.19,0.315,-1.237,0.572,-2.428,-6.419,0.468
-9.969,-13.141,4.478,-0.311,5.087,-1.377,-2.952,3.528
-1.174,-7.697,10.624,4.532,11.358,3.095,3.304,8.302
9.874,0.123,18.554,13.471,19.346,11.681,12.38,16.06
20.127,8.979,27.862,25.085,28.748,23.654,23.408,27.148
28.296,17.148,36.881,35.653,37.656,35.235,32.914,37.598
33.7,22.595,41.739,40.75,42.221,41.104,35.449,41.014
33.721,23.187,38.755,38.156,39.164,38.596,29.742,35.589
28.528,19.384,31.243,31.216,31.847,31.407,22.728,27.924
21.318,13.385,25.753,25.187,26.426,25.208,20.24,24.415
13.464,6.344,22.362,20.836,22.899,20.997,19.216,23.196
7.572,0.929,19.26,18.042,19.708,18.734,16.561,21.499
7.312,-0.15,18.181,18.128,18.604,19.684,14.552,20.907
9.972,0.412,17.857,18.491,18.24,20.961,12.993,20.332
9.532,-1.229,14.378,15.918,14.783,18.564,8.986,16.484
5.23,-3.966,9.739,13.464,10.167,15.044,4.777,11.915
-0.778,-6.243,8.577,14.34,8.833,14.7,4.476,11.239
-7.276,-9.601,9.157,15.64,9.114,16.234,6.014,12.732
-12.289,-14.587,6.307,13.713,6.027,15.876,4.351,11.465
-15.063,-19.388,-0.205,9.18,-0.649,12.479,-0.669,6.889
-16.37,-21.117,-4.816,6.176,-5.348,8.844,-3.897,3.659
-15.116,-17.945,-3.458,7.687,-3.938,8.648,-2.35,4.936
-11.442,-12.961,0.948,10.971,0.706,10.932,0.276,7.48
-7.743,-10.198,4.455,12.657,4.511,12.756,0.834,8.336
-4.491,-8.636,8.102,14.153,8.154,14.428,1.872,9.886
-1.627,-6.464,12.671,16.414,12.489,16.481,5.241,13.007
0.859,-4.042,15.979,18.173,15.857,18.489,9.33,15.463
4.271,-1.604,17.329,19.572,17.556,20.834,12.696,16.89
7.43,-0.04,17.584,20.845,18.045,22.582,14.293,17.323
7.226,-0.436,16.481,21.383,17.043,22.301,13.107,15.7
4.103,-2.393,13.621,21.024,14.351,20.598,9.852,12.364
0.471,-5.457,10.619,19.457,11.409,18.307,6.991,8.992
-3.518,-9.224,9.156,15.92,9.631,14.753,5.517,6.224
-7.465,-11.8,7.764,10.281,7.865,9.281,2.99,2.789
-8.302,-11.302,4.525,4.267,4.638,3.613,-2.159,-1.884
-4.062,-8.117,1.63,1.287,1.968,1.031,-6.511,-5.07
3.104,-4.003,3.023,3.646,3.423,3.008,-5.65,-3.579
8.324,-0.834,8.228,9.661,8.55,7.941,-0.01,1.854
8.773,0.498,12.916,15.404,13.314,13.244,6.295,7.748
7.371,1.52,15.128,18.829,15.84,17.376,10.655,11.864
8.045,3.727,16.198,19.478,17.109,18.957,13.098,13.684
10.166,5.466,16.635,16.97,17.269,16.845,13.79,13.288
10.92,4.406,14.78,12.403,14.936,12.409,12.378,11.413
9.027,1.622,9.849,8.668,9.976,9.194,9.509,9.407
5.674,0.54,4.478,8.332,5.038,9.734,7.082,8.639
2.482,1.264,0.733,10.229,1.487,11.905,5.264,8.649
-1.288,-0.473,-4.042,9.032,-3.591,9.721,1.451,6.752
-6.204,-6.054,-11.32,2.548,-11.089,1.594,-4.648,1.999
-9.078,-11.026,-16.265,-4.06,-15.794,-6.091,-8.781,-3.133
-6.49,-11.717,-14.846,-5.992,-14.092,-7.688,-7.982,-5.77
-1.05,-9.286,-10.674,-4.916,-10.026,-5.094,-4.516,-4.739
0.721,-6.346,-9.7,-4.062,-9.297,-2.916,-2.163,-1.408
-1.389,-2.723,-11.242,-1.986,-10.818,-1.033,-1.204,1.688
-1.004,2.71,-9.844,4.089,-9.266,3.051,0.432,3.779
1.238,5.88,-6.142,9.939,-5.548,6.046,1.601,3.813
-2.968,1.169,-6.75,8.137,-6.151,2.461,-1.052,-0.501
-12.808,-7.67,-11.46,0.388,-10.731,-4.638,-6.031,-7.065
-17.71,-11.78,-13.273,-5.069,-12.49,-7.731,-8.758,-10.201
-14.731,-10.498,-10.89,-5.716,-10.373,-6.33,-8.927,-8.694
-10.609,-9.306,-8.304,-4.353,-8.181,-4.697,-8.433,-6.005
-9.375,-9.543,-6.392,-1.925,-6.326,-3.489,-6.936,-4.489
-9.368,-8.493,-3.91,2.487,-3.517,-0.61,-4.327,-3.507
-8.017,-5.31,-0.643,8.172,0.062,3.62,-1.451,-1.247
-4.445,-1.944,3.431,12.1,4.143,6.194,1.854,2.216
-0.192,0.139,7.1,11.804,7.622,5.321,4.877,4.15
2.343,0.766,7.782,7.839,8.193,2.073,5.19,2.586
2.821,-0.24,5.053,2.739,5.401,-1.579,2.368,-0.958
3.16,-1.332,1.394,-0.233,1.624,-3.446,-0.136,-2.878
4.429,0.052,-1.095,0.526,-0.9,-2.43,0.359,-1.884
4.744,2.731,-2.741,1.811,-2.443,-1.516,1.088,-1.184
2.803,4.024,-4.201,0.258,-3.667,-3.604,-0.984,-3.087
0.91,4.394,-4.575,-2.299,-3.758,-6.114,-3.345,-5.194
0.257,3.645,-4.434,-4.878,-3.575,-7.479,-4.31,-6.696
-0.65,-0.267,-6.423,-10.546,-5.69,-11.519,-6.826,-10.589
-1.195,-5.524,-10.476,-18.616,-9.634,-18.833,-11.279,-16.689
-0.81,-8.719,-13.989,-23.915,-12.964,-24.281,-14.789,-21.566
-2.338,-11.195,-16.223,-24.848,-15.346,-25.79,-16.993,-24.439
-6.821,-15.386,-17.953,-24.186,-17.306,-26.361,-18.69,-26.325
-11.301,-19.456,-18.699,-23.264,-18.076,-27.064,-18.5,-26.134
-12.631,-19.609,-16.239,-20.027,-15.671,-24.416,-14.423,-21.625
-8.805,-14.427,-8.95,-12.739,-8.459,-16.15,-6.199,-12.979
-0.784,-6.625,0.229,-4.114,0.797,-6.464,3.494,-3.936
6.104,-0.438,5.314,1.07,5.893,-1.376,10.208,1.333
8.089,3.173,4.63,2.381,5.074,-0.869,11.79,2.289
7.11,5.788,1.579,2.602,1.974,-1.175,9.822,1.339
5.815,7.374,-1.17,2.175,-0.745,-1.195,6.947,0.158
4.952,7.643,-2.385,0.934,-1.997,-1.223,5.138,-0.742
5.797,8.613,-0.699,0.832,-0.335,-0.344,5.385,-0.666
7.584,10.372,2.427,1.392,2.843,0.637,6.628,0.11
6.334,9.278,3.283,-0.831,3.686,-0.523,6.928,0.371
3.173,5.965,2.64,-4.199,2.979,-1.72,7.41,1.183
5.286,6.834,5.234,-2.582,5.644,1.516,11.185,4.81
12.665,12.574,10.896,3.784,11.484,7.644,17.359,9.795
16.782,16.432,14.526,8.765,15.255,11.509,21.79,12.768
16.279,16.753,15.674,11.454,16.426,13.671,24.171,14.731
18.392,18.643,18.473,15.657,19.013,17.702,27.639,19.126
23.601,22.843,22.638,19.94,22.934,21.015,31.338,23.803
24.55,24.3,24.261,19.394,24.772,18.826,31.253,23.373
20.195,21.378,23.402,15.452,24.362,13.766,28.277,19.499
17.381,17.924,22.788,13.607,23.686,11.791,26.913,18.083
18.727,16.451,22.157,14.324,22.524,12.943,27.156,18.797
19.539,15.931,20.296,14.72,20.389,13.784,25.857,17.907
15.772,15.31,18.48,13.905,18.741,13.315,23.005,15.54
8.788,14.424,17.135,11.502,17.547,11.71,20.09,12.989
2.564,13.111,14.498,7.1,14.854,8.902,16.728,9.477
-1.611,10.528,9.878,1.775,10.206,5.526,12.139,4.625
-5.325,5.452,3.538,-3.94,3.89,1.334,6.154,-0.906
-8.783,-0.507,-3.614,-10.014,-3.324,-4.068,-0.23,-6.239
-10.222,-2.87,-8.104,-13.674,-7.837,-7.449,-3.518,-8.942
-9.377,-0.595,-7.639,-12.394,-7.194,-5.759,-1.666,-7.514
-8.052,2.326,-5.545,-9.135,-4.817,-2.576,1.41,-5.401
-6.4,3.186,-5.422,-8.369,-4.572,-3.038,1.187,-6.325
-3.228,2.395,-6.377,-10.424,-5.722,-6.482,-1.481,-9.114
-0.796,-0.115,-7.633,-13.6,-7.309,-9.652,-4.425,-11.705
-3.252,-4.549,-10.896,-17.231,-10.663,-12.1,-8.186,-14.367
-9.341,-8.739,-15.379,-20.617,-14.847,-14.849,-12.308,-16.78
-12.056,-8.737,-16.264,-21.088,-15.408,-15.82,-13.213,-16.601
-7.619,-3.185,-11.476,-16.27,-10.717,-11.461,-9.449,-12.762
0.121,4.211,-4.577,-8.388,-4.213,-3.499,-4.128,-7.394
6.583,9.828,1.682,-1.812,1.735,2.638,0.344,-2.555
11.489,13.751,7.18,1.788,7.062,5.195,3.858,1.239
14.056,15.221,9.487,2.013,9.296,5.451,4.999,2.39
10.094,11.037,4.89,-2.174,4.87,2.978,1.795,-1.143
-0.096,2.094,-4.772,-9.633,-4.451,-2.705,-4.887,-8.189
-7.729,-4.644,-11.99,-15.858,-11.494,-8.647,-11.268,-14.603
-7.429,-4.988,-13.369,-18.069,-12.837,-11.636,-14.386,-17.881
-5.184,-2.739,-13.304,-18.724,-12.607,-12.606,-15.081,-19.087
-7.251,-3.005,-15.145,-21.033,-14.218,-14.378,-15.701,-19.829
-10.262,-5.982,-17.029,-24.575,-16.104,-17.513,-16.919,-20.504
-9.774,-9.669,-17.854,-27.718,-17.271,-20.838,-18.512,-21.599
-9.701,-13.974,-20.098,-30.676,-19.898,-24.015,-20.789,-23.932
-13.762,-18.098,-24.466,-33.328,-24.335,-26.768,-23.038,-26.722
-17.494,-18.563,-26.966,-33.608,-26.704,-27.455,-22.997,-27.578
-17.727,-15.411,-25.551,-31.584,-25.227,-26.149,-20.659,-26.534
-16.941,-12.561,-23.147,-29.72,-22.791,-25,-18.474,-25.866
-15.808,-10.123,-21.759,-28.102,-21.275,-23.667,-17.098,-25.197
-15.175,-7.593,-22.325,-27.139,-21.723,-21.814,-17.123,-23.948
-17.063,-7.584,-25.653,-29.097,-25.107,-21.833,-19.476,-24.05
-17.371,-8.359,-28.255,-31.686,-27.77,-23.028,-20.815,-24.897
-13.193,-6.814,-27.682,-31.752,-27.017,-23.219,-19.231,-24.986
-11.008,-7.15,-27.811,-32.263,-27.055,-24.648,-19.436,-26.563
-14.29,-12.69,-29.985,-34.832,-29.6,-28.083,-22.791,-29.802
-17.616,-17.968,-30.09,-35.3,-30.032,-29.282,-24.2,-30.55
-18.814,-18.272,-27.864,-32.627,-27.682,-27.286,-22.827,-28.236
-21.758,-16.958,-27.574,-31.412,-27.401,-26.75,-22.848,-26.979
-25.774,-17.444,-29.197,-33.251,-29.409,-29.062,-24.317,-28.169
-25.014,-17.327,-28.449,-34.32,-28.802,-29.43,-23.693,-28.904
-18.68,-14.582,-24.982,-32.562,-25.079,-25.542,-20.644,-27.479
-12.133,-11.188,-22.184,-29.744,-22.108,-21.066,-17.294,-25.023
-9.625,-9.023,-20.814,-26.943,-20.8,-18.801,-14.153,-22.04
-10.624,-7.685,-18.452,-23.544,-18.528,-17.079,-9.959,-17.211
-10.441,-5.917,-12.897,-18.894,-13.023,-13.038,-3.216,-9.542
-5.615,-3.396,-5.359,-13.567,-5.585,-6.992,4.496,-1.154
1.593,-0.465,-0.758,-9.905,-1.088,-2.912,6.575,1.977
7.038,3.221,-2.348,-9.495,-2.634,-3.418,-0.888,-3.967
9.559,7.621,-7.326,-10.547,-7.477,-6.18,-11.123,-13.485
10.719,11.629,-10.926,-10.433,-11.072,-7.569,-15.947,-18.744
12.062,14.167,-11.866,-8.975,-12.17,-7.205,-16.339,-19.759
12.472,14.058,-10.938,-6.983,-11.391,-6.349,-15.027,-18.461
8.96,10.414,-8.981,-5.225,-9.439,-5.699,-11.519,-14.115
1.625,5.116,-7.137,-4.843,-7.418,-5.751,-7.518,-9.087
-4.603,2.186,-5.718,-5.405,-5.758,-5.906,-5.619,-6.894
-6.363,2.55,-4.857,-5.597,-4.833,-5.369,-5.655,-6.686
-5.44,3.535,-5.015,-5.057,-5.195,-4.02,-5.663,-5.195
-3.264,4.432,-4.839,-2.946,-5.334,-0.945,-3.623,-1.006
1.166,7.348,-2.818,1.239,-3.464,3.404,-0.152,3.778
6.663,12.253,-0.391,5.669,-0.985,6.205,2.25,6.742
8.868,15.294,0.245,8.041,-0.404,6.608,3.296,8.722
6.042,14.498,0.239,8.89,-0.652,7.376,5.096,11.733
2.674,13.453,3.049,10.957,1.999,11.061,9.169,15.619
3.436,15.344,9.033,14.705,7.922,16.667,14.224,18.591
7.742,18.984,15.386,18.627,14.132,21.723,18.155,20.434
13.415,23.135,20.918,22.864,19.696,25.685,21.98,23.159
19.177,27.395,25.284,26.787,24.621,28.547,26.986,27.007
22.412,28.94,26.226,26.741,26.24,28.68,29.859,28.311
20.563,24.801,22.152,20.822,22.311,24.768,26.931,24.099
15.104,17.187,15.384,12.548,15.23,18.533,20.582,17.239
10.281,12.076,10.544,6.871,10.037,13.297,16.001,12.794
6.76,10.772,8.167,3.675,7.442,9.397,12.898,10.016
1.137,8.14,3.655,-0.602,2.868,4.66,6.643,4.728
-6.297,2.222,-3.529,-5.342,-4.241,-0.015,-1.824,-1.653
-11.818,-3.171,-8.664,-7.62,-9.228,-2.315,-7.037,-5.068
-16.185,-6.854,-11.341,-9.434,-11.922,-4.342,-9.692,-7.478
-21.896,-11.143,-15.103,-14.107,-15.977,-8.927,-14.283,-12.444
-27.072,-16.232,-20.424,-20.359,-21.444,-14.567,-19.822,-17.765
-29.415,-20.551,-24.922,-25.405,-25.627,-19.058,-22.625,-19.864
-30.598,-24.017,-27.375,-28.84,-27.718,-22.72,-23.487,-20.292
-32.959,-27.124,-29.112,-31.188,-29.497,-25.953,-25.928,-23.082
-33.388,-27.181,-29.998,-30.66,-30.661,-26.495,-28.859,-26.715
-26.637,-21.07,-26.784,-24.814,-27.592,-21.838,-26.988,-24.871
-16.331,-12.429,-20.161,-16.361,-20.95,-14.532,-20.076,-17.294
-11.934,-7.834,-16.344,-11.771,-17.143,-10.472,-14.608,-11.233
-14.728,-7.675,-17.825,-13.237,-18.647,-11.565,-14.076,-10.461
-17.139,-7.516,-19.392,-16.217,-19.982,-13.912,-13.794,-10.93
-14.428,-5.026,-15.851,-15.369,-16.095,-12.94,-8.652,-8.026
-9.384,-1.379,-8.994,-10.962,-9.322,-8.891,-1.599,-3.008
-5.446,1.983,-4.136,-7.236,-4.914,-5.805,1.043,-0.635
-3.135,3.682,-3.735,-6.009,-4.8,-5.262,-1.202,-2.423
-3.448,2.248,-6.064,-5.637,-7.247,-4.959,-3.761,-4.947
-6.588,-0.68,-8.057,-5.296,-9.314,-4.162,-4.574,-5.862
-9.124,-1.677,-8.922,-6.236,-9.97,-5.288,-6.214,-7.135
-7.046,0.75,-8.66,-7.378,-9.361,-7.63,-9.063,-8.788
0.137,7.131,-5.422,-4.413,-6.198,-5.718,-8.274,-6.671
8.617,16.223,0.887,3.191,-0.328,1.893,-1.912,-0.315
13.353,22.846,6.253,9.425,4.905,8.537,4.334,4.618
12.775,22.842,6.918,10.069,5.951,9.04,4.76,4.2
8.708,18.079,2.86,7.666,2.23,6.312,0.223,0.507
3.051,12.27,-3.599,4.23,-4.288,3.015,-5.753,-3.865
-2.177,6.495,-9.703,-2.305,-10.484,-3.19,-11.814,-9.417
-5.022,1.253,-13.585,-11.17,-14.25,-11.527,-17.525,-15.822
-6.461,-2.514,-16.333,-18.039,-16.957,-17.444,-22.126,-21.024
-8.926,-5.128,-20.342,-21.758,-21.085,-20.866,-25.582,-24.778
-11.312,-6.604,-23.577,-23.252,-24.313,-23.745,-27.465,-27.321
-11.591,-6.147,-21.558,-21.352,-22.143,-23.764,-26.562,-27.008
-12.755,-5.375,-16.352,-16.674,-16.982,-19.731,-23.869,-23.297
-17.196,-6.382,-14.715,-13.724,-15.667,-16.046,-22.233,-18.972
-19.74,-7.524,-17.229,-14.541,-18.381,-15.799,-22.182,-17.159
-15.045,-6.139,-17.679,-15.536,-18.648,-16.008,-21.172,-16.743
-6.594,-2.942,-13.523,-13.523,-14.148,-13.526,-17.546,-13.872
-1.696,-0.374,-9.254,-10.259,-9.7,-10.018,-12.817,-8.896
-2.139,0.514,-8.414,-8.731,-8.966,-8.502,-9.392,-6.364
-6.147,-1.463,-10.368,-10.022,-11.248,-10.359,-9.099,-8.238
-13.222,-7.092,-14.48,-13.944,-15.582,-15.188,-13.003,-12.441
-21.203,-13.09,-20.784,-18.988,-21.712,-20.403,-20.101,-17.492
-26.274,-16.122,-27.702,-23.288,-28.414,-23.898,-27.014,-23.421
-27.912,-18.385,-31.762,-26.167,-32.675,-26.364,-29.544,-27.775
-29.611,-23.248,-30.943,-27.801,-32.127,-28.703,-26.605,-27.258
-35.043,-29.867,-28.353,-28.509,-29.407,-30.186,-22.374,-23.661
-42.462,-34.936,-28.018,-28.276,-28.911,-30.23,-20.87,-21.418
-45.134,-36.155,-28.498,-26.751,-29.691,-29.315,-20.797,-20.93
-40.171,-33.134,-26.907,-23.767,-28.469,-27.238,-19.888,-20.018
-33.116,-27.283,-25.055,-19.922,-26.437,-23.314,-19.942,-19.11
-30.515,-21.857,-25.483,-16.931,-26.417,-19.429,-22.457,-20.039
-30.071,-19.446,-26.4,-16.208,-27.353,-18.771,-24.608,-21.851
-25.119,-18.787,-25.034,-17.057,-26.427,-20.86,-23.87,-22.018
-16.172,-16.627,-20.743,-16.855,-22.256,-21.22,-20.556,-19.372
-9.486,-12.53,-14.457,-14.064,-15.627,-17.4,-15.987,-14.783
-8.186,-9.356,-9.452,-10.937,-10.433,-12.835,-12.511,-11.328
-9.505,-8.219,-8.249,-9.622,-9.434,-10.984,-11.121,-10.613
-9.61,-6.889,-9.022,-8.468,-10.33,-10.357,-10.243,-10.587
-9.147,-5.256,-10.309,-6.914,-11.417,-9.792,-10.789,-10.915
-11.339,-7.197,-13.961,-8.615,-15.048,-12.037,-16.091,-14.413
-16.568,-14.258,-20.783,-16.053,-22.236,-19.164,-25.505,-21.687
-22.696,-22.14,-28.902,-26.722,-30.4,-29.259,-34.798,-30.441
-28.129,-26.208,-35.384,-35.926,-36.354,-38.152,-40.956,-38.256
-30.414,-26.183,-36.068,-39.589,-36.684,-41.669,-41.596,-41.58
-26.514,-23.825,-28.592,-35.747,-29.305,-37.826,-34.754,-36.993
-18.73,-20.838,-18.185,-27.022,-18.968,-29.328,-23.783,-27.155
-14.477,-19.621,-14.028,-19.548,-14.855,-22.164,-16.833,-19.93
-17.857,-22.27,-19.008,-17.852,-20.085,-21.066,-18.765,-20.055
-25.504,-28.112,-28.384,-21.851,-29.546,-26.522,-26.999,-25.308
-31.358,-33.395,-35.802,-27.764,-36.678,-33.99,-34.764,-30.053
-32.077,-34.155,-36.907,-30.902,-37.561,-36.945,-36.726,-30.323
-26.601,-29.039,-30.634,-28.028,-31.332,-32.28,-31.865,-25.361
-15.721,-19.382,-19.193,-18.424,-19.958,-21.311,-22.189,-16.014
-3.752,-7.82,-6.174,-4.331,-6.974,-6.826,-10.459,-3.931
4.91,3.18,5.344,9.776,4.455,8.092,0.937,8.21
11.273,12.429,14.459,20.438,13.546,20.333,10.453,18.085
18.625,19.646,22.294,27.856,21.548,28.56,17.512,25.392
25.036,24.443,28.749,33.391,28.203,33.457,22.411,30.745
26.795,27.381,32.109,36.552,31.526,35.931,26.411,34.403
28.982,31.896,34.648,38.511,33.83,38.293,32.879,38.652
43.239,44.449,45.997,47.515,45.086,48.157,48.395,50.876
73.479,69.929,73.98,72.476,73.28,73.291,77.445,77.794
110.851,104.172,112.107,108.896,111.675,108.961,114.031,113.965
144.684,137.145,146.56,143.082,146.184,142.191,147.019,146.418
172.475,165.1,173.615,170.238,173.201,168.703,173.496,171.367
196.527,190.566,198.043,194.676,197.77,192.419,197.398,194.088
218.022,214.212,221.24,218.215,221.221,215.08,220.071,217.626
238.686,236.523,243.071,240.801,243.07,237.814,241.967,242.328
261.989,261.219,267.834,265.505,267.517,264.168,268.042,269.823
289.718,290.388,299.643,295.528,299.058,295.46,303.081,301.71
318.74,319.801,334.576,328.132,334.055,327.563,341.932,335.318
342.012,342.166,362.206,354.769,361.817,353.608,371.393,362.721
356.297,355.521,378.034,371.356,377.653,371.118,387.061,379.59
366.395,365.58,388.708,383.864,388.46,384.874,398.128,391.264
378.02,378.183,400.779,398.079,400.932,399.234,410.93,403.698
391.401,392.334,412.989,411.192,413.599,411.957,422.445,415.598
402.597,401.549,421.305,417.42,422.094,418.493,429.998,422.887
407.883,402.037,425.002,416.677,425.519,419.043,435.478,425.734
408.537,398.471,426.924,414.946,426.962,418.943,440.548,428.398
410.721,398.683,429.099,416.849,428.906,421.792,442.441,432.159
416.278,403.204,429.702,419.912,429.658,424.593,438.264,433.13
417.912,404.954,426.303,418.486,426.441,422.243,431.558,428.893
411.789,401.477,421.125,413.02,421.159,415.644,427.301,422.098
405.558,398.562,418.395,409.413,418.192,410.612,423.656,416.302
403.64,397.673,416.554,407.96,416.219,408.08,416.527,411.628
398.724,392.697,410.259,403.13,409.74,403.09,407.155,406.007
386.512,382.069,399.157,394.314,398.275,394.377,398.064,398.536
374.379,371.892,388.413,386.323,387.352,386.225,388.754,390.307
367.927,365.34,381.452,380.896,380.525,380.566,379.575,383.009
360.909,357.966,374.969,374.557,373.995,373.84,370.724,375.699
347.536,346.515,363.999,364.803,362.657,363.276,359.454,365.239
334.559,335.281,351.249,354.73,349.665,352.336,346.129,352.812
328.933,328.044,342.37,347.254,340.823,344.733,334.573,342.775
324.605,320.859,334.052,338.591,332.627,336.922,323.843,333.747
314.54,310.004,320.572,325.165,319.286,324.593,311.226,321.573
300.709,297.546,305.02,309.714,303.892,309.625,298.859,307.551
285.263,284.989,292.237,294.65,291.235,294.46,288.355,294.334
269.484,273.038,282.218,280.282,281.302,280.025,278.012,281.938
257.815,264.35,274.064,268.992,273.236,269.059,267.855,271.214
249.927,257.215,265.751,260.613,265.041,261.202,258.303,262.161
239.739,245.629,253.257,249.633,252.65,250.251,245.871,250.358
226.848,229.699,236.082,233.792,235.482,233.405,227.89,232.762
215.811,215.182,218.835,217.712,218.207,215.765,209.269,213.915
204.952,202.311,204.417,204.078,203.903,201.001,196.269,199.198
188.275,185.579,189.874,189.316,189.591,185.698,185.704,186.063
166.761,164.706,172.005,171.435,171.783,167.517,169.956,169.881
147.537,146.431,153.054,154.513,152.641,150.804,149.19,152.913
132.778,134.084,136.955,141.562,136.541,138.743,130.206,139.493
119.089,123.929,124.982,130.334,124.92,128.124,117.558,128.682
106.833,113.604,117.182,119.618,117.246,116.968,110.819,118.319
98.778,104.922,111.848,111.423,111.697,108.179,106.614,109.839
92.292,97.099,104.662,104.981,104.634,102.122,100.93,103.633
82.281,85.53,92.851,96.186,93.308,94.397,91.031,95.469
69.182,69.668,79.313,84.558,79.902,83.629,78.132,83.571
59.782,56.818,71.077,75.428,71.359,74.703,68.739,73.522
57.614,52.535,69.863,71.388,69.913,70.108,66.141,68.362
55.925,51.523,67.484,66.823,67.598,64.333,62.987,62.068
47.508,45.466,56.94,56.527,57.251,52.869,51.935,50.074
34.057,34.041,40.21,42.632,40.643,39.052,35.659,35.579
19.56,21.552,22.159,28.536,22.634,26.44,19.701,21.785
4.779,9.446,5.495,14.122,6.042,13.43,5.406,8.37
-8.871,-2.435,-7.771,-0.083,-7.18,-0.74,-6.762,-3.564
-18.838,-13.015,-15.945,-11.658,-15.452,-13.619,-15.57,-11.956
-25.057,-21.554,-20.445,-20.374,-20.033,-24.014,-22.189,-18.365
-29.657,-28.206,-24.903,-27.763,-24.268,-32.107,-28.379,-25.294
-34.877,-33.785,-31.01,-34.718,-29.923,-38.263,-34.429,-32.817
-41.32,-39.756,-38.769,-42.197,-37.414,-44.266,-42.129,-41.437
-47.689,-46.226,-48.112,-50.72,-46.831,-51.646,-52.154,-51.734
-54.406,-52.734,-58.964,-59.957,-57.889,-60.698,-62.232,-62.227
-62.712,-59.661,-70.735,-68.927,-69.845,-70.609,-72.931,-72.101
-70.164,-66.563,-80.84,-75.655,-80.062,-78.415,-84.802,-81.505
-76.162,-74.306,-88.239,-80.57,-87.241,-83.406,-94.368,-89.721
-85.227,-84.897,-96.351,-87.052,-94.858,-89.673,-101.494,-96.919
-97.673,-95.986,-107.09,-95.696,-105.489,-98.997,-110.59,-105.218
-108.774,-104.536,-118.393,-104.521,-117.212,-108.445,-122.53,-115.445
-117.009,-112.285,-127.102,-112.46,-126.231,-115.557,-130.898,-123.334
-123.604,-120.251,-130.789,-118.401,-129.904,-119.836,-130.047,-124.455
-129.183,-126.604,-132.667,-123.026,-131.788,-123.129,-128.213,-124.24
-133.479,-131.675,-138.42,-129.259,-137.544,-128.999,-137.306,-131.369
-135.325,-137.1,-145.017,-136.191,-143.877,-136.98,-150.227,-142.051
-135.819,-142.294,-147.032,-140.189,-145.578,-142.454,-153.741,-147.013
-137.433,-144.983,-147.401,-141.348,-145.92,-143.797,-152.072,-147.591
-137.827,-143.816,-148.724,-142.081,-147.312,-143.694,-153.418,-149.604
-134.713,-141.026,-148.486,-143.832,-146.98,-145.063,-154.471,-152.076
-133.206,-140.491,-147.245,-146.591,-145.637,-148.335,-152.043,-152.441
-138.118,-142.762,-148.358,-148.89,-146.81,-151.696,-150.527,-153.048
-146.174,-145.863,-152.232,-150.262,-150.8,-154.271,-153.322,-156.593
-151.582,-149.114,-156.478,-151.95,-155.157,-156.693,-157.312,-160.845
-154.092,-153.249,-159.402,-154.541,-158.294,-158.874,-159.005,-162.489
-158.063,-159.264,-162.629,-158.64,-161.765,-161.62,-161.427,-163.687
-164.496,-166.632,-167.864,-164.471,-167.05,-166.224,-167.625,-167.895
-169.672,-172.241,-172.46,-169.13,-171.554,-170.051,-172.596,-171.961
-174.648,-176.609,-175.885,-172.036,-175.093,-171.925,-174.275,-173.64
-185.448,-185.561,-184.038,-178.68,-183.593,-177.812,-181.196,-179.328
-199.832,-197.712,-196.673,-189.04,-196.28,-188.538,-194.305,-190.403
-208.452,-203.17,-203.634,-194.035,-202.795,-194.145,-201.03,-196.677
-209.283,-200.008,-201.414,-190.971,-200.273,-190.888,-197.8,-194.283
-207.624,-196.736,-197.866,-187.807,-196.866,-187.472,-194.85,-191.742
-206.941,-198.701,-198.717,-190.388,-197.745,-190.354,-197.262,-194.568
-208.52,-204.127,-202.529,-197.568,-201.321,-197.432,-201.181,-199.831
-212.72,-209.794,-206.749,-206.039,-205.552,-204.807,-204.521,-204.415
-216.937,-213.779,-210.098,-212.5,-209.139,-210.243,-207.666,-207.677
-219.179,-215.556,-211.184,-214.353,-210.166,-212.354,-207.781,-207.889
-221.005,-215.795,-210.047,-212.203,-208.681,-211.518,-203.288,-204.583
-222.878,-215.794,-210.444,-210.727,-208.912,-211.304,-201.787,-204.465
-223.749,-216.695,-214.921,-213.41,-213.485,-214.828,-209.716,-212.879
-224.899,-218.456,-219.082,-217.143,-217.67,-219.505,-218.571,-221.485
-227.353,-219.616,-218.314,-217.15,-216.799,-220.213,-217.959,-220.241
-229.87,-219.512,-215.988,-214.619,-214.531,-216.747,-212.225,-213.397
-233.156,-220.986,-218.827,-215.308,-217.614,-215.203,-212.783,-212.247
-238.887,-226.478,-228.164,-221.885,-227.105,-220.416,-223.777,-220.536
-243.907,-232.121,-237.688,-229.333,-236.614,-227.763,-237.232,-230.462
-243.322,-233.215,-239.409,-230.784,-238.234,-228.984,-240.892,-232.176
-237.436,-231.122,-231.794,-225.734,-230.429,-223.778,-232.751,-226.31
-230.72,-229.111,-221.503,-219.334,-219.983,-218.645,-222.525,-221.659
-227.503,-228.961,-217.604,-217.415,-216.202,-218.629,-219.232,-223.093
-228.679,-231.272,-222.221,-221.79,-221.156,-223.237,-223.238,-228.393
-231.496,-234.077,-229.328,-228.473,-228.455,-228.192,-229.52,-233.657
-233.869,-234.812,-233.502,-231.825,-232.436,-229.71,-233.214,-235.204
-235.012,-233.332,-232.888,-229.142,-231.515,-226.214,-231.323,-229.776
-233.422,-231.175,-227.983,-222.818,-226.642,-219.821,-225.445,-220.013
-229.986,-230.365,-224.003,-219.525,-222.924,-217.065,-222.846,-215.39
-229.026,-232.256,-227.399,-223.842,-226.482,-222.54,-229.194,-221.557
-232.459,-235.916,-237.154,-232.629,-236.392,-232.5,-241.006,-232.471
-236.83,-238.732,-245.3,-238.767,-244.741,-239.15,-248.637,-237.774
-237.835,-239.485,-247.024,-239.819,-246.479,-240.053,-247.472,-235.511
-235.26,-239.219,-245.113,-239.325,-244.451,-239.418,-242.789,-232.563
-231.93,-237.596,-243.036,-238.992,-242.406,-239.412,-240.29,-233.157
-229.171,-232.045,-239.838,-235.694,-239.226,-236.451,-238.008,-233.45
-226.396,-223.207,-234.92,-228.967,-234.026,-229.303,-233.933,-230.054
-224.189,-216.377,-231.466,-223.848,-230.336,-222.831,-232.493,-226.755
-222.971,-214.308,-230.602,-222.842,-229.699,-220.482,-234.953,-227.296
-220.608,-213.354,-228.271,-222.428,-227.721,-220.146,-235.013,-228.833
-215.861,-209.939,-222.387,-219.648,-221.719,-218.872,-230.113,-227.977
-210.888,-205.996,-216.811,-216.294,-215.592,-216.643,-224.885,-225.937
-207.699,-204.255,-215.251,-214.888,-213.694,-214.623,-222.698,-224.489
-205.595,-203.57,-216.738,-214.565,-215.357,-213.004,-222.8,-223.254
-204.01,-202.639,-218.632,-213.691,-217.505,-211.762,-223.568,-222.266
-203.727,-201.985,-219.694,-212.789,-218.617,-210.946,-223.99,-222.335
-203.959,-201.172,-219.425,-212.445,-218.526,-210.214,-223.347,-222.565
-203.158,-199.826,-217.759,-212.205,-217.216,-209.905,-221.323,-221.349
-202.653,-199.569,-216.014,-212.313,-215.482,-211.015,-218.879,-219.41
-205.007,-201.465,-215.927,-213.667,-214.992,-213.692,-217.733,-218.848
-207.537,-202.673,-216.296,-215.486,-215.147,-216.364,-217.456,-219.562
-203.954,-199.221,-213.863,-215.758,-212.979,-217.136,-215.737,-219.52
-196.052,-193.142,-209.674,-214.924,-209.18,-216.835,-212.807,-218.646
-193.422,-191.247,-209.512,-215.825,-209.153,-218.103,-212.665,-219.701
-199.766,-196.142,-216.538,-220.261,-216.102,-221.706,-218.932,-224.613
-209.434,-203.701,-227.099,-227.394,-226.663,-226.176,-229.52,-231.445
-215.584,-208.627,-234.424,-233.749,-234.096,-229.41,-236.916,-235.932
-216.25,-209.092,-235.316,-235.466,-234.956,-229.766,-236.445,-235.902
-214.476,-206.871,-232.412,-232.445,-231.882,-227.415,-231.758,-233.409
-213.482,-204.934,-229.804,-228.253,-229.169,-224.215,-228.241,-231.166
-213.053,-205.015,-228.915,-225.996,-228.209,-222.182,-225.786,-228.966
-212.08,-206.516,-229.155,-226.134,-228.354,-222.161,-222.533,-225.805
-210.343,-206.286,-228.519,-226.085,-227.723,-222.149,-218.79,-221.987
-207.352,-201.595,-224.773,-222.678,-224.078,-218.943,-214.809,-218.17
-203.281,-194.632,-218.886,-216.551,-218.314,-212.872,-210.519,-214.521
-199.021,-189.627,-213.988,-210.996,-213.562,-207.489,-206.541,-210.703
-194.838,-187.132,-211.496,-207.822,-211.094,-205.073,-203.922,-207.484
-190.86,-185.276,-209.94,-206.218,-209.372,-204.166,-202.768,-205.694
-187.518,-183.359,-206.822,-204.45,-206.149,-202.23,-200.804,-203.459
-185.916,-182.312,-203.21,-203.336,-202.617,-200.716,-198.112,-200.678
-187.293,-183.13,-203.017,-204.59,-202.508,-202.128,-199.137,-200.623
-190.679,-185.369,-206.348,-206.386,-205.806,-204.376,-204.406,-203.04
-192.869,-187.243,-209.114,-206.488,-208.539,-204.967,-208.748,-204.681
-190.383,-186.226,-207.625,-204.929,-207.112,-204.078,-207.957,-204.139
-181.042,-179.817,-200.292,-200.508,-199.814,-200.385,-200.76,-200.612
-166.919,-168.672,-188.85,-192.156,-188.243,-192.547,-189.959,-194.468
-155.905,-159.321,-179.366,-184.095,-178.645,-184.817,-182.767,-189.8
-155.195,-158.369,-177.327,-182.06,-176.811,-183.071,-183.3,-190.257
-161.42,-162.991,-180.376,-184.211,-180.246,-185.381,-187.416,-192.92
-164.248,-164.997,-180.341,-183.255,-180.303,-184.468,-187.207,-191.429
-162.113,-163.666,-175.729,-178.223,-175.457,-179.56,-181.791,-185.533
-162.416,-163.55,-174.403,-174.551,-173.983,-175.669,-180.505,-180.506
-164.58,-162.572,-176.193,-171.469,-175.74,-171.621,-183.062,-175.486
-160.728,-156.131,-170.499,-163.272,-169.967,-162.565,-175.35,-164.906
-152.425,-148.148,-159.043,-152.93,-158.64,-152.094,-159.556,-152.371
-147.647,-144.528,-154.437,-147.669,-154.534,-146.803,-153.104,-146.385
-146.209,-142.587,-155.837,-145.286,-156.435,-144.346,-155.04,-144.984
-142.614,-137.218,-152.148,-139.345,-152.853,-138.907,-149.99,-140.173
-136.076,-129.834,-142.332,-130.747,-142.734,-131.122,-137.734,-131.969
-129.275,-124.482,-133.727,-124.896,-133.697,-125.653,-131.125,-126.74
-121.912,-120.705,-127.766,-122.731,-127.566,-123.502,-131.983,-126.091
-112.325,-115.577,-119.698,-120.074,-119.756,-120.977,-129.101,-124.979
-103.91,-110.258,-109.803,-115.074,-110.291,-116.43,-119.081,-120.477
-100.913,-107.81,-104.447,-110.596,-105.211,-112.338,-111.54,-115.751
-100.466,-106.695,-104.607,-107.626,-105.328,-109.229,-110.524,-112.645
-98.257,-104.165,-103.768,-103.822,-104.174,-105.192,-108.726,-108.338
-95.811,-101.504,-98.799,-99.117,-98.981,-100.832,-102.461,-102.352
-95.66,-100.765,-93.901,-95.945,-94.138,-98.531,-97.176,-98.725
-96.345,-101.297,-92.387,-94.912,-92.758,-98.366,-97.115,-99.34
-95.524,-101.215,-92.782,-94.531,-93.292,-98.238,-100.035,-101.249
-92.547,-99.169,-93.549,-93.57,-94.092,-96.801,-102.232,-101.286
-87.357,-94.641,-93.263,-91.04,-93.561,-93.643,-100.89,-98.598
-82.062,-89.177,-90.252,-87.039,-90.362,-89.001,-95.398,-93.693
-80.577,-86.204,-87.133,-84.353,-87.372,-85.444,-90.485,-88.761
-83.004,-87.042,-87.172,-84.9,-87.494,-85.557,-89.338,-85.904
-85.803,-89.43,-87.239,-86.328,-87.416,-87.34,-87.185,-84.195
-86.489,-90.866,-83.058,-85.857,-83.162,-86.87,-81.024,-82.15
-83.741,-90.336,-76.047,-83.218,-76.286,-83.583,-74.984,-79.434
-77.88,-87.527,-69.245,-78.423,-69.653,-78.885,-70.837,-74.815
-72.27,-83.619,-63.25,-72.648,-63.839,-74.186,-65.915,-68.6
-69.433,-80.956,-58.388,-69.213,-59.294,-71.555,-60.1,-64.276
-68.688,-80.202,-55.487,-68.942,-56.614,-71.451,-55.735,-63.16
-69.16,-80.423,-54.616,-69.458,-55.55,-71.77,-53.592,-62.894
-70.587,-80.811,-54.853,-69.557,-55.404,-71.251,-52.762,-62.285
-72.334,-80.886,-55.043,-69.282,-55.464,-70.404,-53.016,-62.451
-73.969,-81.272,-55.295,-68.068,-55.962,-69.053,-54.902,-63.373
-74.906,-82.576,-56.519,-65.845,-57.459,-66.496,-57.1,-63.458
-74.327,-83.487,-59.808,-64.702,-60.511,-64.724,-59.538,-63.954
-72.633,-82.573,-65.685,-66.501,-65.836,-66.333,-64.747,-67.439
-70.507,-79.215,-69.426,-67.766,-69.493,-67.938,-67.998,-69.839
-67.255,-73.213,-64.658,-62.72,-65.119,-63.53,-61.446,-64.268
-63.089,-66.241,-54.835,-52.547,-55.474,-54.166,-50.522,-52.45
-59.507,-60.486,-48.254,-44.052,-48.861,-46.133,-45.474,-42.214
-55.208,-55.397,-44.649,-39.809,-45.516,-41.548,-44.214,-36.551
-47.569,-49.019,-38.868,-36.462,-40.098,-37.547,-39.478,-32.153
-38.531,-41.627,-31.392,-31.72,-32.636,-32.963,-31.932,-26.928
-33.366,-36.167,-27.245,-27.843,-28.271,-30.192,-27.43,-23.201
-33.039,-34.388,-27.341,-26.679,-28.237,-29.744,-26.935,-21.784
-32.452,-33.91,-26.269,-25.464,-27.165,-28.092,-25.122,-19.28
-28.866,-32.138,-20.973,-21.818,-21.839,-23.97,-19.743,-15.028
-24.963,-29.556,-15.108,-17.795,-15.872,-20.49,-15.504,-13.177
-21.693,-26.707,-11.969,-15.434,-12.803,-18.913,-15.869,-15.04
-18.35,-24.174,-11.2,-14.691,-12.367,-17.95,-18.276,-17.259
-17.888,-24.864,-13.151,-16.477,-14.511,-18.571,-20.535,-18.608
-22.937,-30.377,-19.361,-22.064,-20.411,-22.577,-24.993,-21.556
-30.85,-37.832,-28.142,-29.515,-28.73,-28.023,-31.87,-26.16
-37.101,-43.308,-34.649,-34.599,-35.153,-31.111,-36.374,-29.23
-39.57,-45.216,-36.065,-35.484,-36.752,-31.176,-36.673,-30.035
-38.668,-43.482,-33.544,-33.569,-34.357,-30.017,-35.525,-29.928
-35.513,-38.266,-29.383,-30.213,-30.202,-28.211,-33.254,-28.229
-30.849,-30.458,-24.512,-25.615,-25.164,-25.065,-27.778,-23.959
-25.698,-22.941,-19.364,-20.896,-19.67,-21.321,-20.734,-19.15
-22.355,-20.609,-16.11,-19.345,-16.11,-20.326,-17.197,-18.045
-23.553,-26.112,-17.458,-23.085,-17.452,-24.27,-19.077,-22.375
-28.739,-34.846,-22.522,-28.743,-22.848,-29.674,-23.27,-28.046
-32.677,-38.779,-26.009,-30.127,-26.719,-30.594,-25.714,-29.315
-30.628,-35.122,-23.273,-25.16,-24.015,-25.544,-23.706,-24.85
-22.837,-27.151,-15.022,-17.514,-15.368,-18.136,-17.016,-17.624
-13.361,-19.387,-5.395,-12.31,-5.393,-12.552,-8.197,-11.314
-6.462,-14.591,2.345,-11.177,2.124,-9.953,-0.18,-7.565
-3.796,-12.782,6.18,-11.398,5.327,-8.482,4.564,-5.364
-4.261,-12.166,5.106,-10.081,3.915,-6.425,4.397,-3.218
-4.539,-10.131,2.079,-6.195,1.121,-3.152,2.045,-0.415
-1.465,-4.217,3.068,0.965,2.528,2.366,3.324,4.026
3.474,4.22,9.665,9.831,9.32,9.509,9.692,10.169
6.382,9.545,17.405,15.364,17.015,14.428,17.78,15.672
6.268,8.127,21.687,14.155,21.254,13.73,23.591,17.625
4.244,2.896,20.766,8.935,20.451,8.873,23.234,15.756
2.326,-0.008,16.351,6.026,16.244,5.659,17.435,13.932
3.062,1.69,13.18,7.945,13.19,7.621,13.362,15.678
7.288,5.238,14.091,10.92,14.045,11.756,15.162,18.854
13.122,8.098,17.354,11.14,17.174,13.644,19.865,19.587
17.886,10.883,21.453,10.024,21.108,13.806,24.772,18.714
21.214,15.012,26.86,11.432,26.362,15.737,29.817,19.556
24.196,19.021,30.912,15.411,30.402,19.383,32.23,21.898
27.332,20.854,30.347,18.5,29.924,21.731,29.727,23.291
31.798,23.074,29.173,20.306,28.815,23.284,28.341,24.788
38.012,28.761,33.34,24.032,33.066,27.319,35.5,29.412
43.056,35.208,40.864,30.501,40.75,33.764,48.335,36.414
44.504,38.581,45.52,36.853,45.522,39.264,56.248,42.081
44.89,40.662,46.572,41.394,46.491,42.596,54.515,45.357
48.131,45.557,49.379,46.384,49.088,46.833,52.21,49.447
54.342,52.962,57.417,54.301,56.959,54.799,59.482,56.905
61.41,59.248,68.003,63.259,67.435,64.103,72.247,65.877
67.421,62.357,76.052,68.741,75.395,69.659,80.177,72.44
70.792,62.966,79.434,69.819,78.728,70.733,81.351,75.046
71.401,63.505,80.515,70.674,79.847,71.633,81.536,76.159
69.843,65.899,81.86,73.524,81.313,73.944,83.495,77.922
67.316,70.437,82.976,75.679,82.487,75.011,83.862,79.119
68.002,77.513,84.148,76.775,83.642,75.762,82.709,79.732
74.564,85.938,87.142,79.188,86.721,78.885,84.707,81.263
82.3,91.172,90.175,80.657,89.887,80.87,88.445,81.908
