EEG 1,EEG 2,EEG 3,EEG 4,EEG 5,EEG 6,EEG 7,EEG 8
0.578,5.512,4.919,7.429,5.208,7.067,5.872,12.234
0.748,4.495,3.088,5.091,3.185,4.769,3.672,9.208
2.661,3.921,3.24,3.924,3.233,3.505,4.575,7.793
5.834,3.906,4.085,4.076,4.161,3.532,6.067,8.427
7.26,3.662,3.305,3.554,3.537,2.545,5.428,8.501
6.234,2.944,2.365,1.869,2.484,0.316,4.535,7.39
5.706,2.171,2.546,0.332,2.31,-0.967,4.105,6.48
7.468,1.836,2.33,-0.527,1.969,-0.914,2.524,6.079
7.586,1.216,1.556,-1.225,1.341,-1.104,1.002,5.635
2.543,-0.45,2.275,-1.452,2.142,-1.294,2.445,5.753
-2.716,-1.91,4.233,-0.734,4.155,-0.197,5.783,6.969
-2.111,-1.979,4.501,0.169,4.577,1.417,6.91,8.083
1.64,-1.688,2.742,0.488,2.834,2.202,5.1,8.127
2.242,-2.721,2.021,0.205,1.901,2.185,3.854,7.75
-0.618,-4.95,3.173,-0.327,2.95,1.646,4.687,7.729
-1.643,-5.664,4.616,0.316,4.509,1.359,6.466,8.924
1.972,-2.498,7.511,3.672,7.536,3.262,10.656,12.58
6.69,2.873,12.669,8.693,12.804,7.748,17.13,17.68
10.038,7.098,16.334,12.887,16.613,12.531,20.406,21.334
13.841,9.244,17.064,15.394,17.458,15.668,20.235,23.196
16.412,9.676,18.493,16.36,18.851,16.913,23.292,24.93
13.778,8.556,20.26,15.295,20.363,16.209,28.526,26.007
7.771,6.381,17.114,12.065,16.893,13.532,26.867,24.354
3.777,4.188,10.268,8.38,9.99,10.462,17.858,20.532
4.042,3.581,7.676,6.607,7.69,9.397,10.987,17.596
6.076,4.808,10.938,7.125,11.262,10.574,10.042,16.976
7.088,6.065,14.649,8.7,15.074,12.432,11.1,17.852
8.797,7.739,17.708,11.322,18.155,14.616,13.628,19.488
13.595,12.188,22.385,15.381,22.895,17.31,19.446,21.201
18.745,17.531,25.791,18.173,26.357,18.544,23.953,21.213
20.515,19.322,23.18,16.498,23.746,16.349,19.98,18.054
20.002,17.546,16.703,12.446,17.097,12.624,9.946,13.452
20.099,15.454,13.171,10.87,13.172,11.051,4.357,11.106
19.847,13.893,14.29,12.141,13.953,11.955,6.459,11.637
16.117,11.261,15.015,12.434,14.58,12.256,8.575,12.001
10.091,7.917,12.086,10.319,11.773,10.35,5.529,10.299
6.413,6.609,8.872,8.602,9.011,8.109,1.886,8.141
6.38,8.205,9.327,9.389,9.935,7.69,2.944,7.927
7.57,10.655,11.864,11.125,12.27,8.96,6.279,9.624
8.717,12.255,13.061,11.717,12.895,10.417,7.565,11.437
10.696,13.033,12.966,11.615,12.831,11.371,7.894,12.701
12.705,12.85,12.62,11.668,13.011,12.04,8.784,13.644
12.193,11.399,12.172,11.459,12.645,12.474,8.989,14.342
10.414,10.76,13.897,12.106,13.854,13.379,10.684,16.015
11.001,12.856,18.976,15.144,18.588,15.601,16.75,19.432
12.778,15.183,22.847,18.329,22.634,17.818,22.415,22.358
12.101,14.908,21.392,18.333,21.338,17.937,21.167,22.214
9.978,13.447,17.253,15.689,17.034,16.159,15.698,19.823
9.769,12.909,15.442,13.778,15.104,14.683,13.856,18.501
10.874,12.806,16.691,14.516,16.555,15.186,16.468,19.596
11.066,12.064,18.343,16.492,18.622,17.22,18.101,21.059
11.445,11.302,19.674,17.739,20.389,19.041,17.995,21.368
13.233,12.008,21.879,18.31,22.861,19.511,19.846,21.198
14.226,13.65,23.092,18.05,23.918,18.185,21.326,20.082
13.401,14.146,20.2,16.151,20.498,15.629,16.715,16.892
12.941,13.351,16.296,14.405,16.263,14.235,10.631,14.225
12.295,11.819,16.598,14.556,16.761,14.924,11.932,15.055
8.207,8.818,18.583,14.57,19.103,15.288,16.359,16.78
1.738,4.94,16.828,13.061,17.445,14.03,14.316,15.681
-1.907,2.571,12.755,12.213,13.174,13.107,8.283,13.357
-0.418,2.991,11.459,13.43,11.667,14.083,7.038,13.391
3.156,5.354,13.659,14.938,13.907,15.531,10.964,15.271
5.282,7.522,15.228,14.582,15.567,15.241,13.198,15.626
5.038,7.092,12.741,11.906,13.031,12.832,10.522,13.288
2.699,4.115,8.399,8.454,8.719,9.59,7.404,10.404
-0.866,1.785,7.372,6.996,7.763,7.423,8.825,9.562
-4.325,1.952,10.204,8.556,10.457,7.626,12.858,11.052
-5.896,3.271,12.243,10.83,12.286,9.047,13.615,12.297
-4.219,3.836,9.392,10.301,9.442,8.238,8.089,10.138
-0.383,3.723,3.87,6.965,4.238,4.825,0.93,5.992
2.376,4.699,3.172,5.399,4.018,3.559,1.428,5.347
1.579,6.392,8.669,7.537,9.792,6.392,9.683,9.122
-1.213,6.316,12.776,9.403,13.784,8.938,14.873,12.172
-1.896,4.545,11.733,8.375,12.507,7.943,12.38,11.445
1.149,4.445,10.478,7.477,11.188,6.218,9.086,9.489
5.809,8.173,12.529,9.601,13.176,7.519,9.604,9.321
8.072,12.604,14.446,12.04,14.927,9.94,10.398,9.958
6.757,13.699,13.72,11.642,14.255,9.735,9.382,9.748
6.231,12.94,13.661,10.662,14.479,8.32,9.911,9.918
7.576,12.165,15.19,10.409,16.015,7.742,11.745,10.298
4.61,9.211,13.484,7.322,13.932,5.473,9.315,7.626
-2.24,5.086,8.877,2.158,9.018,1.344,3.912,2.986
-3.431,4.868,9.286,1.979,9.479,1.128,4.6,2.936
1.95,8.514,15.832,7.984,16.286,6.628,11.845,8.481
4.536,10.071,19.279,12.309,19.91,10.958,14.965,11.947
1.768,6.865,15.103,10.161,15.749,8.965,9.924,8.809
0.33,2.918,8.956,5.606,9.617,4.081,4.461,3.279
2.945,1.818,5.448,3.171,6.232,1.092,3.516,-0.107
3.595,0.979,2.801,1.536,3.771,-0.439,3.374,-2.019
-2.266,-3.433,-0.701,-1.775,0.325,-2.61,1.129,-4.045
-8.81,-8.956,-3.35,-4.883,-2.647,-4.537,-1.357,-5.317
-8.148,-9.968,-4.307,-4.749,-4.103,-4.431,-3.605,-5.48
-2.592,-6.258,-4.536,-2.013,-4.416,-2.511,-6.218,-5.599
0.186,-2.341,-3.36,0.689,-2.972,-0.092,-6.177,-5.292
-1.911,-0.958,-0.448,1.548,-0.126,1.102,-1.869,-4.214
-4.962,-1.48,1.423,0.218,1.319,-0.106,2.457,-3.878
-5.442,-2.596,-0.074,-2.236,-0.37,-2.705,2.683,-5.116
-4.666,-3.577,-2.757,-4.07,-2.916,-4.51,0.669,-6.406
-4.717,-2.687,-1.973,-3.147,-1.994,-3.625,1.125,-5.132
-3.402,1.549,2.313,1.215,2.36,0.265,3.676,-1.227
0.69,7.005,5.238,6.165,5.278,4.626,4.377,1.882
3.753,9.67,4.68,7.429,4.589,5.832,3.569,1.824
2.195,7.402,1.714,3.224,1.584,2.573,3.144,-0.689
-2.555,1.649,-3.013,-3.429,-2.86,-2.497,1.751,-3.811
-5.94,-2.747,-6.91,-7.084,-6.452,-5.309,-0.561,-5.635
-4.339,-2.067,-5.77,-5.929,-5.517,-4.845,-0.398,-5.205
1.211,1.488,-0.332,-2.926,-0.69,-3.133,2.525,-3.532
4.94,2.747,3.176,-1.412,2.473,-1.901,3.319,-2.635
3.444,0.837,2.09,-1.87,1.621,-0.962,0.526,-2.675
0.774,-0.421,0.667,-2.464,0.643,0.604,-0.586,-1.635
1.167,0.423,0.979,-2.179,1.173,2.143,1.467,0.536
1.913,0.606,-0.288,-1.715,-0.154,2.349,1.41,1.668
-0.678,-1.233,-3.756,-1.656,-3.905,1.46,-2.414,1.327
-3.992,-2.771,-5.2,-1.747,-5.745,0.487,-5.46,0.77
-2.648,-1.319,-1.787,-0.83,-2.409,0.511,-4.396,1.179
3.142,2.328,3.646,1.492,3.382,1.831,-1.936,2.372
7.877,4.667,6.003,3.534,5.971,3.134,-2.621,2.753
9.706,5.036,5.491,4.406,5.361,3.646,-4.699,2.249
11.282,5.94,6.063,4.459,5.948,3.227,-4.141,1.61
12.744,7.446,7.458,3.019,7.487,1.022,-3.578,-0.028
12.471,7.778,7.699,1.112,7.573,-1.611,-5.416,-2.005
9.894,7.296,8.907,1.827,8.476,-1.39,-4.85,-1.904
4.998,7.014,12.183,4.43,11.827,1.192,-0.305,-0.682
1.664,7.145,13.644,4.995,13.717,2.324,1.456,-2.027
4.29,7.609,11.287,2.86,11.731,0.596,-2.198,-6.327
8.616,7.458,7.929,0.381,8.604,-2.255,-5.756,-9.918
7.848,6.229,4.917,-1.495,5.831,-4.481,-6.992,-10.649
3.73,5.13,1.8,-2.99,2.883,-5.659,-7.951,-9.782
1.893,4.9,1.081,-2.945,1.973,-5.663,-6.707,-8.232
2.035,4.142,3.327,-0.971,3.703,-4.602,-2.686,-6.163
-0.319,1.003,3.032,-0.211,3.199,-4.027,-2.854,-5.352
-4.41,-3.409,-1.32,-2.625,-0.729,-5.022,-9.864,-6.709
-4.144,-5.611,-2.761,-4.99,-1.74,-5.963,-15.276,-7.919
1.36,-4.646,2.057,-4.424,2.936,-5.385,-12.874,-7.078
5.216,-3.064,7.114,-2.873,7.627,-4.368,-6.892,-5.116
3.554,-2.323,7.393,-2.472,7.88,-3.673,-3.086,-3.01
1.435,-0.907,5.382,-1.977,6.154,-2.299,-1.802,-0.913
3.121,1.53,3.652,-0.852,4.564,-0.627,-2.955,-0.399
5.258,3.155,1.346,-0.484,2.015,-0.136,-7.052,-2.108
5.601,4.543,0.667,0.209,1.085,0.327,-9.723,-3.168
6.866,7.241,4.373,2.58,4.916,1.972,-7.801,-2.487
9.835,9.548,9.039,4.065,9.835,2.697,-5.198,-2.452
13.317,10.6,11.251,3.447,12.137,1.988,-3.641,-2.398
17.639,12.773,12.167,3.695,13.101,2.723,-0.729,0.26
22.662,16.558,12.528,5.639,13.5,5.131,2.265,3.59
26.902,19.891,12.341,6.855,13.226,6.636,3.45,4.293
29.097,22.282,12.081,6.781,12.801,6.793,3.425,2.675
28.659,24.494,10.711,6.841,11.237,6.661,0.89,0.271
27.49,26.592,8.93,8.037,9.314,6.92,-3.362,-1.465
29.131,29.151,10.756,11.014,11.245,8.885,-3.083,-0.34
32.372,32.278,15.993,14.787,16.746,12.554,2.867,3.18
32.85,34.12,18.828,16.406,19.63,15.035,6.871,5.093
31.044,34.177,16.833,15.203,17.378,14.829,4.724,3.88
29.401,33.671,12.842,13.424,13.094,13.57,0.445,2.161
27.339,32.395,8.698,11.817,8.827,12.275,-2.486,1.331
25.347,30.369,4.735,9.631,4.84,10.56,-5.001,0.059
25.344,29.035,2.703,7.548,2.716,8.779,-6.9,-2.047
26.143,28.453,3.674,7.032,3.607,7.946,-5.807,-3.137
25.328,27.425,5.125,7.82,5.159,8.15,-2.983,-2.145
22.831,25.728,3.792,7.879,3.932,8.167,-2.484,-0.857
19.74,23.721,0.265,6.576,0.328,7.213,-4.269,-0.854
16.06,21.368,-2.298,5.952,-2.381,6.337,-5.433,-0.895
10.796,18.455,-2.82,6.787,-2.92,6.292,-5.939,-0.572
4.435,14.669,-3.074,6.53,-2.933,5.455,-7.414,-2.511
-0.116,10.265,-3.896,3.925,-3.461,3,-8.846,-6.759
-0.415,6.854,-3.215,1.541,-2.813,1.211,-7.775,-8.983
3.002,5.89,-0.475,0.966,-0.33,1.176,-5.489,-8.1
7.532,7.229,1.308,0.713,1.42,0.937,-5.237,-7.73
10.619,9.489,0.41,0.041,0.724,-0.434,-6.32,-8.957
10.259,10.136,-1.888,-0.287,-1.517,-1.98,-6.914,-9.63
6.092,7.145,-3.512,-0.069,-3.175,-2.943,-7.29,-8.799
0.482,1.77,-2.959,0.298,-2.479,-3.111,-6.876,-6.942
-4.262,-2.993,-0.911,0.264,-0.388,-3.077,-5.136,-4.698
-7.626,-5.992,0.35,-0.655,0.558,-3.655,-4.197,-3.14
-9.153,-7.654,0.091,-2.085,-0.018,-4.449,-5.722,-3.277
-8.598,-8.058,-0.467,-2.894,-0.59,-4.717,-7.67,-4.581
-6.901,-7.231,-0.741,-2.563,-0.721,-4.629,-7.148,-5.403
-5.52,-6.311,-1.388,-1.894,-1.322,-4.818,-4.149,-5.247
-6.44,-7.016,-3.809,-2.503,-3.829,-6.22,-2.99,-6.074
-11.379,-9.958,-10.342,-5.578,-10.403,-9.487,-10.445,-10.589
-18.264,-13.868,-19.336,-9.724,-19.27,-13.059,-24.338,-17.111
-21.717,-16.434,-22.413,-11.405,-22.088,-14.193,-30.1,-19.33
-19.421,-16.538,-16.12,-9.863,-15.521,-12.921,-22.388,-15.816
-14.19,-15.532,-8.759,-8.373,-8.068,-11.86,-14.493,-12.848
-10.125,-14.931,-7.209,-8.686,-6.701,-12.142,-14.62,-13.357
-8.764,-13.67,-8.139,-8.48,-7.88,-12.127,-14.965,-13.025
-8.152,-10.821,-7.435,-6.27,-7.281,-10.446,-10.668,-9.922
-7.357,-9.554,-6.846,-4.643,-6.711,-8.513,-7.281,-7.433
-8.562,-13.04,-8.119,-5.716,-7.969,-8.211,-7.774,-7.274
-11.429,-18.944,-9.743,-7.995,-9.466,-9.435,-9.519,-8.48
-12.699,-23.184,-10.572,-10.071,-10.13,-11.559,-11.258,-10.826
-12.879,-25.006,-11.229,-12.303,-10.796,-14.148,-13.426,-13.78
-15.313,-25.483,-12.465,-14.264,-12.234,-15.909,-15.578,-15.648
-18.718,-25.111,-13.841,-14.575,-13.767,-15.552,-16.262,-15.208
-18.892,-24.213,-14.4,-13.077,-14.206,-13.542,-14.685,-12.809
-17.28,-24.102,-14.646,-11.533,-14.198,-12.117,-12.334,-10.513
-18.266,-25.862,-16.17,-11.796,-15.738,-13.054,-11.636,-10.085
-19.985,-27.509,-18.86,-13.118,-18.689,-14.962,-13.057,-10.452
-18.402,-26.481,-20.238,-13.147,-20.123,-14.889,-14.147,-9.032
-15.83,-24.657,-19.014,-11.979,-18.697,-13.177,-12.98,-5.768
-15.395,-24.71,-16.696,-11.563,-16.245,-12.424,-11.018,-3.248
-13.923,-24.407,-13.953,-11.523,-13.449,-12.3,-9.639,-2.523
-9.431,-21.596,-10.872,-10.551,-10.2,-11.17,-8.774,-2.608
-7.893,-19.938,-10.619,-10.2,-9.634,-10.383,-9.776,-3.443
-13.759,-22.503,-15.056,-11.783,-13.746,-11.123,-12.992,-5.246
-21.797,-26.046,-20.299,-13.357,-18.969,-11.443,-16.208,-7.233
-25.702,-27.736,-23.138,-14.269,-22.221,-11.136,-19.285,-9.758
-26.068,-29.272,-24.242,-16.447,-23.739,-12.977,-22.665,-13.373
-24.606,-30.301,-22.204,-18.798,-21.835,-15.933,-22.071,-15.238
-19.783,-26.866,-14.824,-17.413,-14.556,-15.123,-14.256,-12.236
-12.566,-19.397,-6.788,-12.596,-6.661,-10.462,-5.354,-6.922
-8.535,-14.531,-6.343,-9.382,-6.17,-7.276,-4.841,-5.007
-10.964,-15.966,-14.057,-10.113,-13.642,-7.755,-13.05,-8.002
-16.298,-19.557,-21.059,-11.933,-20.471,-9.18,-20.54,-12.075
-18.367,-20.181,-19.417,-12.049,-18.946,-9.423,-19.185,-13.046
-16.714,-19.196,-12.412,-11.731,-12.183,-9.386,-12.186,-11.288
-16.404,-21.218,-10.079,-13.838,-9.916,-11.324,-10.024,-11.075
-17.298,-24.723,-13.404,-16.934,-13.21,-14.507,-14.371,-13.176
-14.343,-23.992,-14.246,-16.46,-14.201,-14.736,-16.377,-13.089
-9.776,-20.526,-11.569,-12.951,-11.883,-11.656,-13.45,-9.82
-10.792,-20.702,-11.59,-11.112,-12.27,-9.814,-11.506,-7.61
-16.477,-23.857,-14.216,-11.199,-15.001,-10.131,-11.345,-7.681
-19.822,-24.797,-14.414,-10.221,-14.994,-9.599,-8.986,-7.376
-20.317,-24.418,-13.182,-9.742,-13.595,-9.333,-6.328,-6.803
-22.37,-26.618,-14.962,-13.402,-15.484,-12.732,-8.254,-8.73
-24.452,-29.013,-17.859,-18.605,-18.561,-17.191,-12.45,-12.183
-22.735,-27.543,-17.453,-19.973,-18.276,-17.744,-13.136,-12.916
-19.52,-24.687,-15.022,-17.944,-15.983,-15.241,-10.38,-10.214
-18.485,-24.611,-13.811,-16.165,-14.76,-13.308,-7.389,-7.655
-19.429,-26.894,-14.858,-15.989,-15.52,-13.194,-6.343,-8.115
-20.457,-29.106,-18.338,-17.341,-18.787,-14.846,-9.611,-11.301
-20.461,-29.823,-21.469,-19.138,-22.13,-17.031,-15.373,-14.728
-20.556,-28.535,-19.962,-19.173,-21.074,-17.321,-16.964,-16.224
-22.04,-26.445,-16.12,-17.8,-17.458,-15.997,-14.819,-16.546
-23.018,-26.257,-16.142,-18.464,-17.361,-16.3,-16.569,-17.902
-21.325,-28.152,-18.512,-21.409,-19.508,-18.372,-21.028,-19.049
-18.679,-29.042,-16.94,-22.78,-17.759,-19.057,-19.658,-16.962
-17.867,-27.856,-12.808,-21.845,-13.55,-18.179,-13.944,-13.518
-17.537,-25.776,-11.455,-20.36,-12.269,-16.974,-11.983,-12.284
-14.313,-21.897,-11.198,-16.723,-11.989,-13.622,-12.552,-11.572
-8.818,-15.426,-8.366,-10.117,-8.725,-7.846,-10.506,-9.238
-3.6,-8.878,-4.404,-4.199,-4.227,-2.985,-7.453,-7.045
1.431,-4.651,-0.568,-1.039,-0.465,-0.044,-4.972,-5.449
6.264,-2.449,3.744,0.838,3.203,2.423,-1.172,-3.029
7.862,-2.191,5.737,0.962,4.799,3.08,1.582,-1.399
3.676,-5.113,1.806,-3.098,0.983,-0.38,-1.572,-3.219
-2.621,-9.305,-5.213,-9.567,-5.812,-5.728,-8.156,-6.672
-3.98,-9.828,-8.64,-13.147,-9.091,-8.541,-10.634,-7.896
0.422,-5.357,-6.644,-12.003,-7.119,-7.928,-7.976,-7.152
5.403,0.781,-2.742,-8.456,-3.489,-5.702,-5.244,-7.181
7.025,4.632,-0.358,-4.796,-1.294,-3.386,-4.545,-8.087
4.016,3.805,-1.351,-2.215,-2.235,-1.839,-5.583,-8.198
-2.631,-1.148,-5.933,-1.592,-6.821,-1.387,-8.661,-7.488
-9.292,-7.184,-10.978,-2.9,-12.021,-2.068,-11.589,-7.302
-12.741,-11.239,-12.381,-4.417,-13.551,-3.193,-11.097,-7.598
-11.814,-10.832,-9.095,-3.731,-10.266,-2.616,-6.681,-6.294
-6.852,-5.754,-3.597,-0.902,-4.677,0.259,-0.334,-3.006
-2.444,-1.427,-1.37,-0.371,-2.256,1.169,2.854,-1.829
-4.363,-3.228,-6.077,-5.442,-6.675,-3.402,-1.592,-5.955
-10.345,-8.224,-13.194,-12.351,-13.743,-9.837,-9.994,-12.058
-13.459,-10.965,-14.748,-15.488,-15.656,-12.974,-13.634,-14.85
-12.796,-11.529,-9.842,-14.521,-11.067,-12.63,-10.07,-13.637
-12.75,-12.586,-6.33,-13.157,-7.479,-11.808,-7.27,-12.459
-15.04,-14.895,-10.344,-14.247,-11.203,-13.135,-12.3,-15.049
-16.719,-17.263,-17.537,-16.759,-18.19,-16.383,-19.871,-19.739
-16.219,-18.74,-21.064,-18.19,-21.767,-19.261,-22.07,-22.694
-16.309,-19.596,-21.053,-18.104,-22.004,-20.174,-19.856,-23.455
-18.478,-19.769,-20.295,-17.078,-21.375,-18.741,-16.853,-23.061
-20.053,-18.527,-19.655,-15.793,-20.536,-16.291,-14.685,-22.029
-19.57,-16.269,-19.164,-15.285,-19.814,-15.083,-14.671,-20.92
-19.296,-14.63,-18.634,-15.804,-19.297,-15.396,-15.919,-19.821
-19.503,-14.141,-17.977,-16.569,-18.572,-15.614,-16.202,-18.937
-17.912,-14.456,-17.719,-17.324,-18.067,-15.492,-15.999,-19.316
-16.3,-16.463,-18.592,-19.015,-19.045,-16.985,-17.491,-21.666
-17.355,-19.76,-20.014,-21.36,-20.988,-20.119,-20.131,-24.766
-18.204,-21.318,-20.843,-22.187,-22.094,-21.727,-21.396,-26.493
-16.602,-20.546,-22.159,-21.512,-23.118,-21.001,-22.018,-27.003
-15.81,-19.695,-24.694,-21.259,-25.146,-20.241,-23.929,-27.426
-17.487,-18.706,-25.714,-20.833,-25.798,-19.486,-24.635,-26.608
-18.231,-16.205,-23.364,-18.997,-23.287,-17.491,-21.152,-23.724
-15.445,-12.802,-19.9,-16.868,-19.857,-15.213,-16.179,-20.73
-10.839,-9.711,-18.071,-15.478,-18.179,-13.899,-14.471,-19.385
-7.594,-7.55,-17.368,-14.351,-17.619,-13.407,-15.269,-18.48
-7.297,-6.338,-15.389,-12.556,-15.64,-12.63,-13.335,-15.307
-9.61,-5.386,-12.152,-9.967,-12.181,-10.681,-7.293,-10.239
-11.812,-4.573,-10.068,-8.182,-9.83,-8.866,-1.364,-7.367
-10.829,-4.841,-10.319,-8.901,-10.046,-9.367,0.13,-8.949
-8.461,-7.129,-13.032,-12.073,-13.055,-12.155,-4.723,-13.081
-8.424,-10.328,-16.784,-15.363,-17.302,-14.548,-12.398,-16.043
-8.675,-10.324,-16.673,-14.694,-17.507,-13.09,-13.72,-14.494
-5.535,-5.23,-10.936,-9.099,-11.596,-7.707,-7.098,-8.994
-1.472,0.307,-5.717,-3.445,-5.892,-2.928,-2.477,-4.345
0.299,2.1,-5.034,-1.162,-4.936,-1.377,-3.728,-2.891
2.055,3.053,-4.155,0.875,-4.253,0.163,-3.344,-1.461
4.786,6.576,0.146,5.128,-0.333,4.164,1.632,1.88
4.552,9.722,1.871,7.669,1.155,7.076,2.943,2.937
0.368,8.992,-2.936,5.343,-3.759,5.554,-3.75,-0.98
-1.658,7.856,-5.208,3.102,-6.092,3.536,-7.018,-3.516
3.724,11.22,2.836,6.33,1.965,6.081,1.99,0.531
11.378,15.325,11.668,10.613,10.863,9.842,11.235,4.653
12.388,13.265,10.422,9.54,9.733,8.968,8.876,2.387
7.279,7.139,4.053,5.851,3.606,5.211,2.127,-1.93
2.668,3.84,0.289,4.875,0.184,3.211,-1.398,-3.292
1.766,4.561,-1.123,5.986,-0.939,3.2,-4.302,-3.047
4.391,6.266,-1.117,6.563,-0.941,3.491,-6.764,-2.845
8.702,7.853,0.602,6.465,0.361,3.561,-5.965,-2.428
11.694,10.021,2.817,6.649,1.995,3.64,-3.151,-1.778
12.943,12.49,4.686,7.514,3.518,4.412,-0.78,-0.951
14.096,13.858,5.188,7.919,4.116,5.495,-0.331,-0.71
13.855,13.033,2.795,6.124,2.117,4.882,-2.549,-2.077
11.661,11.422,-0.26,3.606,-0.665,2.928,-4.786,-3.452
11.326,11.732,-0.314,3.422,-0.84,2.255,-4.455,-3.084
13.188,13.288,0.587,4.015,-0.249,1.887,-4.627,-3.339
12.509,13.458,-0.897,2.139,-1.821,-0.668,-7.544,-6.116
8.348,12.228,-2.408,-0.775,-3.032,-3.45,-9.53,-8.804
4.222,10.531,-2.16,-2.644,-2.312,-4.228,-9.933,-10.047
1.918,8.011,-2.848,-4.793,-2.855,-4.697,-12.362,-11.563
1.007,5.019,-4.298,-7.299,-4.722,-5.743,-14.17,-12.567
1.618,3.536,-3.2,-7.503,-4.125,-5.44,-10.117,-10.761
3.501,4.4,-0.598,-5.084,-1.536,-3.286,-3.945,-7.4
3.793,5.041,-1.098,-3.709,-1.723,-2.113,-3.668,-6.425
0.411,3.667,-5.337,-5.647,-5.916,-4.04,-9.2,-9.292
-3.747,3.265,-9.096,-8.131,-9.885,-6.751,-13.176,-12.787
-5.348,5.76,-10.251,-8.441,-10.935,-7.311,-12.738,-13.857
-5.042,7.718,-11.344,-8.183,-11.582,-6.615,-13.08,-13.481
-3.841,6.621,-13.494,-9.244,-13.529,-6.643,-16.744,-13.12
-1.466,5.209,-13.31,-10.066,-13.512,-6.704,-17.707,-12
1.728,6.673,-8.622,-8.11,-8.976,-4.761,-11.767,-9.519
5.433,9.499,-2.495,-4.074,-2.911,-1.157,-4.071,-6.561
9.11,10.162,0.421,-1.501,-0.084,1.003,-1.455,-4.432
9.911,8.586,-0.903,-1.424,-1.358,0.402,-3.993,-3.589
5.74,7.159,-2.325,-0.823,-2.507,-0.202,-5.557,-2.397
0.928,6.733,0.64,1.842,0.728,1.362,-1.844,0.527
2.195,6.412,6.162,3.918,6.293,3.108,2.918,2.805
8.773,5.757,9.042,3.368,8.955,2.637,3.177,2.288
13.554,5.598,8.805,2.058,8.498,1.012,1.618,1.213
13.192,6.49,8.236,2.041,8.066,0.292,2.29,1.281
11.475,7.874,7.811,2.409,8.013,0.314,2.724,0.753
12.272,8.999,6.9,1.716,7.19,-0.222,0.18,-1.366
13.917,9.032,5.641,0.434,5.697,-1.712,-3.432,-3.775
13.527,7.63,4.673,0.065,4.704,-2.918,-4.433,-4.327
11.92,5.76,5.129,1.067,5.45,-2.344,-0.947,-2.042
10.843,4.127,5.755,1.925,6.252,-1.029,3.065,0.252
9.43,2.73,3.615,1.566,3.967,-0.956,1.624,-0.699
6.999,2.633,0.851,2.106,0.884,-0.786,-2.043,-2.323
6.385,4.839,2.431,5.374,2.278,1.835,0.522,0.026
8.607,7.826,6.328,8.365,6.277,5.112,7.094,4.768
8.778,8.764,5.733,7.584,5.872,5.626,7.752,6.811
4.046,6.498,0.225,4.615,0.576,3.642,2.463,5.752
-1.195,2.915,-4.234,2.857,-3.548,1.818,-0.533,4.448
-1.978,1.634,-4.559,3.346,-3.775,1.91,-0.212,3.699
0.749,3.568,-2.525,5.563,-2.095,4.209,-0.682,3.513
2.047,5.243,-0.263,8.156,-0.015,7.139,-0.709,4.554
-0.206,4.448,1.737,9.726,2.242,8.779,2.499,6.608
-2.212,3.977,4.5,11.073,5.113,10.03,7.776,9.233
0.667,6.887,8.831,14.078,9.279,12.929,13.231,12.328
7.215,11.354,12.417,17.523,12.882,16.109,17.31,14.582
11.051,13.168,12.095,17.907,12.774,16.214,18.094,14.302
8.322,12.083,9.279,15.313,10.032,13.631,16.121,12.161
3.041,11.617,7.995,13.374,8.609,11.908,14.196,10.549
1.341,12.326,8.298,12.912,8.72,11.733,13.012,10.32
2.334,10.78,6.574,11.272,6.898,10.484,9.997,9.955
1.733,6.445,2.266,8.061,2.762,7.466,4.651,8.417
0.665,3.485,-1.22,6.063,-0.249,5.089,0.45,7.024
2.705,4.319,-2.579,6.499,-1.254,5.008,-1.294,6.836
7.361,7.453,-2.057,8.437,-0.821,6.872,-0.268,7.738
11.561,11.157,0.821,10.944,1.765,9.434,4.725,9.597
13.205,14.004,3.174,12.411,3.845,10.698,9.029,10.812
11.986,14.05,1.797,11.404,2.209,9.487,7.678,9.903
9.143,10.739,-0.478,8.689,-0.235,6.845,5.341,8.621
7.054,6.474,0.396,6.534,0.647,4.957,8.096,9.266
7.535,4.787,3.089,6.494,3.512,5.116,12.722,10.584
9.468,6.658,3.57,7.523,4.123,6.147,11.634,9.016
10.684,10.152,1.763,7.944,2.2,6.523,5.557,5.001
10.933,12.695,0.953,7.772,1.244,6.528,2.301,3.173
10.919,12.835,2.118,7.145,2.536,6.377,3.806,4.497
11.755,11.967,4.759,6.776,5.449,6.463,6.768,6.067
14.113,12.057,8.633,7.914,9.442,7.841,10.052,6.738
15.609,11.57,11.348,9.137,12.143,9.431,12.886,7.012
12.33,8.435,9.66,8.09,10.47,8.937,12.362,6.627
4.7,4.767,4.2,5.716,4.893,6.786,7.084,4.866
-0.819,3.952,1.194,4.853,1.435,5.677,3.15,3.601
0.307,5.512,4.754,6.149,4.562,6.57,6.958,5.949
4.454,7.117,8.964,7.882,8.828,8.043,12.061,9.968
6.518,8.263,7.345,8.85,7.532,9.114,10.191,11.043
5.759,8.349,3.712,8.855,3.953,9.481,6.413,9.336
2.938,6.365,3.734,7.833,3.817,8.751,7.401,8.077
0.218,3.893,6.207,6.668,6.334,7.626,10.338,8.512
0.709,3.619,8.276,6.673,8.599,7.451,11.72,9.777
3.53,6.097,9.786,8.054,10.115,8.646,12.828,10.552
5.489,9.915,11.215,10.306,11.399,10.708,14.474,10.522
6.825,13.313,12.671,12.683,12.781,12.583,15.247,10.673
9.866,15.619,14.912,14.49,14.93,13.784,15.735,12.069
13.547,16.555,17.633,15.24,17.514,14.377,17.763,14.185
13.878,15.459,17.841,14.432,17.886,13.627,19.16,14.888
11.043,13.606,15.29,13.147,15.918,12.137,18.325,14.187
9.521,13.379,13.972,13.656,15.301,12.505,19.134,14.55
9.699,14.074,13.689,15.409,15.406,14.581,22.026,15.531
8.677,13.671,10.247,15.295,11.647,15.043,20.744,13.981
6.829,12.606,4.581,12.134,5.176,12.343,13.762,9.496
4.815,11.33,0.838,7.222,0.964,7.507,7.322,4.577
1.419,8.504,-1.26,2.022,-1.061,2.221,5.003,1.202
-2.95,3.776,-4.186,-2.248,-3.878,-1.335,3.825,-0.096
-7.361,-1.85,-7.699,-4.928,-7.306,-2.198,1.23,-0.115
-11.066,-7.293,-9.658,-6.019,-8.949,-1.736,-0.336,-0.041
-12.87,-11.074,-9.399,-5.753,-8.474,-1.358,1.527,-0.006
-13.617,-11.989,-8.572,-4.798,-7.974,-1.182,4.192,0.232
-14.669,-10.515,-7.166,-3.206,-7.17,-0.555,5.86,0.978
-15.596,-9.373,-3.992,-1.241,-4.197,0.256,8.952,2.834
-16.804,-11.506,-2.151,-1.472,-1.971,-0.813,12.093,4.596
-18.941,-15.924,-4.518,-4.727,-4.133,-3.82,10.226,3.871
-20.465,-18.481,-7.411,-7.34,-7.631,-5.433,4.684,1.407
-20.607,-17.401,-7.41,-7.099,-8.319,-4.537,1.442,0.244
-20.532,-14.031,-5.796,-5.6,-6.594,-3.07,2.898,1.654
-20.465,-10.186,-3.19,-3.973,-3.64,-1.482,7.901,4.753
-20.422,-8.605,-0.661,-2.905,-1.349,-0.148,12.048,7.068
-21.352,-11.684,-2.256,-4.092,-3.365,-1.469,9.424,6.161
-22.321,-16.5,-6.921,-6.514,-8.048,-4.851,2.315,3.678
-20.514,-16.88,-7.246,-6.183,-8.283,-5.401,0.351,4.068
-16.077,-11.93,-2.178,-2.806,-3.344,-1.769,4.669,7.313
-12.355,-5.917,1.354,-0.201,0.13,1.837,6.92,9.144
-11.186,-1.66,0.153,0.235,-0.861,2.857,3.982,8.321
-11.706,0.983,-2.148,0.611,-2.92,3.03,0.991,7.34
-11.844,3.302,-0.826,2.644,-1.525,4.572,3.588,8.342
-9.76,5.485,4.379,5.107,3.548,6.869,11.054,10.984
-6.528,5.807,8.152,5.087,7.047,7.152,15.366,12.361
-6.106,3.381,6.09,2.029,4.836,4.543,10.968,10.383
-9.157,0.126,0.736,-1.168,-0.308,1.566,2.959,7.14
-11.203,-1.171,-1.884,-1.462,-2.624,1.006,-0.008,6.023
-9.907,0.22,-0.118,1.206,-0.832,2.979,2.542,6.797
-7.499,2.689,2.175,3.941,1.463,5.195,4.136,6.79
-6.594,3.865,1.733,3.869,1.403,5.326,2.847,5.643
-8.931,2.097,0.039,1.156,0.167,3.339,4.028,5.469
-14.131,-2.125,0.225,-1.746,0.257,1.039,9.557,6.645
-19.267,-6.538,0.731,-3.534,0.268,-0.583,11.841,6.578
-22.824,-9.41,-2.52,-4.784,-3.06,-1.578,5.277,4.117
-24.764,-10.682,-7.527,-6.081,-7.681,-2.06,-3.353,1.543
-23.941,-10.994,-9.552,-7.524,-9.67,-2.939,-6.275,-0.061
-20.315,-10.125,-9.168,-8.428,-9.686,-4.623,-5.86,-1.84
-15.215,-7.609,-7.881,-7.211,-8.571,-5.241,-5.313,-2.6
-10.197,-5.095,-4.711,-4.193,-5.32,-3.68,-2.687,-0.377
-8.696,-4.469,-0.306,-1.551,-0.973,-1.029,2.601,3.585
-11.591,-4.421,3.442,0.575,2.647,2.153,7.417,7.209
-13.608,-4.155,5.225,2.328,4.353,4.486,7.417,8.811
-11.095,-5.043,5.223,2.529,4.126,3.93,2.982,7.526
-5.628,-4.532,6.722,3.241,5.378,3.24,2.034,6.553
1.773,1.82,11.82,7.784,10.617,6.997,8.762,9.5
9.929,11.263,16.858,13.494,15.991,12.925,16.323,13.756
13.858,16.18,17.105,14.4,16.294,14.53,17.402,14.154
11.265,14.859,13.791,10.73,12.867,11.32,13.83,11.187
7.698,12.463,12.614,8.896,11.657,8.958,12.023,9.957
9.121,11.935,15.476,11.491,14.48,10.019,13.658,12.088
14.692,11.749,18.855,14.865,17.869,12.242,15.607,14.582
19.16,11.533,20.108,16.599,19.311,14.382,16.397,15.516
19.001,12.414,19.627,17.528,19.033,16.519,17.142,15.48
15.234,14.049,19.031,17.997,18.529,17.542,18.942,15.447
10.962,15.271,19.282,17.367,18.771,16.755,21.149,15.491
7.741,14.836,18.439,15.103,17.772,14.504,20.242,14.258
5.142,11.987,15.026,11.426,14.134,11.306,14.7,11.516
3.278,8.579,12.572,8.549,11.488,9.12,9.801,10.301
3.449,7.371,13.484,8.577,12.186,9.651,9.611,12.082
5.493,7.884,14.272,9.901,12.82,10.789,10.664,13.399
7.826,8.258,13.207,9.946,11.769,9.896,10.693,12.079
9.49,8.632,12.816,9.058,11.445,7.976,11.854,10.621
9.7,8.956,12.407,7.717,11.252,6.125,12.573,9.83
8,7.593,8.819,4.598,8.092,2.982,8.952,6.886
5.449,4.653,3.507,0.393,2.937,-1.017,2.558,1.83
3.684,3.03,1.122,-1.534,0.364,-2.592,-1.344,-1.217
4.446,4.86,4.339,0.512,3.656,-0.317,1.308,0.697
7.973,8.881,11.668,4.734,11.33,3.817,9.899,6.052
10.319,11.395,16.674,7.361,16.336,6.373,16.093,9.275
8.487,10.274,14.277,6.014,13.568,5.038,12.683,6.664
5.507,7.473,8.115,2.479,7.189,1.118,4.497,1.6
4.388,5.606,4.188,-0.178,3.329,-2.457,-0.52,-1.389
3.697,4.283,2.276,-2.003,1.51,-5.141,-2.79,-3.403
2.513,2.607,0.747,-4.051,-0.007,-7.072,-4.504,-6.077
2.647,2.161,1.881,-4.585,1.064,-6.48,-3.198,-6.508
4.55,4.483,6.422,-1.769,5.409,-2.908,1.637,-3.048
6.622,8.179,10.285,2.525,9.029,1.006,5.522,0.675
8.466,11.068,10.932,5.42,9.66,3.518,6.342,1.898
11.054,12.888,10.978,6.591,10.065,5.092,7.73,2.445
13.299,13.77,12.682,6.409,12.321,5.194,12.394,3.804
11.929,13.045,13.483,4.526,13.487,2.812,15.934,4.149
8.104,11.773,10.482,2.584,10.457,0.079,12.041,2.224
7.131,11.89,5.862,3.31,5.593,0.255,3.314,0.501
8.3,11.69,3.261,5.311,2.88,2.373,-1.219,1.771
7.023,8.574,2.975,5.048,2.682,3.071,1.258,4.89
5.265,5.281,3.839,3.647,3.662,2.557,5.858,7.127
6.704,6.226,5.215,4.786,5.199,3.702,8.777,8.194
8.38,9.756,6.678,7.732,6.892,6.438,10.677,9.031
6.848,10.866,8.057,9.139,8.265,7.966,12.572,9.765
4.207,9.367,9.417,9.528,9.212,8.232,13.444,10.867
3.315,8.713,10.811,11.543,10.22,9.757,13.151,13.024
4.556,9.804,12.49,14.613,12.091,12.786,14.326,15.793
7.161,11.023,14.584,16.657,14.696,15.405,18.131,18.273
8.523,11.019,15.837,17.405,15.99,16.427,20.905,19.414
6.501,9.808,14.997,17.503,14.804,16.276,19.615,18.371
3.781,8.788,13.196,16.958,13.071,16.025,16.172,15.6
3.494,8.557,11.417,14.837,11.701,15.093,12.297,11.881
4.353,7.795,9.125,10.81,9.418,11.9,7.705,7.852
5.617,6.819,8.151,7.519,8.044,8.167,5.162,5.504
8.523,7.858,10.524,7.713,10.163,7.425,7.186,5.839
11.119,9.442,13.14,9.044,12.746,8.421,10.043,5.881
10.677,8.311,13.121,8.334,12.572,7.864,10.567,3.769
8.692,6.327,12.893,8.186,12.066,7.651,11.23,2.815
8.329,7.27,13.92,11.639,13.075,10.646,12.501,5.057
10.192,9.897,13.47,15.356,12.987,13.968,11.092,7.269
12.302,10.133,10.618,14.408,10.417,13.164,7.818,6.652
13.33,7.684,7.86,9.315,7.457,8.574,5.862,3.902
14.158,5.872,5.697,4.302,4.917,3.829,3.303,0.253
14.764,6.024,3.153,1.931,2.411,1.232,-1.23,-3.128
13.341,6.223,1.933,1.895,1.653,0.553,-3.193,-4.628
10.755,5.109,3.113,2.913,3.212,0.844,-1.24,-4.083
9.463,3.579,4.371,4.11,4.44,1.885,-0.04,-2.727
8.062,2.675,3.767,4.588,3.545,2.915,-1.646,-1.747
5.36,2.348,2.163,3.23,1.673,1.92,-3.696,-2.206
5.221,2.665,1.8,0.359,1.191,-1.515,-4.233,-4.141
9.274,3.871,3.934,-2.079,3.283,-4.852,-2.883,-5.948
12.555,5.237,7.277,-2.93,6.596,-5.813,0.598,-5.872
11.604,5.585,9.208,-2.748,8.534,-4.758,5.148,-3.621
8.63,4.59,8.754,-2.315,8.06,-3.286,7.639,-1.096
6.854,3.192,7.386,-1.775,6.572,-2.152,6.42,-0.76
7.665,2.86,7.474,-0.736,6.603,-0.867,4.131,-2.117
9.434,3.583,9.866,1.042,9.188,0.658,4.681,-2.337
8.983,4.053,12.309,2.59,11.987,1.218,7.986,-0.764
7.226,4.483,12.409,3.137,12.388,1.075,10.707,1.216
7.345,5.395,11.07,3.823,11.193,2.37,11.546,3.35
7.666,4.607,9.93,4.787,10.015,4.381,11.421,5.07
4.948,0.381,8.375,3.36,8.243,3.318,9.582,3.8
1.833,-4.758,5.63,-1.393,5.365,-1.593,4.735,-1.656
3.061,-6.509,3.303,-5.58,3.275,-6.111,-0.251,-8.008
7.467,-3.512,3.701,-4.925,4.066,-6.088,-0.263,-10.254
9.338,0.53,5.586,-0.891,6.091,-2.55,3.669,-7.794
5.871,0.396,5.258,1.108,5.652,0.12,4.869,-4.885
0.923,-4.053,3.372,-0.399,3.642,0.15,2.281,-3.869
0.268,-8.133,4.093,-2.04,4.269,-0.688,1.413,-2.938
3.693,-9.019,6.673,-2.249,6.675,-1.242,2.673,-1.544
6.23,-7.555,6.775,-2.089,6.582,-1.741,1.416,-1.377
6.811,-4.835,5.039,-0.989,4.899,-1.273,-1.209,-1.785
8.683,-1.462,5.355,1.948,5.639,1.101,-0.464,-0.497
11.75,1.283,7.88,4.995,8.692,3.923,2.969,2.315
12.658,1.974,9.772,5.858,10.888,4.843,5.198,4.407
11.357,0.707,9.079,4.385,10.234,3.283,4.409,4.031
11.273,0.232,6.64,2.809,7.616,1.332,1.477,1.661
14.241,2.872,5.631,3.479,6.184,1.7,-0.297,-0.18
17.821,6.268,6.843,5.414,6.904,3.862,0.943,-0.183
18.968,7.341,7.284,6.019,7.217,5.3,2.415,0.649
18.325,7.367,5.986,5.562,6.267,5.705,1.806,1.739
16.544,7.16,4.37,4.881,4.994,5.042,-0.228,2.121
12.555,4.514,2.172,2.906,2.715,1.95,-3.202,-0.37
7.761,0.219,0.111,0.789,0.377,-1.772,-5.21,-4.257
4.727,-1.756,0.964,1.772,1.071,-1.971,-3.314,-4.82
4.762,-0.53,4.28,5.067,4.287,0.838,1.176,-1.581
7.552,1.28,6.021,6.137,6.087,2.012,3.916,1.177
9.815,2.186,4.199,3.369,4.673,0.267,3.138,0.995
9.149,2.682,1.574,-0.296,2.377,-1.653,1.2,-0.534
7.053,2.33,0.43,-2.732,1.034,-2.976,-0.347,-1.895
4.827,-0.005,-1.745,-4.725,-1.439,-4.9,-3.63,-3.5
2.296,-3.182,-5.532,-5.842,-5.047,-5.725,-7.051,-4.23
-0.29,-5.217,-6.588,-4.641,-5.669,-3.475,-5.091,-2.255
-3.069,-6.69,-4.578,-3.003,-3.414,-0.901,0.233,0.47
-5.85,-8.811,-4.43,-3.487,-3.166,-1.119,0.83,0.798
-6.692,-10.467,-7.35,-4.643,-6.022,-2.496,-4.333,-0.774
-4.787,-9.539,-8.651,-3.58,-7.486,-1.926,-7.233,-1.278
-2.238,-5.676,-5.611,-0.727,-4.929,0.524,-3.949,0.446
-0.5,-1.175,-2.655,0.468,-2.492,1.96,-1.913,1.7
0.843,1.094,-4.556,-1.829,-4.497,0.599,-6.664,-0.449
0.215,-0.312,-9.415,-5.944,-8.956,-2.605,-12.409,-4.74
-4.711,-4.95,-13.121,-9.164,-12.082,-5.7,-13.474,-7.606
-10.858,-9.714,-14.251,-9.059,-12.622,-6.361,-11.422,-7.118
-13.259,-11.557,-12.839,-5.371,-10.741,-3.84,-8.267,-4.106
-13.376,-11.898,-10.207,-2.16,-8.053,-1.251,-4.788,-1.497
-14.611,-13.349,-8.137,-2.761,-6.236,-1.223,-2.764,-1.045
-14.955,-14.949,-6.605,-5.08,-4.914,-2.393,-2.732,-1.411
-11.986,-15.474,-5.425,-6.465,-3.931,-3.376,-3.486,-1.455
-9.44,-16.702,-5.664,-7.914,-4.506,-5.172,-4.059,-2.116
-12.501,-19.865,-7.585,-10.581,-6.797,-8.223,-4.569,-3.99
-17.76,-21.901,-9.349,-12.255,-8.825,-10.231,-5.261,-5.588
-16.52,-19.385,-9.028,-10.712,-8.613,-9.241,-5.519,-5.44
-9.207,-14.502,-7.891,-8.117,-7.359,-7.246,-5.967,-4.85
-4.423,-11.718,-8.618,-7.499,-7.735,-6.855,-8.146,-5.609
-4.555,-10.865,-8.827,-7.33,-7.591,-6.643,-8.723,-6.039
-4.472,-8.655,-3.55,-4.447,-2.258,-4.162,-2.442,-3.485
-2.651,-5.313,3.908,-0.325,5.065,-1.117,5.958,0.124
-2.35,-4.824,5.122,0.601,6.266,-1.053,6.435,0.534
-3.439,-8.052,0.264,-2.329,1.405,-3.907,0.152,-2.08
-2.44,-10.606,-3.181,-5.317,-2.217,-6.15,-3.503,-3.854
1.066,-8.971,-1.581,-5.033,-0.766,-4.999,-1.143,-2.54
3.527,-5.06,2.606,-2.158,3.318,-1.546,3.406,0.7
2.476,-3.311,5.312,-0.308,5.814,0.538,5.662,2.801
-0.798,-5.325,4.315,-1.65,4.736,-0.434,4.07,1.93
-4.676,-9.378,0.249,-5.044,0.822,-2.872,0.022,-0.764
-8.781,-13.449,-4.44,-8.34,-3.845,-4.925,-4.069,-2.986
-11.865,-16.21,-7.114,-10.028,-6.728,-5.998,-6.107,-3.468
-12.462,-16.629,-7.137,-9.699,-6.826,-5.962,-5.926,-2.763
-10.062,-14.3,-6.44,-8.57,-5.892,-5.238,-6.022,-2.55
-5.107,-10.068,-6.235,-7.904,-5.414,-4.778,-7.604,-3.185
-0.407,-6.556,-5.958,-7.666,-5.072,-5.12,-8.473,-3.432
0.364,-6.871,-5.716,-7.928,-4.785,-6.072,-7.114,-2.672
-3.579,-11.078,-5.796,-8.724,-4.683,-6.805,-4.322,-1.181
-9.461,-14.715,-5.174,-8.261,-4.022,-6.159,-0.47,0.961
-12.528,-13.458,-3.961,-5.036,-3.076,-4.138,2.863,3.504
-11.39,-9.524,-4.814,-1.558,-4.228,-2.924,1.237,4.761
-10.337,-8.357,-7.599,-0.923,-7.112,-3.727,-4.703,3.68
-10.869,-9.555,-7.072,-1.039,-6.566,-3.715,-7,2.91
-8.907,-8.962,-1.472,1.033,-1.014,-0.919,-3.058,4.84
-4.437,-7.082,2.883,2.531,3.199,1.009,0.157,6.642
-2.238,-6.929,0.802,-0.019,1.038,-1.173,-2.664,4.495
-2.397,-7.07,-4.009,-3.781,-3.674,-4.272,-8.449,0.028
-1.487,-4.465,-4.952,-4.011,-4.401,-4.339,-10.94,-2.143
-0.081,-1.13,-1.575,-1.361,-0.787,-2.747,-8.288,-1.011
-0.33,-1.131,1.87,0.804,2.965,-1.577,-3.691,1.242
-2.094,-4.075,2.996,1.719,4.382,0.175,-0.381,3.523
-4.535,-6.485,2.83,1.912,4.155,2.425,1.571,5.97
-5.201,-6.043,3.259,1.926,4.199,3.386,3.621,8.435
-1.384,-2.335,4.421,3.252,5.145,3.859,5.048,10.325
4.868,3.667,5.025,6.63,5.961,6.363,3.734,11.026
9.129,9.667,4.838,10.308,6.214,10.234,0.841,10.625
9.369,12.597,3.779,11.136,5.519,11.138,-1.241,9.355
6.518,11.952,1.187,8.512,2.944,7.594,-3.538,7.268
4.307,11.16,-1.12,6.141,0.295,4.102,-6.052,5.589
5.063,11.544,-0.272,6.164,0.87,3.446,-4.907,5.734
6.621,10.679,3.424,6.647,4.613,3.668,1.078,7.605
7.657,8.633,6.716,6.61,7.995,4.227,6.687,9.942
9.164,7.35,6.428,6.235,7.643,5.492,6.456,10.844
10.023,6.652,3.986,5.631,5.068,6.187,3.004,10.188
8.423,6.083,4.003,6.254,5.02,6.359,2.468,9.967
5.539,5.423,6.521,8.171,7.532,6.845,4.062,10.519
4.292,3.75,8.419,9.364,9.346,7.08,5.383,11.203
4.988,0.935,9.182,9.224,10.001,6.45,7.789,12.233
3.975,-2.812,8.944,8.06,9.698,5.068,9.37,12.722
0.217,-6.978,8.268,6.456,8.898,3.856,8.09,12.194
-1.464,-9.091,9.114,6.038,9.642,4.022,7.658,12.435
0.523,-8.037,10.07,6.28,10.554,4.457,8.742,12.956
0.899,-7.195,7.094,4.079,7.459,2.58,6.159,10.147
-2.63,-8.968,1.506,0.033,1.804,-0.486,0.292,4.981
-5.857,-10.962,-1.014,-1.736,-0.592,-1.365,-1.472,3.068
-6.527,-11.231,0.136,-1.4,0.659,-1.167,2.333,4.581
-7.479,-10.674,0.692,-2.104,1.052,-2.685,4.824,4.565
-10.65,-10.192,-0.634,-3.43,-0.573,-4.308,2.375,2.321
-13.706,-10.452,-1.816,-3.755,-1.869,-3.986,-0.984,1.089
-13.532,-11.632,-1.988,-3.745,-2.015,-3.155,-1.419,1.663
-10.405,-12.363,-2.221,-4.163,-2.345,-3.244,-1.119,2.262
-5.843,-10.647,-2.39,-3.896,-2.528,-3.112,-2.427,2.569
-0.539,-5.936,-0.561,-1.407,-0.374,-1.109,-2.427,4.062
2.203,-1.135,1.811,1.772,2.274,1.662,-0.064,6.067
-0.109,0.364,0.786,2.277,1.082,2.564,0.617,5.997
-3.474,-0.638,-2.606,0.401,-2.55,1.733,-1.339,3.95
-4.136,-2.175,-4.414,-1.136,-4.094,0.991,-2.552,2.178
-3.057,-3.934,-4.009,-1.697,-3.029,0.61,-1.448,1.773
-1.674,-4.993,-3.203,-2.242,-1.852,-0.017,0.529,2.431
-1.107,-4.575,-3.145,-3.482,-2.192,-1.333,1.711,3.045
-0.847,-2.611,-2.965,-4.594,-2.889,-2.723,2.186,2.845
1.845,1.509,-1.254,-3.361,-1.827,-1.932,3.25,2.687
6.936,7.048,1.367,0.87,0.635,2.178,4.926,3.924
10.77,11.152,2.752,5.491,2.172,6.805,4.63,5.725
10.511,11.778,2.593,7.456,2.384,8.23,1.802,5.821
7.404,9.867,3.368,7.177,3.52,7.151,0.937,4.587
5.526,7.855,5.272,6.786,5.36,6.396,3.073,4.028
6.122,6.636,4.226,5.811,3.978,5.391,2.308,3.471
6.589,5.245,-1.229,2.689,-1.48,2.462,-3.261,1.206
6.173,3.475,-6.607,-1.338,-6.579,-0.812,-8.255,-1.805
6.008,3.071,-7.742,-3.235,-7.662,-1.692,-9.072,-3.151
4.416,4.848,-5.414,-2.035,-5.438,-0.049,-6.591,-2.13
0.908,7.297,-2.534,0.802,-2.498,2.462,-2.864,-0.033
0.389,9.884,-0.378,4.32,-0.211,5.228,-0.42,2.109
5.021,13.102,1.1,8.043,1.353,7.96,-0.463,4.269
9.884,15.353,1.837,10.426,2.211,9.42,-0.83,6.015
10.713,14.406,1.907,10.15,2.31,8.903,0.24,6.07
7.268,10.109,0.895,6.879,1.084,6.409,0.471,3.457
1.443,4.556,-0.981,1.872,-0.991,2.737,-0.692,-0.079
-3.194,0.466,-1.813,-2.054,-1.645,-0.253,-0.061,-1.57
-5.372,-1.955,-2.496,-4.234,-1.838,-2.374,0.779,-2.378
-6.766,-3.611,-5.129,-5.543,-4.138,-4.136,-1.575,-4.995
-6.049,-2.805,-6.706,-4.909,-5.849,-4.063,-3.99,-7.025
-0.735,1.655,-4.083,-2.04,-3.578,-2.023,-3.142,-5.82
5.985,6.896,-0.276,1.031,0.116,-0.155,-1.128,-2.897
8.24,8.986,0.121,2.964,0.68,0.799,-1.295,-0.916
5.189,6.566,-2.821,3.627,-2.149,1.383,-3.946,-0.221
-0.084,0.617,-6.04,2.498,-5.471,1.053,-6.522,0.548
-5.859,-6.331,-8.245,-0.544,-7.831,-0.978,-7.565,1.299
-11.406,-10.766,-9.178,-3.37,-8.85,-3.216,-7.292,1.235
-15.136,-10.985,-8.192,-3.931,-8.023,-3.4,-5.873,1.079
-15.144,-8.14,-6.34,-2.888,-6.363,-1.789,-4.514,1.283
-11.014,-3.595,-5.601,-0.924,-5.499,0.215,-4.338,1.417
-5.057,1.836,-6.088,2.207,-5.544,2.133,-4.613,1.352
-0.021,6.383,-6.836,4.735,-5.902,3.249,-4.877,0.507
2.597,7.587,-7.644,4.187,-6.546,2.467,-6.083,-1.694
1.438,4.852,-7.439,1.856,-6.37,0.675,-6.931,-3.458
-3.023,0.714,-3.797,1.689,-2.864,0.7,-3.264,-1.966
-7.801,-2.943,1.401,3.522,2.26,2.308,2.964,1.104
-11.033,-7.062,2.007,2.409,2.917,1.175,2.78,0.476
-12.081,-10.33,-1.959,-2.733,-0.999,-3.638,-3.973,-3.742
-9.684,-8.74,-3.932,-6.941,-3.038,-7.602,-6.938,-5.965
-4.235,-2.795,-2.753,-7.92,-2.105,-8.36,-3.942,-5.211
1.18,2.718,-3.004,-8.61,-2.716,-8.186,-2.679,-5.735
4.125,5.899,-4.892,-9.772,-4.806,-8.17,-4.731,-8.182
4.895,8.364,-4.651,-8.52,-4.444,-6.743,-4.966,-8.851
5.241,10.305,-2.483,-5.295,-1.977,-4.504,-3.165,-7.138
5.446,9.312,-2.023,-4.141,-1.245,-4.354,-3.688,-6.558
3.361,4.344,-3.831,-5.476,-2.906,-6.071,-6.517,-8.11
-2.034,-1.983,-5.784,-6.024,-4.689,-6.533,-7.899,-8.814
-8.474,-7.012,-7.974,-5.79,-6.5,-5.916,-8.115,-7.757
-12.552,-10.779,-11.678,-7.93,-9.787,-7.688,-10.725,-7.661
-12.223,-12.868,-15.034,-11.801,-12.927,-11.514,-14.124,-9.051
-8.76,-11.599,-15.656,-13.568,-13.555,-12.976,-13.555,-9.689
-5.437,-8.227,-15.934,-13.203,-14.059,-11.298,-11.673,-10.108
-3.153,-5.077,-17.294,-12.4,-15.877,-9.035,-12.659,-11.302
-1.241,-1.331,-15.74,-9.664,-14.834,-6.255,-12.84,-11.234
-0.628,2.283,-10.943,-5.709,-10.273,-3.334,-10.132,-10.008
-1.434,2.328,-6.783,-4.135,-6.023,-2.249,-6.916,-9.279
-1.755,-0.463,-3.241,-3.721,-2.452,-1.685,-3.045,-7.557
-0.397,-2.435,0.554,-1.121,1.118,0.496,0.76,-4.294
1.724,-3.454,2.899,1.978,3.275,2.62,2.229,-1.961
1.796,-5.269,2.752,1.867,3.075,2.191,1.267,-2.019
-1.091,-6.755,0.68,-1.237,0.795,-0.411,-1.598,-3.897
-2.955,-5.677,-1.658,-3.903,-1.928,-2.806,-5.033,-6.15
-0.287,-2.123,-2.347,-3.7,-2.809,-2.862,-6.62,-7.158
4.581,2.684,-1.262,-0.968,-1.547,-0.348,-5.724,-6.27
6.961,7.007,-0.514,1.716,-0.49,2.143,-4.345,-4.956
6.725,8.874,-0.772,2.52,-0.698,2.46,-3.633,-4.843
7.79,9.011,1.092,3.382,0.724,2.955,-1.207,-4.319
9.309,8.465,5.094,5.451,4.105,5.449,3.262,-1.957
5.163,4.36,4.169,4.714,2.998,5.719,3.365,-1.419
-4.315,-4.383,-4.344,-0.802,-5.308,0.793,-4.267,-5.604
-11.207,-12.024,-12.448,-6.156,-13.314,-4.757,-12.016,-10.541
-11.87,-13.384,-13.986,-7.321,-14.836,-6.272,-12.982,-11.564
-9.168,-10.288,-12.55,-6.437,-13.245,-5.387,-10.855,-9.616
-5.891,-6.966,-13.247,-7.104,-13.74,-5.725,-11.067,-8.57
-3.34,-4.057,-15.239,-9.648,-15.576,-7.658,-12.423,-9.964
-2.081,-0.052,-14.866,-11.645,-15.24,-8.813,-11.347,-11.051
-2.134,3.707,-12.788,-12.198,-13.516,-8.786,-9.225,-10.014
-4.208,3.691,-13.951,-13.628,-14.914,-10.431,-11.552,-10.624
-7.161,0.488,-18.342,-16.096,-19.059,-13.606,-17.491,-14.669
-7.235,-1.303,-18.897,-15.554,-19.331,-13.812,-18.046,-16.471
-5.368,-1.526,-14.015,-11.458,-14.395,-10.702,-11.556,-13.296
-7.874,-6.035,-12.034,-9.816,-12.348,-10.029,-8.54,-11.393
-16.15,-16.452,-16.817,-13.746,-17.248,-14.192,-13.279,-14.709
-24.017,-25.458,-20.849,-17.953,-21.915,-18.189,-16.433,-18.187
-25.646,-26.913,-18.62,-17.504,-20.46,-17.705,-13.018,-17.561
-21.1,-23.854,-14.71,-14.986,-16.977,-14.972,-10.578,-15.852
-15.244,-21.91,-14.094,-14.438,-16.388,-13.841,-14.024,-16.465
-12.877,-21.817,-15.087,-15.61,-17.013,-14.613,-18.187,-18.071
-14.797,-22.005,-14.664,-16.798,-16.086,-15.572,-18.293,-18.227
-17.086,-21.534,-12.672,-16.729,-14.013,-15.227,-15.374,-16.265
-15.816,-19.473,-10.363,-14.776,-11.96,-13.314,-11.385,-13.012
-13.494,-16.58,-9.183,-12.886,-10.766,-11.619,-7.182,-10.508
-15.084,-15.743,-10.2,-13.692,-11.55,-12.375,-4.795,-10.265
-19.645,-18.288,-13.749,-16.909,-15.111,-15.607,-6.739,-11.556
-23.155,-21.974,-18.932,-20.162,-20.441,-18.875,-11.88,-12.748
-25.682,-24.144,-23.262,-21.69,-24.688,-20.046,-15.717,-13.292
-28.095,-24.777,-24.318,-21.286,-25.421,-19.445,-15.322,-13.468
-26.736,-24.407,-22.381,-19.77,-23.044,-18.319,-12.164,-13.374
-20.983,-22.631,-21.353,-18.711,-21.363,-17.607,-11.103,-13.828
-17.667,-20.236,-24.328,-19.957,-23.382,-18.689,-14.55,-16.676
-19.067,-17.902,-28.113,-23.013,-26.372,-21.495,-17.995,-21.23
-18.235,-13.258,-26.902,-23.903,-25.13,-22.578,-15.73,-22.975
-11.302,-4.407,-20.811,-19.996,-19.46,-19.338,-9.173,-19.746
-3.225,5.263,-15.65,-14.032,-14.484,-14.069,-5.206,-15.159
0.625,10.143,-14.263,-10.134,-13.152,-10.556,-6.124,-12.515
0.468,8.713,-13.656,-8.951,-12.836,-9.902,-6.951,-10.614
-1.085,4.787,-11.543,-8.791,-10.952,-10.771,-4.922,-7.828
-3.118,2.521,-9.936,-8.618,-9.138,-11.141,-3.553,-5.295
-6.221,1.373,-10.312,-8.139,-9.194,-9.852,-4.42,-4.073
-9.972,-0.55,-9.872,-5.772,-8.779,-6.385,-3.513,-2.064
-12.318,-2.044,-7.141,-0.768,-6.2,-1.333,-0.254,2.176
-12.363,-2.5,-6.068,2.95,-4.998,1.555,-0.136,4.956
-11.419,-3.114,-8.356,1.98,-7.124,-0.358,-3.473,3.362
-10.333,-3.383,-10.104,-1.009,-9.039,-3.795,-4.929,0.381
-8.243,-2.309,-9.382,-2.267,-8.455,-4.763,-3.891,-0.741
-4.747,-0.337,-8.337,-1.504,-6.981,-3.472,-3.025,-0.106
-1.735,1.525,-8.493,-0.135,-6.426,-1.778,-2.647,1.117
-1.07,2.328,-8.574,0.959,-6.471,-0.447,-1.743,2.056
-2.177,1.834,-7.584,1.459,-6.477,0.161,-0.912,1.632
-3.277,1.179,-7.779,0.973,-7.742,-0.495,-3.021,-1.132
-3.627,1.612,-10.372,0.059,-10.583,-1.788,-8.292,-4.617
-4.759,2.29,-12.357,-0.167,-12.381,-2.543,-11.963,-6.04
-6.983,1.618,-10.907,-0.017,-10.801,-3.025,-10.56,-6.003
-6.81,0.252,-7.053,-0.533,-6.619,-4.25,-6.471,-6.736
-2.817,0.337,-4.071,-1.472,-3.139,-6.059,-4.09,-7.595
1.498,2.849,-3.416,-1.134,-2.273,-6.403,-4.206,-6.627
3.709,6.776,-3.715,1.468,-2.673,-3.414,-5.159,-4.388
5.272,10.277,-3.332,4.831,-2.384,1.4,-5.951,-2.524
7.06,11.789,-1.69,6.347,-0.73,4.005,-5.462,-1.171
7.404,11.169,0.777,5.283,1.774,2.94,-3.04,-0.374
6.651,10.877,3.088,3.925,4.15,1.418,-0.087,-0.53
7.662,12.965,4.706,4.812,5.786,2.384,1.544,-0.627
10.456,16.217,6.239,8.077,7.069,5.213,2.214,1.239
13.072,19.711,9.12,13.078,9.465,9.313,4.453,5.941
15.256,23.425,12.675,18.308,12.722,14.119,8.411,11.286
16.131,24.661,13.71,20.065,13.924,15.866,10.559,12.898
14.058,21.393,11.898,17.299,12.523,12.826,9.994,10.438
10.747,16.37,10.16,13.928,11.03,9.338,9.269,8.615
9.605,13.378,9.208,13.017,10.035,8.962,8.745,9.651
10.649,13.022,7.708,13.671,8.362,10.192,7.213,10.793
11.323,13.407,4.77,13.248,5.203,10.081,4.036,9.053
10.653,13.16,0.413,10.549,0.699,7.8,-0.477,5.169
9.86,12.931,-2.485,7.86,-2.029,5.605,-1.975,3.372
10.145,13.075,-0.476,7.83,0.258,5.815,3.467,5.762
9.884,11.114,3.641,8.248,4.29,6.194,9.933,8.101
5.169,4.838,2.944,4.578,3.208,2.679,7.751,5.217
-2.993,-2.6,-3.362,-2.327,-3.501,-3.406,-1.91,-1.514
-7.544,-5.686,-8.88,-7.048,-9.301,-7.053,-9.085,-6.794
-5.933,-3.619,-9.396,-7.41,-9.75,-6.997,-9.064,-8.493
-2.725,0.386,-6.682,-5.242,-6.686,-5.226,-5.281,-7.458
-0.333,4.029,-3.543,-2.009,-3.473,-2.491,-1.465,-4.548
2.826,6.814,-0.909,1.263,-1.201,0.736,1.113,-1.523
5.064,7.736,-0.333,2.222,-0.898,2.028,0.427,-1.161
2.623,5.033,-3.695,-0.983,-4.063,-0.793,-4.735,-4.214
-2.152,0.043,-8.048,-6.204,-8.018,-5.72,-9.17,-7.526
-4.767,-3.075,-7.585,-9.091,-7.431,-8.37,-6.221,-7.537
-6.383,-3.417,-3.199,-9.069,-3.267,-8.299,0.304,-5.523
-8.107,-3.267,-1.645,-9.173,-1.994,-8.59,1.024,-5.492
-6.444,-2.726,-4.065,-10.184,-4.559,-9.713,-3.589,-7.66
-0.185,-0.332,-4.763,-9.751,-5.309,-9.102,-5.827,-8.436
6.598,3.091,-1.25,-7.075,-1.806,-5.97,-3.699,-5.931
10.84,5.966,3.419,-3.934,2.959,-2.248,-0.139,-1.736
13.334,8.491,6.774,-1.528,6.436,0.489,3.777,1.943
14.321,10.513,8.31,0.015,7.854,1.898,6.845,3.725
12.837,10.724,7.247,0.303,6.49,1.77,5.937,3.181
10.571,9.426,3.585,-0.607,2.754,0.451,1.544,1.716
10.558,8.83,0.117,-0.743,-0.475,-0.011,-0.665,1.798
12.386,10.06,0.699,2.206,0.312,2.668,3.265,4.536
11.228,10.726,4.694,6.124,4.393,6.483,9.373,7.352
4.376,7.577,6.653,5.79,6.525,6.293,9.959,6.207
-2.3,1.985,5.195,1.357,5.169,1.928,5.772,2.412
-1.998,-1.926,4.961,-1.996,4.723,-1.871,4.948,1.014
2.801,-3.276,7.308,-2.594,6.869,-3.157,8.087,2.252
5.889,-3.466,7.886,-2.438,7.648,-3.026,8.186,2.834
6.19,-2.689,4.85,-2.221,4.861,-1.926,4.323,2.363
5.777,-1.096,2.513,-1.835,2.023,-0.712,2.324,2.008
4.994,-0.106,4.054,-2.055,2.321,-1.046,3.864,1.546
2.864,-0.307,6.566,-2.892,3.851,-2.553,5.286,1.177
0.076,-0.558,6.851,-3.011,3.911,-2.972,5.299,2.088
-1.244,-0.548,5.728,-2.109,3.023,-1.766,5.746,3.946
-1.464,-1.819,5.006,-1.697,2.768,-0.723,6.983,4.932
-3.275,-5.395,4.608,-2.942,2.716,-1.038,7.125,3.921
-6.542,-10.126,3.047,-5.328,0.946,-2.262,4.645,1.418
-7.56,-13.025,1.203,-6.499,-1.409,-2.969,2.02,-0.15
-3.968,-11.633,3.33,-4.006,0.447,-1.642,4.266,1.461
1.452,-7.446,9.901,0.916,7.063,1.289,10.597,4.953
3.268,-4.641,14.766,4.242,12.157,3.387,14.549,7.256
0.377,-4.937,13.669,4.137,11.323,3.05,13.767,7.278
-2.741,-6.675,9.855,1.913,7.359,1.059,11.682,5.933
-3.07,-7.911,8.295,-0.216,5.033,-0.638,11.009,4.996
-2.138,-7.832,8.241,-0.798,4.465,-0.888,10.681,5.529
-2.089,-7.032,5.126,-0.745,2.17,-0.616,7.878,5.697
-3.355,-6.756,-0.452,-1.589,-1.611,-1.085,3.071,3.365
-4.024,-6.278,-1.548,-1.593,-1.377,-0.803,1.869,0.952
-1.767,-3.977,3.536,1.038,3.83,1.588,6.117,1.46
2.369,-0.293,8.125,4.23,7.737,4.085,9.086,2.95
5.805,3.225,8.917,6.002,7.694,5.161,6.516,3.183
7.682,5.102,9.063,6.758,7.28,5.513,2.814,3.394
8.193,4.95,11.108,7.232,9.264,5.718,3.851,4.987
7.969,4.562,14.076,7.597,12.537,5.91,9.181,7.234
8.046,5.772,14.957,7.761,13.815,6.279,12.285,8.349
8.941,8.21,13.867,8.356,13.024,7.263,11.092,8.234
10.997,10.043,14.957,10.026,13.972,8.874,11.021,8.917
14.931,10.302,18.232,11.654,16.671,10.021,12.761,10.828
18.583,9.579,18.405,11.606,16.661,10.132,11.043,11.558
17.371,8.419,14.345,10.082,13.267,10.005,6.685,9.908
12.141,7.322,11.154,8.776,10.778,10.149,5.805,8.123
8.381,7.099,11.339,8.384,10.872,9.871,8.609,8.212
7.141,7.255,11.56,7.956,10.554,8.698,9.397,9.094
5.844,6.583,10.355,7.171,8.999,7.732,6.516,9.144
5.071,5.403,11.294,7.316,9.771,8.431,4.576,8.805
7.151,5.094,15.464,9.348,14.001,10.76,6.768,9.692
10.902,6.595,18.633,12.469,17.68,13.517,10.706,12.129
13.08,9.851,18.41,15.102,17.866,15.69,12.522,14.214
13.87,13.785,17.381,16.299,16.473,16.781,11.895,14.36
16.017,16.578,17.312,15.619,15.772,15.895,11.051,12.861
17.801,16.189,15.668,12.53,14.044,12.144,9.873,9.607
14.544,12.779,10.888,8.091,9.651,7.547,6.831,4.609
8.158,10.417,6.4,5.989,5.482,6.303,3.184,0.632
5.164,12.159,5.02,8.241,4.409,8.916,1.039,-0.037
6.714,14.906,4.544,11.995,4.89,11.407,0.81,1.091
9.114,14.48,2.946,13.802,4.588,11.573,2.242,2.254
10.381,12.292,2.35,13.581,4.234,10.956,4.559,3.789
10.59,11.331,3.75,12.14,4.767,10.221,6.158,4.981
9.517,10.828,3.846,9.38,4.327,8.087,5.943,4.225
8.298,9.971,2.043,7.005,2.689,5.866,5.165,3.42
9.574,10.572,2.332,7.616,2.978,6.753,5.683,5.467
12.834,12.77,5.355,10.279,5.937,9.9,7.427,8.672
14.244,13.987,8.407,12.331,9.574,11.948,10.395,10.303
12.235,12.527,10.596,13.338,12.364,12.538,13.873,11.001
9.579,9.368,11.907,14.208,13.214,13.338,14.45,11.968
9.198,7.127,12.381,15.224,12.445,14.521,11.1,12.652
10.474,6.871,12.81,15.298,11.824,14.324,7.704,11.859
11.533,7.13,13.585,13.095,12.15,11.627,7.331,9.618
11.374,6.401,13.695,9.058,12.101,7.887,8.344,7.348
9.252,4.768,12.714,5.733,10.795,5.959,8.511,6.318
6.924,4.15,13.73,6.333,11.331,7.881,9.781,7.407
8.375,5.936,19.234,11.151,16.539,12.581,14,10.268
12.458,7.174,24.555,15.409,21.706,15.592,16.779,11.704
11.556,3.79,23.408,14.675,20.291,13.882,13.431,9.031
3.851,-2.062,18.372,11.182,15.051,10.112,8.378,4.928
-0.891,-3.866,16.825,9.951,13.557,8.905,8.837,4.094
3.428,-0.07,19.348,11.535,16.108,10.782,12.975,6.652
8.555,3.526,19.939,12.822,16.54,12.518,13.463,8.875
6.498,2.484,16.022,12.41,12.533,12.246,8.984,8.795
2.414,0.132,13.253,12.465,9.727,11.921,6.657,8.614
3.185,1.198,16.559,14.886,12.796,13.654,11.252,10.467
5.93,4.571,20.803,17.87,16.965,16.085,16.424,12.343
6.321,7.139,19.731,19.038,16.551,16.944,15.826,12.304
6.866,8.84,16.85,18.801,14.758,16.401,14.051,11.995
9.671,9.835,16.661,17.542,15.267,15.041,14.786,11.751
10.259,8.092,15.69,13.749,14.511,11.752,12.885,9.211
5.197,3.4,11.762,8.313,10.82,7.37,7.4,5.284
-1.065,-0.791,10.017,5.743,9.268,5.954,5.519,4.244
-3.02,-2.409,12.849,7.554,11.88,8.374,9.177,6.85
-1.41,-2.579,15.796,10.112,14.445,10.572,12.62,9.206
0.677,-1.576,15.592,10.876,14.017,10.233,12.043,8.497
2.036,0.972,13.079,10.567,11.22,8.865,7.658,5.361
1.954,2.667,9.98,9.346,7.664,7.392,1.519,1.127
0.531,0.78,7.976,6.563,5.313,5.017,-2.276,-3.24
-0.598,-3.221,8.214,3.535,5.353,2.341,-0.889,-5.847
-1.984,-6.875,8.211,1.056,5.073,0.201,1.758,-6.548
-6.347,-10.831,3.516,-2.922,0.099,-3.233,-1.095,-8.901
-11.267,-13.475,-3.23,-6.765,-6.551,-6.782,-7.046,-12.745
-10.049,-9.768,-4.032,-4.838,-6.847,-4.793,-7.596,-12.156
-3.512,-1.448,1.154,1.425,-1.277,1.65,-3.339,-6.7
0.28,3.118,5.263,4.662,2.757,4.695,-1.017,-2.835
-0.334,1.367,6,3.42,3.204,2.846,-1.061,-2.537
-0.195,-1.695,6.353,1.83,3.293,1.513,-0.313,-2.204
1.405,-2.379,6.976,1.716,3.943,2.789,0.262,-0.905
0.985,-2.01,5.516,1.206,3.217,3.187,-1.902,-1.26
-1.074,-2.707,2.893,-1.039,1.666,0.485,-4.65,-3.645
-0.418,-2.798,3.55,-2.383,2.803,-1.945,-3.2,-4.721
5.279,0.761,7.839,0.34,6.996,-0.29,1.89,-2.694
13.009,6.832,11.368,5.017,10.408,3.784,5.073,-0.348
17.187,11.162,12.224,7.199,10.936,6.367,4.057,-0.346
15.745,11.711,11.739,6.368,9.746,6.517,1.381,-1.561
12.522,10.293,10.922,4.871,8.578,5.58,-0.03,-1.874
12.385,9.745,11.091,4.073,9.255,4.495,1.778,-0.619
14.761,10.413,13.011,3.974,11.959,3.213,6.441,1.538
14.848,10.562,14.2,4.076,13.475,1.789,9.78,2.738
11.258,10.227,12.192,3.811,11.305,0.939,8.392,1.648
8.082,11.611,8.304,3.09,7.121,0.987,3.877,-0.538
9.073,15.083,5.139,2.465,3.76,1.375,-0.387,-1.746
13.956,18.483,5.014,3.048,3.451,2.105,-1.271,-1.2
19.675,20.304,9.448,5.517,7.565,3.907,3.121,0.572
22.39,20.459,14.517,7.767,12.415,5.575,7.674,1.447
20.826,19.62,14.063,7.047,12.213,4.925,5.753,-0.133
18.11,19.706,10.507,4.974,9.17,3.154,2.412,-1.695
16.704,21.678,9.793,4.162,8.648,2.341,4.672,-0.868
15.965,23.731,9.583,3.542,8.22,1.795,6.826,0.278
17.613,25.848,7.306,3.8,5.739,2.696,4.827,1.528
23.341,30.183,7.745,8.02,6.211,7.47,5.916,5.877
27.579,34.169,10.824,12.771,9.336,11.998,9.906,10.383
25.585,33.561,9.749,11.747,8.143,10.712,7.702,9.279
22.617,30.885,5.425,7.316,3.79,6.64,1.465,5.101
24.244,30.705,5.077,6.097,3.782,5.754,0.832,4.139
27.513,32.221,9.681,8.394,8.891,8.065,5.838,6.475
27.865,32.266,13.891,9.97,13.367,9.706,9.409,7.924
25.735,29.75,13.656,8.838,13.13,8.377,8.049,6.538
23.109,25.93,9.95,6.468,9.433,5.318,4.073,3.829
19.353,22.657,6.798,4.548,6.337,3.024,1.673,1.538
14.438,20.298,6.355,3.247,5.769,2.232,2.147,-0.047
11.69,18.49,7.248,2.89,6.237,2.732,3.404,-0.292
12.726,18.014,7.61,4.251,5.966,4.647,3.612,1.602
15.227,19.395,7.554,6.418,5.267,6.911,2.935,4.068
17.677,21.013,7.768,7.135,5.081,7.204,1.676,4.448
20.436,20.646,7.692,5.419,4.951,4.645,-0.458,2.477
22.983,18.685,7.142,2.601,4.476,1.086,-2.469,-0.032
24.312,18.111,6.999,0.881,4.357,-0.634,-3.342,-1.763
24.506,19.914,6.282,0.807,3.741,0.256,-5.027,-2.527
23.764,21.419,3.171,1.179,0.946,1.899,-8.797,-2.551
22.06,20.736,-0.592,1.614,-2.407,2.77,-11.796,-2.242
20.002,18.786,-1.788,2.486,-3.424,2.86,-11.981,-2.096
17.938,16.8,-0.259,3.203,-2.12,2.406,-10.502,-2.123
16.312,15.401,1.867,3.25,-0.301,1.771,-8.545,-2.186
15.797,14.687,2.231,2.797,0.11,1.138,-7.753,-3.027
14.358,13.21,-0.32,1.686,-2.127,0.12,-9.961,-5.201
9.469,9.157,-4.232,-0.034,-5.852,-1.117,-13.747,-7.782
4.077,4.19,-6.114,-1.389,-7.697,-1.578,-15.604,-9.301
2.93,2.322,-4.454,-1.952,-5.829,-1.206,-14.701,-9.277
4.791,3.181,-1.406,-2.783,-2.454,-1.379,-13.174,-8.614
4.63,2.115,0.515,-4.463,-0.485,-2.581,-12.182,-8.117
-0.12,-2.994,-0.023,-6.661,-1.229,-4.232,-12.295,-8.176
-7.385,-9.505,-3.534,-8.944,-4.733,-5.98,-14.623,-9.071
-12.305,-14.015,-7.599,-10.132,-8.403,-7.096,-17.21,-9.706
-13.107,-16.622,-9.124,-10.255,-9.451,-7.869,-16.933,-9.595
-12.897,-18.964,-8.463,-10.869,-8.588,-9.588,-14.674,-10.234
-13.524,-20.178,-7.531,-11.481,-7.74,-11.285,-13.225,-11.752
-12.815,-18.797,-7.349,-10.761,-7.608,-11.132,-14.144,-12.971
-9.828,-15.65,-8.067,-9.447,-8.189,-9.442,-17.014,-13.457
-6.813,-12.722,-8.476,-8.316,-8.522,-7.215,-18.609,-12.435
-4.964,-11.407,-7.628,-7.446,-7.722,-5.393,-17.013,-10.053
-4.356,-11.771,-7.356,-7.899,-7.343,-5.548,-15.378,-8.791
-5.619,-12.193,-8.858,-9.403,-8.603,-7.053,-15.051,-8.872
-8.289,-11.597,-10.451,-9.673,-10,-7.082,-13.27,-7.637
-11.994,-12.315,-12.712,-9.415,-12.088,-6.29,-12.272,-5.996
-16.456,-15.98,-17.154,-10.898,-16.477,-7.062,-16.004,-6.526
-17.951,-18.446,-19.33,-11.706,-18.813,-7.252,-18.877,-6.946
-14.087,-16.146,-15.443,-9.256,-14.963,-4.908,-15.222,-5.295
-10.321,-12.624,-10.884,-6.785,-10.068,-3.471,-11.379,-5.042
-11.577,-11.311,-9.814,-6.333,-8.629,-4.33,-12.027,-6.813
-12.888,-9.435,-7.431,-4.24,-6.207,-3.01,-10.694,-5.381
-8.895,-5.46,-1.843,0.373,-0.763,1.84,-5.036,-0.248
-4.052,-3.442,1.37,2.825,2.351,5.132,-1.833,2.587
-3.497,-4.913,0.476,1.573,1.466,4.078,-2.863,1.017
-5.352,-6.219,-0.768,-0.146,0.345,1.601,-3.021,-1.688
-8.581,-6.913,-2.86,-1.949,-1.663,-0.741,-2.908,-4.779
-15.139,-10.39,-9.179,-6.268,-7.998,-4.762,-7.909,-9.471
-22.074,-15.471,-16.508,-11.429,-15.274,-9.257,-14.926,-12.596
-23.922,-17.387,-19.436,-13.493,-18.102,-10.408,-16.68,-10.954
-20.767,-15.42,-19.34,-12.632,-18.013,-8.399,-14.811,-7.616
-15.503,-11.776,-18.101,-10.666,-16.73,-5.929,-12.857,-5.559
-10.712,-8.065,-13.474,-7.719,-11.735,-3.781,-8.215,-3.137
-10.498,-7.28,-7.806,-5.397,-5.564,-2.716,-2.294,-0.182
-15.247,-11.407,-7.465,-6.152,-5.044,-4.094,-1.776,0.812
-18.735,-16.217,-11.535,-8.582,-9.236,-6.759,-5.471,0.015
-17.752,-16.386,-14.106,-9.722,-11.842,-8.324,-6.866,-0.584
-16.561,-13.802,-15.116,-10.782,-12.699,-9.666,-7.019,-1.477
-18.518,-14.344,-18.121,-15.02,-15.59,-13.621,-10.698,-4.319
-21.64,-19.442,-21.732,-21.285,-19.269,-19.292,-15.61,-8.128
-23.657,-24.815,-21.019,-24.434,-18.665,-22.034,-15.168,-9.759
-24.146,-25.689,-15.245,-22.181,-12.89,-19.775,-8.994,-8.227
-22.924,-22.547,-10.347,-18.295,-7.965,-16.056,-4.952,-6.874
-21.852,-20.702,-11.847,-17.259,-9.499,-15.026,-8.156,-8.867
-23.894,-23.032,-16.897,-18.618,-14.632,-16.282,-12.952,-12.068
-27.922,-27.398,-19.011,-19.81,-16.876,-17.68,-12.773,-13.078
-30.171,-31.379,-18.483,-20.658,-16.399,-19.071,-10.632,-12.991
-31.018,-34.197,-20.289,-21.571,-18.065,-20.029,-11.479,-13.589
-33.493,-35.463,-24.51,-21.713,-22.11,-19.234,-13.344,-13.467
-36.108,-35.247,-26.085,-20.48,-23.561,-17.06,-12.09,-11.391
-36.265,-34.43,-23.942,-18.298,-21.271,-14.934,-8.996,-8.731
-36.596,-34.632,-23.799,-16.819,-21.039,-14.107,-10.002,-7.824
-38.554,-36.28,-27.329,-17.051,-24.526,-14.754,-15.447,-8.616
-38.148,-37.072,-27.712,-16.978,-24.764,-14.902,-17.071,-8.294
-33.909,-35.215,-21.94,-14.637,-18.893,-13.228,-11.556,-5.983
-29.25,-31.607,-15.441,-11.103,-12.49,-10.612,-5.114,-3.252
-26.355,-28.198,-12.594,-8.501,-9.782,-8.075,-2.508,-0.514
-25.272,-26.963,-12.628,-8.025,-10,-6.772,-2.596,1.92
-26.502,-28.194,-13.093,-9.118,-10.772,-7.235,-2.001,2.839
-30.494,-29.962,-13.349,-10.615,-11.17,-8.454,-0.219,1.676
-34.952,-30.6,-14.598,-12.829,-12.249,-10.263,-1.469,-1.473
-35.666,-29.691,-16.463,-15.969,-13.962,-13.165,-6.925,-5.574
-32.734,-28.16,-16.736,-18.788,-14.176,-16.191,-10.455,-8.886
-30.385,-27.361,-14.812,-20.349,-12.097,-17.995,-8.345,-10.89
-29.692,-26.917,-13.257,-20.545,-10.461,-18.274,-5.901,-12.437
-29.219,-26.651,-15.615,-20.062,-12.962,-17.9,-9.142,-14.269
-29.714,-28.477,-21.243,-20.304,-18.75,-18.139,-15.34,-16.179
-32.009,-32.337,-25.045,-20.941,-22.579,-18.675,-17.71,-17.193
-34.17,-34.602,-24.61,-19.651,-22.157,-17.817,-15.937,-16.656
-33.912,-33.451,-22.559,-16.372,-20.27,-15.302,-14.586,-15.09
-31.432,-31.322,-21.104,-14.144,-19.078,-12.832,-14.039,-13.515
-29.242,-30.742,-19.798,-14.399,-17.913,-11.827,-11.255,-12.174
-30.171,-31.332,-18.334,-15.225,-16.377,-12.097,-6.905,-10.59
-33.001,-30.894,-16.794,-14.544,-14.637,-12.355,-3.595,-8.042
-33.262,-28.744,-14.488,-12.6,-12.217,-11.857,-0.431,-3.922
-31.88,-27.829,-12.092,-11.532,-9.929,-11.582,3.489,0.906
-34.119,-30.867,-12.585,-13.071,-10.534,-12.93,4.51,3.596
-39.676,-36.171,-17.551,-17.06,-15.443,-16.115,-0.399,1.702
-43.491,-40.578,-23.971,-21.743,-21.863,-19.948,-7.207,-3.631
-44.513,-43.822,-28.256,-25.478,-26.195,-22.936,-10.65,-8.923
-46.645,-47.177,-31.774,-28.821,-29.441,-25.244,-12.631,-12.858
-50.683,-49.41,-35.905,-32.454,-33.136,-27.378,-16.069,-15.843
-51.879,-47.809,-37.122,-34.38,-34.243,-27.872,-18.013,-17.381
-47.493,-42.622,-33.321,-32.932,-30.634,-25.77,-15.867,-17.25
-39.944,-36.523,-27.244,-29.036,-24.697,-22.283,-11.503,-16.144
-32.854,-30.823,-21.552,-23.899,-18.942,-18.348,-7.559,-14.636
-28.419,-25.452,-16.497,-18.152,-13.774,-13.947,-5.085,-12.926
-25.664,-20.832,-11.282,-12.625,-8.731,-9.555,-3.339,-10.96
-21.205,-17.072,-5.514,-8.032,-3.438,-5.899,-0.895,-8.93
-14.709,-13.306,-0.954,-4.84,0.791,-3.394,1.655,-7.411
-9.421,-9.57,-0.306,-3.353,1.522,-2.595,1.906,-6.867
-5.755,-6.714,-2.101,-2.408,0.11,-2.77,0.847,-6.222
-1.77,-4.635,-1.681,0.127,0.941,-1.438,2.918,-3.018
-0.073,-3.689,0.61,3.484,3.34,1.468,7.163,2.313
-4.427,-5.25,0.801,4.455,3.322,3.062,8.324,6.345
-11.39,-8.626,-0.313,2.699,1.982,2.656,7.362,8.3
-15.038,-11.016,-0.15,0.98,1.978,2.215,8.497,9.94
-15.301,-11.382,-0.318,0.437,1.775,2.063,10.742,11.258
-14.622,-11.594,-2.81,-0.844,-0.33,0.333,10.95,10.929
-13.215,-13.004,-5.816,-3.995,-2.738,-3.435,9.615,9.069
-12.097,-14.638,-6.634,-7.232,-3.37,-7.207,9.159,6.618
-12.762,-15.241,-5.462,-8.74,-2.49,-9.073,9.089,3.813
-12.102,-13.927,-3.66,-8.122,-0.968,-8.339,7.501,1.639
-6.979,-10.479,-1.157,-5.719,1.478,-5.605,5.454,1.569
-1.407,-6.947,2.173,-3.062,4.67,-3.042,5.227,2.853
-0.511,-5.852,5.263,-2.08,7.428,-2.494,6.948,3.093
-2.796,-7.104,5.977,-3.53,7.992,-4.041,8.108,0.454
-4.418,-8.949,2.757,-6.397,4.976,-6.555,6.104,-4.207
-5.721,-10.827,-2.039,-8.253,0.347,-8.165,2.464,-6.643
-8.6,-13.308,-4.394,-7.584,-2.201,-7.47,0.754,-4.495
-11.823,-15.58,-4.032,-5.371,-2.147,-5.041,1.798,-0.715
-13.602,-16.092,-3.265,-3.581,-1.509,-2.86,4.551,1.643
-14.536,-15.068,-4.042,-3.126,-2.378,-2.184,6.456,2.748
-16.056,-13.715,-7.306,-3.352,-5.781,-2.5,4.557,3.313
-18.139,-12.686,-11.107,-3.22,-9.601,-2.638,0.88,3.976
-17.654,-11.965,-11.429,-2.257,-9.829,-1.81,0.586,6.16
-12.566,-11.185,-7.957,-0.752,-6.329,-0.353,3.636,9.583
-7.763,-10.759,-5.311,-0.438,-3.746,-0.337,5.189,11.017
-8.525,-11.444,-6.51,-2.986,-4.894,-3.15,2.866,8.414
-12.206,-12.23,-9.007,-6.831,-7.1,-6.713,-0.757,4.331
-13.186,-11.136,-8.218,-8.035,-6.001,-7.471,-0.998,3.369
-9.973,-8.008,-2.665,-4.845,-0.306,-4.501,4.356,6.875
-5.628,-5.18,4.135,-0.418,6.59,-0.931,12.107,11.279
-4.241,-4.922,6.263,0.42,8.81,-0.736,15.494,11.981
-5.288,-5.772,1.968,-2.259,4.476,-3.146,10.901,8.66
-4.82,-4.939,-3.709,-4.311,-1.39,-4.099,3.009,5.266
-3.913,-4.224,-6.048,-4.764,-3.99,-3.418,-0.745,4.285
-7.407,-6.643,-5.618,-5.577,-3.772,-3.576,0.809,4.331
-13.702,-10.119,-4.173,-6.399,-2.359,-4.054,3.828,3.789
-15.666,-10.826,-2.033,-5.789,-0.075,-3.427,5.98,2.967
-12.265,-8.808,-0.609,-4.813,1.581,-2.888,6.923,2.389
-9.757,-7.423,-2.247,-5.388,0.252,-4.087,5.632,1.653
-10.301,-8.785,-5.521,-7.06,-2.662,-6.269,2.825,0.912
-9.069,-10.935,-5.816,-8.083,-2.796,-7.481,2.155,1.043
-4.995,-11.334,-2.985,-8.362,-0.205,-7.577,4.134,1.291
-3.764,-10.82,-1.616,-8.735,0.748,-7.953,5.139,0.234
-6.545,-10.855,-2.547,-8.51,-0.415,-8.401,4.502,-0.761
-8.385,-11.144,-2.244,-7.102,-0.196,-7.812,5.223,0.304
-8.447,-11.718,-0.054,-6.328,1.929,-7.382,8.121,1.97
-9.485,-12.831,1.435,-7.14,3.57,-8.375,10.94,2.19
-12.198,-14.394,0.436,-7.805,2.877,-9.482,10.816,1.499
-16.206,-16.856,-2.736,-7.609,-0.351,-9.7,6.794,0.653
-19.271,-18.638,-4.467,-6.946,-2.628,-9.039,3.362,0.327
-17.934,-16.564,-2.048,-5.323,-0.797,-7.108,5.294,1.597
-13.687,-12.102,0.402,-3.625,1.485,-5.275,8.556,3.021
-11.264,-9.867,-1.103,-3.636,0.322,-5.711,7.48,2.218
-10.941,-10.244,-3.41,-4.566,-1.485,-7.212,4.974,0.299
-9.931,-10.114,-3.492,-4.4,-1.331,-6.902,4.694,-0.252
-8.242,-8.413,-3.71,-3.038,-1.632,-4.424,3.573,0.358
-8.28,-7.166,-5.724,-2.052,-3.803,-2.011,0.153,0.527
-10.452,-7.642,-6.986,-2.228,-5.244,-1.541,-1.277,0.359
-11.105,-7.583,-5.711,-2.076,-4.33,-1.923,1.253,1.559
-6.623,-4.465,-3.233,0.18,-2.198,-0.39,5.576,4.865
0.362,0.435,-1.002,3.785,0.07,3.385,9.627,8.515
3.357,4.041,0.512,6.232,1.797,6.553,11.428,9.868
1.331,5.035,1.028,5.761,2.184,6.459,9.982,7.975
-0.337,3.992,0.073,2.429,0.759,3.186,6.24,3.944
1.381,2.311,-2.427,-1.539,-2.065,-0.673,1.293,0.111
4.617,1.334,-4.002,-2.943,-3.588,-2.291,-1.64,-0.813
7.757,1.434,-1.764,-1.236,-1.165,-1.379,1.55,1.439
9.998,2.04,1.849,0.591,2.591,-0.079,7.288,3.289
10.415,3.128,2.739,0.964,3.668,0.532,8.083,2.456
10.807,5.519,3.133,2,4.212,1.713,5.638,1.356
13.02,8.51,6.449,4.581,7.413,3.732,6.389,1.915
15.37,10.595,10.147,6.849,10.784,5.168,9.79,3.073
18.108,12.811,11.563,8.628,11.965,6.494,12.297,4.712
23.227,15.65,11.373,10.356,11.769,8.521,12.846,6.574
26.719,16.578,9.598,10.036,10.035,9.055,10.99,6.321
24.749,16.295,7.053,8.003,7.419,7.52,7.808,4.342
23.527,19.06,6.258,8.499,6.541,7.552,5.067,4.061
29.318,24.616,8.411,12.727,8.677,11.062,4.26,6.568
37.063,28.667,13.424,17.308,13.706,15.573,8.073,10.145
38.545,29.165,18.518,19.491,18.903,17.93,14.197,12.338
33.641,26.86,19.458,19.443,19.988,17.569,15.664,11.917
28.902,23.666,17.351,18.916,17.868,16.542,12.765,10.406
28.578,21.745,15.997,18.879,16.377,16.414,10.226,9.094
30.425,21.631,15.325,18.763,15.646,16.37,8.161,7.271
31.669,22.765,15.126,18.969,15.519,16.099,7.082,5.859
33.277,24.994,16.925,20.758,17.391,16.951,9.635,6.919
35.625,27.088,19.119,22.863,19.494,18.576,13.933,9.285
36.114,27.29,18.932,23.247,19.145,19.371,15.737,10.416
32.696,25.913,17.73,22.556,17.892,19.453,15.114,10.172
27.543,24.368,17.546,21.748,17.583,19.142,13.675,8.829
24.987,23.178,16.474,20.139,16.155,17.645,10.041,5.778
25.185,21.965,12.953,17.466,12.452,14.884,4.378,2.254
24.996,20.823,9.481,14.818,9.366,11.975,1.009,0.859
24.629,21.311,8.112,13.437,8.578,10.334,1.523,2.112
26.141,23.958,7.135,13.138,7.693,10.429,2.456,4.225
27.247,25.699,4.346,12.175,4.667,10.565,1.247,5.084
24.223,23.644,0.257,9.815,0.735,9.1,-1.6,3.607
19.31,19.85,-2.941,7.612,-2.079,7.163,-4.794,0.678
18.78,18.994,-3.599,7.488,-2.864,7.077,-6.682,-1.157
23.419,22.262,-1.653,9.751,-1.376,9.338,-5.817,-0.222
26.928,25.549,1.472,12.421,1.622,11.861,-2.541,2.194
26.265,25.319,4.817,13.641,5.147,12.951,2.079,4.081
24.599,23.177,7.525,13.56,7.886,12.882,5.962,4.764
23.043,21.769,6.842,12.01,6.981,11.146,5.027,3.259
20.674,21.094,1.959,8.744,1.939,7.161,-1.406,-0.659
18.675,20.108,-3.092,5.498,-3.065,3.045,-7.813,-4.462
17.702,18.753,-3.957,4.299,-3.884,1.628,-8.677,-5.275
17.879,18.503,-0.538,5.501,-0.51,3.299,-4.198,-3.01
19.73,19.867,2.681,7.399,2.637,5.554,0.063,-0.803
21.069,20.237,1.599,7.665,1.504,5.907,-0.115,-1.326
19.841,17.892,-2.041,6.159,-2.098,4.935,-2.78,-3.285
18.225,15.404,-3.568,4.645,-3.536,4.438,-4.352,-4.156
18.294,15.796,-1.184,4.557,-1.166,4.779,-3.223,-3.383
19.283,18.035,2.422,5.703,2.418,5.105,-0.596,-2.161
19.802,18.622,2.263,6.099,2.547,4.372,-1.745,-2.564
18.931,17.1,-2.01,5.165,-1.218,3.352,-8.098,-4.412
17.295,16.772,-5.265,4.758,-4.328,3.826,-13.127,-4.996
16.786,18.967,-4.831,5.498,-4.29,5.237,-12.058,-3.436
18.173,21.442,-0.829,6.995,-0.656,6.659,-4.79,-0.118
19.668,22.291,5.103,8.692,5.358,8.242,4.434,3.913
18.533,21.095,6.543,7.926,6.928,8.037,4.985,4.329
15.944,18.765,0.746,4.211,0.853,4.834,-5.564,-0.615
16.681,18.309,-3.679,2.675,-3.934,2.722,-12.481,-4.653
20.945,21.443,-0.088,6.233,-0.276,5.308,-6.526,-2.706
23.225,24.854,6.021,10.526,6.217,9.34,2.617,1.429
21.828,25.179,8.023,11.292,8.428,10.116,5.445,2.514
21.021,23.795,6.44,9.6,6.671,8.239,4.014,1.138
21.583,21.622,2.773,7.301,2.699,6.204,1.107,-0.537
20.296,17.899,-2.299,4.96,-2.509,4.873,-3.283,-2.158
18.635,15.356,-5.045,4.149,-5.235,5.127,-5.861,-2.656
19.47,16.318,-3.134,5.363,-3.23,6.668,-3.552,-1.401
20.089,17.832,-0.144,6.671,-0.048,7.469,0.179,-0.249
17.704,17.275,-0.268,6.901,-0.112,7.147,-0.548,-0.734
14.295,15.981,-3.239,6.157,-3.445,6.594,-6.254,-2.38
12.999,15.629,-5.708,4.544,-6.383,5.497,-11.233,-3.935
14.678,16.638,-5.143,3.279,-5.789,4.189,-10.348,-3.966
16.733,18.287,-3.298,3.446,-3.497,3.964,-6.148,-2.489
14.78,17.714,-4.662,2.857,-4.721,3.301,-6.239,-2.255
7.967,12.655,-9.972,-0.889,-10.405,-0.309,-12.557,-5.013
1.664,6.329,-13.775,-4.945,-14.521,-4.444,-17.504,-7.889
2.144,4.785,-11.489,-4.79,-12.131,-4.774,-14.482,-7.521
8.378,8.355,-6.929,-1.925,-7.272,-2.58,-8.246,-5.552
13.561,11.762,-6.143,-1.067,-6.206,-1.959,-6.829,-5.15
14.422,12.5,-7.459,-2.308,-7.276,-2.97,-8.625,-5.544
12.998,11.896,-6.492,-2.986,-6.291,-3.627,-7.896,-5.026
11.432,10.167,-5.066,-3.577,-5.257,-4.344,-6.298,-5.179
10.128,6.747,-7.202,-6.19,-7.747,-6.558,-9.162,-8.022
8.231,2.827,-11.482,-10.006,-11.807,-9.553,-15.262,-11.94
4.5,0.665,-12.773,-11.486,-12.622,-10.328,-17.344,-12.856
0.913,1.676,-9.169,-8.627,-8.975,-7.11,-12.06,-9.033
1.547,4.756,-4.588,-3.88,-4.869,-2.436,-5.133,-3.618
5.436,7.237,-3.466,-1.343,-4.242,-0.246,-3.05,-0.748
7.819,8.305,-5.022,-1.83,-5.873,-0.903,-4.668,-1.218
7.037,8.947,-6.075,-3.017,-6.688,-1.741,-6.119,-3.225
4.473,9.189,-5.912,-3.162,-6.367,-1.119,-6.466,-4.37
1.888,8.289,-5.652,-2.734,-6.13,0.167,-6.156,-3.539
0.801,7.012,-5.47,-2.333,-6.037,1.15,-5.422,-1.581
2.173,7.483,-3.75,-0.935,-4.434,2.092,-3.836,0.733
6.437,10.268,0.108,1.671,-0.627,2.962,-1.288,3.016
12.954,13.904,4.355,3.964,3.684,3.472,1.389,4.614
18.291,17.198,8.079,5.807,7.319,4.607,4.106,6.018
18.221,19.725,11.336,8.325,10.21,7.19,6.864,8.207
13.892,21.215,12.564,10.755,11.234,9.79,7.811,10.004
10.963,21.306,10.241,10.819,9.162,10.189,4.898,9.206
11.304,20.056,5.922,8.32,5.211,8.524,-0.946,6.437
11.575,18.759,3.606,6.077,3.005,7.265,-4.793,5.099
9.923,18.234,5.778,6.064,5.021,7.643,-2.044,6.95
8.634,17.65,10.025,7.02,9.035,8.294,4.288,9.654
9.501,16.947,12.127,7.501,11.034,8.38,6.805,10.074
10.731,16.912,12.012,7.935,10.998,8.722,5.034,8.452
10.714,16.897,12.879,8.756,11.9,9.424,5.014,7.264
10.797,16.508,15.603,9.678,14.371,9.93,8.614,7.462
10.721,16.637,16.349,10.131,14.796,10.239,10.482,7.627
8.063,16.831,11.739,9.664,10.137,10.323,6.798,6.549
3.919,15.484,4.78,8.671,3.292,10.038,0.854,4.914
-0.225,11.757,0.394,7.429,-1.073,9.132,-2.949,3.567
-5.566,6.461,0.055,6.175,-1.542,7.822,-2.639,3.132
-9.379,2.454,3.448,6.185,1.647,7.604,2.174,4.567
-7.386,2.014,7.683,7.209,5.761,8.503,6.885,6.457
-1.785,4.663,8.407,6.991,6.486,8.036,5.628,5.566
3.053,8.799,6.316,5.682,4.361,5.977,0.59,2.314
6.068,12.459,5.958,6.068,3.954,5.487,-1.627,0.975
6.432,13.009,8.071,8.457,6.197,7.304,0.279,3.023
3.289,9.701,9.377,9.825,7.661,8.03,2.604,4.768
-0.793,5.719,9.452,9.327,7.733,6.571,4.252,4.234
-2.555,3.957,10.252,9.008,8.611,5.748,6.183,3.538
-2.873,2.625,8.788,8.046,7.452,5.602,3.438,2.034
-4.647,-0.778,2.12,4.012,0.999,3.39,-6.505,-2.373
-7.317,-4.539,-4.371,-1.481,-5.638,-0.475,-13.401,-6.666
-7.341,-5.431,-6.097,-4.849,-7.753,-3.294,-10.809,-7.393
-4.029,-3.159,-6.303,-5.095,-8.279,-3.875,-6.587,-6.071
-0.803,-0.251,-7.824,-4.124,-9.796,-3.184,-6.849,-5.357
0.135,1.271,-8.645,-3.734,-10.327,-2.644,-8.084,-5.256
0.094,1.531,-6.389,-3.175,-7.87,-2.104,-6.113,-4.215
-0.328,0.837,-2.369,-2.176,-3.925,-1.611,-2.412,-2.526
-2.198,-1.152,-0.347,-2.776,-1.941,-2.67,-1.488,-2.613
-4.613,-4.265,-1.017,-5.011,-2.448,-5.098,-3.312,-4.723
-5.734,-7.984,-0.987,-6.449,-2.424,-6.979,-2.852,-6.279
-6.295,-11.849,1.151,-6.571,-0.696,-7.712,0.324,-6.516
-7.598,-14.613,2.962,-6.51,0.675,-7.481,1.048,-7.015
-7.318,-13.974,3.063,-6.275,0.747,-6.198,-2.017,-8.182
-2.376,-9.167,1.779,-6.088,-0.172,-5.259,-6.347,-9.755
5.24,-2.715,-0.463,-6.63,-2.069,-6.11,-10.381,-11.66
11.255,2.874,-1.398,-6.341,-2.917,-6.657,-11.708,-12.123
14.119,6.842,0.652,-4.003,-0.787,-4.746,-8.957,-10.257
14.039,8.474,3.829,-1.526,2.601,-2.059,-5.109,-8.276
12.429,8.297,6.82,0.32,5.657,0.009,-2.464,-6.93
11.162,7.752,9.437,2.437,8.033,1.972,-1.291,-5.127
9.731,6.436,9.502,3.617,7.841,3.088,-3.054,-3.796
6.919,4.18,7.03,3.205,5.551,2.901,-5.909,-3.298
3.667,2.431,5.969,3.086,5.099,2.76,-4.661,-1.912
1.893,1.905,7.692,3.908,7.185,3.409,0.46,0.232
2.727,2.577,9.609,4.622,8.842,4.717,4.496,1.589
4.561,3.279,8.426,4.006,7.28,5.393,3.886,1.3
3.725,1.972,2.289,1.122,1.046,3.245,-2.351,-1.15
-0.087,-0.256,-5.686,-2.283,-6.977,-0.47,-10.795,-4.378
-3.313,-0.352,-8.799,-2.79,-10.184,-1.595,-14.349,-5.135
-3.633,2.217,-4.502,0.212,-5.741,1.125,-9.519,-1.931
-1.21,6.2,3.1,4.495,2.23,5.447,-0.713,2.958
2.319,9.573,8.216,7.416,7.462,8.494,4.739,5.51
4.423,9.904,9.083,7.584,8.008,8.865,5.101,4.681
4.083,7.44,8.935,6.329,7.487,7.77,4.929,3.391
3.331,5.428,10.601,5.977,9.118,7.132,6.426,3.43
4.097,5.517,12.57,6.593,11.425,7.116,7.03,3.57
5.549,6.483,13.099,7.401,12.437,7.452,6.729,3.747
7.437,8.656,14.075,9.689,13.762,9.326,8.36,5.846
10.479,12.824,16.376,13.52,16.14,12.532,10.66,8.966
12.024,15.193,15.884,14.608,15.491,13.336,8.814,8.869
8.981,11.945,9.937,10.216,9.171,9.825,1.921,4.291
2.958,5.363,2.949,3.955,1.671,5.487,-4.888,-0.654
-2.019,-0.331,0.105,0.335,-1.372,3.653,-6.946,-2.295
-3.674,-3.888,0.335,-0.791,-0.77,3.31,-5.683,-1.634
-2.874,-5.397,0.446,-1.094,-0.26,3.021,-4.686,-0.938
-1.87,-4.937,1.744,0.389,0.972,3.943,-2.418,0.632
-1.222,-3.757,6.133,4.316,5.066,6.569,3.791,4.504
-0.012,-3.259,10.021,7.769,8.775,8.635,9.574,8.002
1.922,-2.962,9.887,8.356,8.582,8.717,9.993,8.055
4.195,-1.284,8.632,8.316,7.357,8.87,8.255,6.984
6.292,1.369,9.581,10.017,8.479,10.499,8.493,7.718
6.353,1.766,10.498,10.784,9.667,10.643,8.517,7.76
3.179,-1.319,8.805,7.788,8.148,7.17,6.178,4.563
-0.358,-3.913,7.261,4.331,6.54,3.869,5.053,1.516
-0.728,-2.72,9.154,4.493,8.328,4.458,7.939,2.164
0.976,-0.295,12.012,5.888,11.24,6.179,10.745,3.817
1.874,0.34,12.39,4.906,11.586,5.413,9.557,3.328
1.605,0.529,11.313,3.016,10.18,3.445,6.5,2.241
0.617,1.473,10.107,1.946,8.686,1.822,4.587,1.655
-0.924,1.968,8.56,0.57,7.297,-0.206,4.928,0.711
-1.767,2.306,7.339,-0.69,6.594,-1.639,6.909,0.522
-0.857,3.712,6.297,-0.17,6.025,-0.592,7.129,2.215
-0.052,4.457,3.678,0.884,3.426,1.438,3.695,3.932
-2.451,2.254,-0.991,0.191,-1.696,1.595,-0.976,3.516
-7.11,-1.188,-5.829,-1.868,-6.851,-0.231,-4.76,1.032
-10.002,-2.315,-8.027,-3.439,-8.777,-2.159,-6.55,-1.613
-10.043,-0.061,-5.597,-2.987,-5.822,-2.364,-3.309,-1.544
-9.57,3.422,-0.548,-0.336,-0.433,-0.679,4.304,1.619
-10.626,4.924,0.992,1.858,1.138,0.344,7.785,3.41
-12.315,4.011,-2.459,1.452,-2.676,-0.864,3.511,1.253
-11.708,3.424,-4.677,0.812,-5.514,-1.742,-0.437,-0.679
-8.547,4.508,-2.578,2.555,-3.786,-0.083,1.3,0.836
-6.26,5.343,0.285,4.99,-0.755,2.327,5.186,3.263
-6.445,4.158,2.056,5.596,1.418,3.269,8.227,4.28
-6.062,1.989,4.349,5.12,3.865,3.183,10.553,4.775
-3.142,0.72,6.999,5.087,6.341,3.014,11.144,5.183
-1.476,0.462,7.304,4.468,6.454,2.102,7.749,3.968
-3.417,0.917,4.924,2.56,4.025,0.264,1.503,0.683
-3.995,2.726,4.035,1.979,3.185,-0.484,-1.296,-1.689
-0.216,5.446,7.859,4.877,7.21,1.455,3.497,0.165
2.758,6.751,13.043,9.119,12.621,4.807,10.528,4.826
1.016,4.964,13.765,11.025,13.289,6.919,11.344,7.56
-1.922,1.308,10.306,9.826,9.61,6.698,6.46,6.917
-2.02,-1.568,7.706,7.479,6.86,5.362,3.186,5.922
-1.316,-3.501,6.792,5.072,5.853,3.85,3.868,6.134
-4.264,-6.867,3.158,1.298,2.332,0.79,3.634,4.632
-9.095,-11.059,-3.813,-3.771,-4.314,-4.032,-0.77,-0.275
-8.382,-11.24,-7.434,-5.854,-7.85,-6.4,-4.634,-3.948
-1.344,-6.162,-3.827,-2.588,-4.453,-3.38,-1.949,-1.802
3.374,-1.124,1.498,1.459,0.8,1.068,4.56,2.801
1.331,-0.227,2.43,1.524,1.739,1.918,7.117,3.882
-2.334,-2.104,0.417,-0.947,-0.468,0.018,4.546,1.94
-2.946,-3.556,0.658,-2.079,-0.406,-0.787,3.534,1.693
-1.58,-3.253,4.216,-0.844,3.127,0.678,7.153,4.166
-0.461,-2.154,6.729,1.569,5.563,3.036,9.411,6.321
0.242,-1.102,5.881,4.731,4.615,5.728,6.915,7.165
1.439,0.368,4.702,8.351,3.394,8.7,5.012,8.469
2.988,1.769,4.447,10.106,3.093,9.863,6.022,9.965
3.91,2.382,3.265,8.86,2.004,7.965,5.891,10.34
5.566,4.07,2.509,8,1.482,6.148,4.387,11.087
9.699,7.438,4.617,9.725,3.689,6.823,5.378,13.215
13.525,8.998,7.68,10.537,6.703,7.076,8.715,13.855
13.655,7.459,8.565,7.86,7.481,4.571,9.657,11.066
12.035,6.544,7.54,5.106,6.353,2.519,5.619,8.088
12.861,9.116,7.622,6.292,6.493,4.471,1.098,8.741
16.362,13.768,11.092,10.566,10.053,9.049,3.417,12.267
18.196,16.685,15.655,13.587,14.516,11.987,11.916,15.01
15.253,14.709,15.206,11.881,14.004,10.391,15.974,13.927
10.144,8.9,8.333,6.616,7.286,5.768,9.863,9.319
7.754,4.382,1.993,2.581,1.039,2.755,2.166,5.144
8.932,3.962,1.42,2.091,0.306,3.156,1.312,3.997
9.882,4.763,4.322,3.424,3.088,4.733,5.192,5.009
8.188,3.468,7.71,5.137,6.737,5.927,10.481,7.497
5.192,0.17,9.395,5.948,8.886,6.12,14.38,9.941
1.088,-4.394,5.279,2.811,5.034,3.248,10.83,8.113
-4.079,-8.724,-3.841,-3.579,-3.997,-2.194,0.235,1.77
-6.009,-8.664,-9.165,-6.38,-9.241,-4.693,-6.675,-2.49
-2.819,-3.586,-6.083,-2.48,-6.249,-1.564,-3.541,-0.947
-0.923,-0.328,-1.993,1.975,-2.453,1.998,2.013,1.626
-4.867,-3.18,-4.169,1.479,-4.776,1.164,0.868,0.75
-8.809,-6.965,-8.349,-0.869,-8.81,-1.18,-3.439,-0.718
-7.313,-7.102,-9.153,-1.043,-9.486,-1.277,-4.701,-0.182
-4.732,-6.471,-8.914,-0.664,-9.372,-1.032,-4.747,-0.568
-5.903,-7.398,-7.997,-0.866,-8.682,-1.824,-3.079,-2.174
-8.984,-8.039,-3.787,-0.067,-4.62,-1.513,3.387,-1.35
-11.256,-7.887,-0.095,0.753,-0.992,-0.512,8.741,0.727
-12.254,-8.081,-1.312,-0.447,-2.1,-1.289,7.314,0.358
-11.701,-8.093,-4.59,-2.578,-5.005,-3.025,3.571,-1.355
-10.233,-7.241,-7.316,-4.283,-7.368,-3.932,0.112,-3.015
-9.851,-7.28,-10.194,-6.355,-10.2,-5.015,-4.719,-6.052
-10.979,-9.763,-11.193,-8.571,-11.238,-7.105,-6.538,-8.827
-11.734,-12.427,-8.529,-8.989,-8.422,-8.229,-2.254,-7.812
-10.978,-12.064,-5.849,-7.31,-5.726,-6.584,1.329,-4.251
-9.212,-8.858,-5.885,-4.893,-6.09,-3.207,-0.124,-1.706
-7.595,-5.523,-6.296,-2.887,-6.728,-0.637,-1.725,-0.776
-6.857,-3.646,-5.11,-1.868,-5.384,0.323,-0.159,0.135
-6.17,-2.641,-3.59,-1.527,-3.575,1.219,1.3,1.854
-5.58,-3.014,-4.094,-2.231,-3.894,1.718,-0.941,2.322
-6.061,-5.707,-6.148,-4.859,-5.866,-0.481,-4.369,-0.603
-6.017,-8.276,-6.426,-8.026,-6.14,-4.515,-3.748,-4.783
-4.031,-8.416,-4.691,-9.682,-4.557,-7.4,0.027,-6.606
-1.379,-7.399,-4.012,-9.44,-4.11,-8.01,2.162,-5.288
1.084,-6.602,-4.892,-7.61,-4.965,-6.801,1.736,-2.552
2.922,-6.195,-4.395,-4.711,-4.151,-4.715,1.609,-0.211
3.175,-6.509,-0.993,-1.424,-0.525,-2.751,3.44,1.614
3.011,-6.931,2.82,1.924,3.288,-1.133,5.546,3.822
4.823,-5.898,4.915,5.242,5.194,0.832,6.613,6.962
7.842,-3.687,6.254,7.498,6.074,2.921,7.191,10.163
9.576,-2.017,7.41,7.41,6.904,3.683,7.239,11.742
9.932,-0.734,8.086,6.218,7.819,3.491,7.437,12.134
9.378,0.923,8.087,5.503,8.077,3.511,8.049,11.844
7.273,1.641,5.464,3.308,5.2,2.018,5.67,7.968
4.923,0.605,-0.452,-1.648,-0.956,-2.204,-0.587,0.115
5.224,0.031,-5.033,-5.536,-5.234,-5.571,-4.602,-5.499
8.409,2.256,-3.774,-4.643,-3.516,-4.32,-2.007,-4.503
11.472,5.824,1.757,-0.869,2.033,-0.079,3.85,-0.469
11.835,7.334,6.76,1.64,6.758,2.918,7.235,1.147
9.741,6.066,7.898,1.253,7.811,2.756,5.474,-0.857
6.784,3.869,5.269,-1.282,5.189,0.327,0.468,-4.647
4.313,2.499,2.552,-3.776,2.23,-1.943,-2.71,-7.673
4.365,3.247,3.649,-3.497,3.066,-1.763,-0.851,-7.748
8.264,6.811,7.992,0.043,7.509,0.772,3.843,-5.197
13.129,11.984,10.994,4.283,10.809,3.547,6.438,-2.793
14.793,16.052,10.055,6.781,10.015,5.189,5.233,-1.961
13.051,16.858,7.491,7.397,7.449,5.722,3.238,-1.582
10.282,14.549,6.989,7.508,6.836,5.76,3.663,-0.527
9.004,12.472,10.675,9.534,10.216,7.21,7.816,2.044
10.392,13.363,17.416,14.63,16.652,11.178,14.636,6.255
11.646,14.556,21.815,19.585,21.08,14.74,18.618,9.525
10.016,12.95,21.241,21.242,20.836,15.385,17.013,10.515
7.237,9.865,19.634,20.324,19.587,14.303,15.353,11.091
5.024,6.881,19.151,17.692,19.318,12.348,16.438,10.935
3.647,4.934,19.265,14.974,19.408,10.708,17.623,9.867
4.114,5.154,20.634,15.187,20.572,11.648,18.435,10.712
5.619,5.986,20.456,16.706,20.413,13.313,16.793,11.67
5.669,5.061,15.411,15.309,15.798,11.94,9.724,8.266
4.443,3.418,10.513,12.667,11.27,9.081,3.238,4.084
4.823,4.015,13.105,13.893,13.777,9.421,6.821,6.097
8.427,7.89,21.693,19.062,22.079,13.682,18.805,13.077
13.22,12.847,27.513,23.265,27.72,17.584,25.879,17.026
14.857,15.006,23.801,22.656,23.848,16.791,17.486,12.871
12.19,13.556,14.516,19.281,14.385,13.104,1.805,6.004
10.803,13.906,12.897,20.332,12.744,13.916,-0.294,7.751
16.07,20.659,24.56,29.182,24.568,22.493,16.568,20.381
24.388,28.958,38.684,39.363,38.907,32.609,35.637,33.962
26.862,29.611,40.798,40.793,41.122,34.608,38.732,36.191
20.887,20.942,28.629,31.146,28.825,25.859,22.762,23.608
13.567,10.844,15.314,19.876,15.37,15.287,4.416,9.051
10.997,6.266,12.744,16.067,12.897,11.589,1.011,5.95
11.652,6.48,16.843,17.728,17.072,12.398,7.484,9.367
12.746,9.041,19.881,20.294,19.881,13.555,12.038,10.885
11.204,11.207,21.496,22.355,21.318,14.788,15.631,12.744
3.897,8.305,20.893,21.002,20.958,13.649,19.074,14.848
-5.846,0.615,14.065,14.194,14.345,7.619,13.791,9.871
-12.328,-6.083,2.6,5.441,2.571,-0.445,-1.103,-1.879
-14.631,-8.422,-3.421,1.063,-3.764,-4.61,-9.546,-8.091
-14.217,-7.648,1.157,3.048,1.16,-2.825,-2.05,-2.638
-12.855,-6.186,7.311,6.421,7.903,0.143,7.224,4.244
-13.038,-5.636,5.333,5.767,6.104,-0.673,3.133,2.776
-16.157,-7.783,-1.388,1.749,-0.656,-3.881,-7.209,-2.275
-19.277,-11.497,-3.025,0.132,-2.167,-4.091,-7.989,-1.43
-16.151,-10.227,3.945,5.407,4.988,1.683,2.768,6.287
-6.758,-2.421,13.551,13.917,14.689,9.191,14.217,13.796
-1.181,2.785,16.631,16.27,17.922,10.001,16.437,14.224
-5.319,-0.707,12.26,9.803,13.777,2.884,10.827,8.664
-10.697,-6.286,9.405,2.732,10.955,-3.239,7.818,4.908
-8.145,-5.255,12.816,2.185,14.235,-1.953,11.121,6.417
-2.191,-0.338,16.889,4.931,18.291,2.147,14.099,8.549
-1.397,0.004,16.518,4.71,17.875,2.208,13.268,7.342
-3.524,-3.449,13.451,2.24,14.427,-0.778,11.211,4.396
-1.789,-3.777,11.195,1.777,11.738,-2.048,9.287,2.929
2.865,-0.514,10.587,3.232,11.188,-1.097,7.073,3.6
5.581,1.818,10.603,3.399,11.631,-0.863,5.024,4.068
6.027,1.607,10.918,1.626,12.036,-2.426,4.774,2.845
7.953,1.901,12.34,1.022,12.958,-3.042,7.408,2.072
13.065,5.496,13.5,3.18,13.669,-0.958,10.045,2.913
15.851,7.705,10.693,3.895,11.038,-0.366,7.897,2.013
11.151,2.659,5.711,0.716,6.479,-3.907,3.267,-1.263
4.875,-4.026,4.738,-1.406,5.591,-6.33,2.478,-2.111
3.964,-4.602,6.196,-0.581,6.941,-5.227,2.72,-1.139
4.893,-2.39,4.943,-1.414,5.819,-5.332,-1.3,-3.842
2.063,-3.457,2.367,-5.179,3.477,-8.49,-5.992,-9.324
-3.473,-7.543,0.238,-8.872,1.167,-11.959,-7.641,-12.993
-6.101,-9.65,-1.404,-9.211,-1.092,-12.247,-6.813,-12.643
-2.455,-5.194,-0.279,-4.27,-0.411,-7.103,-3.323,-7.835
4.462,3.652,3.116,2.945,3.067,0.372,1.023,-1.432
9.16,9.401,4.127,6.549,4.347,4.044,1.538,1.62
9.905,9.367,2.689,5.97,2.988,3.644,-1.181,0.985
9.187,8.41,4.901,6.453,5.159,4.419,0.651,1.788
8.976,10.271,11.386,10.494,11.699,8.065,8.9,6.611
8.21,12.742,13.516,13.912,13.975,10.565,13.044,10.538
5.478,11.825,6.911,12.077,7.43,8.66,6.489,8.035
2.873,7.206,-0.964,6.566,-0.537,3.994,-1.893,1.683
3.637,2.688,-2.702,1.87,-2.466,-0.45,-2.753,-2.467
5.007,-0.05,-0.641,-1.177,-0.724,-4.252,1.272,-3.44
1.953,-3.058,-0.26,-3.471,-0.762,-7.072,3.461,-3.402
-3.256,-6.007,-4.362,-5.001,-5.175,-8.004,-1.02,-4.653
-5.146,-6.498,-11.88,-6.223,-12.797,-8.094,-11.232,-8.013
-3.328,-4.387,-16.411,-6.192,-17.351,-7.783,-17.109,-9.746
-0.459,-1.229,-14.031,-3.701,-15.029,-6.272,-13.575,-7.384
2.487,1.413,-9.174,-1.136,-10.318,-4.783,-8.028,-4.694
5.721,3.725,-6.227,-0.245,-7.602,-3.97,-5.425,-3.939
7.488,6.601,-5.29,0.249,-6.703,-2.69,-4.209,-3.371
4.976,7.293,-6.665,-0.526,-7.745,-2.508,-4.42,-3.24
0.409,3.544,-9.854,-3.913,-10.606,-5.249,-6.415,-4.492
0.19,0.38,-11.494,-6.735,-12.275,-7.715,-8.873,-5.645
5.211,3.422,-9.69,-5.743,-10.701,-6.318,-10.67,-5.509
10.074,10.148,-6.37,-2.568,-7.678,-2.797,-10.254,-4.673
11.136,13.05,-4.445,-0.885,-6.15,-1.237,-7.913,-4.644
7.976,8.218,-4.947,-2.159,-6.826,-2.744,-6.527,-6.018
1.959,0.133,-6.117,-4.568,-7.728,-4.745,-5.792,-6.733
-3.251,-4.243,-5.918,-5.719,-7.403,-5.428,-3.333,-5.238
-5.334,-5.108,-5.406,-6.049,-7.239,-6.505,-0.86,-3.383
-5.497,-6.586,-6.765,-7.117,-8.741,-8.851,-1.543,-2.86
-5.227,-8.565,-8.939,-8.173,-10.61,-9.888,-4.081,-2.515
-6.402,-10.035,-8.949,-8.406,-10.626,-9.225,-3.854,-1.269
-9.266,-11.313,-6.529,-8.709,-8.754,-9.677,0.152,-0.187
-7.899,-8.632,-4.605,-8.265,-7.194,-10.329,2.456,-0.495
-1.042,-1.14,-6.846,-6.627,-9.173,-8.86,-2.074,-2.539
1.003,1.445,-13.693,-7.521,-15.499,-8.487,-10.214,-5.965
-6.041,-5.982,-19.519,-12.087,-21.065,-11.908,-13.415,-8.886
-13.767,-13.978,-19.539,-15.029,-21.152,-15.07,-9.995,-9.416
-16.709,-14.78,-17.742,-14.021,-19.466,-14.942,-8.366,-9.058
-17.132,-12.927,-19.817,-13.625,-21.443,-14.747,-14.055,-11.058
-16.595,-12.684,-22.651,-15.428,-24.013,-16.095,-20.377,-14.173
-12.583,-9.49,-19.005,-14.36,-20.248,-14.974,-17.533,-12.867
-2.415,-0.187,-8.929,-8.087,-10.356,-9.264,-6.224,-5.774
9.968,9.495,-1.053,-2.102,-2.739,-3.449,2.288,0.727
15.213,13.231,-2.105,-2.171,-3.774,-2.737,0.112,0.523
11.575,13.082,-7.324,-5.499,-8.739,-5.157,-6.317,-3.368
7.046,13.208,-7.417,-5.604,-8.845,-5.185,-5.978,-3.749
4.882,10.724,-2.571,-3.462,-4.419,-3.759,0.386,-0.962
1.481,3.838,-0.267,-4.084,-2.4,-5.304,3.18,-1.043
-1.151,0.327,-2.449,-5.997,-4.53,-7.83,-1.389,-4.313
3.702,6.077,-3.369,-4.234,-5.393,-6.242,-6.395,-4.896
13.935,14.683,0.028,-0.145,-1.893,-2.028,-4.251,-1.193
18.772,16.279,3.166,0.46,1.646,-0.888,2.501,1.865
14.11,10.025,2.453,-2.909,1.287,-3.246,6.269,1.811
7.333,3.395,-0.092,-5.669,-1.383,-5.102,4.44,0.658
5.009,1.786,-3.751,-6.97,-5.404,-6.357,-2.513,-2.275
6.169,3.845,-9.453,-9.176,-11.248,-9.171,-12.183,-8.3
9.624,7.674,-12.067,-9.869,-13.664,-10.155,-15.157,-11.155
15.532,13.764,-6.051,-5.378,-7.312,-5.135,-4.769,-5.083
19.934,20.537,2.877,0.422,1.671,1.843,8.936,3.128
19.567,23.755,4.253,0.882,2.76,3.683,10.302,3.772
15.938,19.954,-4.08,-5.238,-5.711,-1.447,-2.394,-2.957
10.152,10.511,-15.748,-14.26,-17.267,-10.189,-17.606,-11.425
4.453,3.11,-22.698,-20.196,-24.336,-16.386,-25.136,-17.435
4.988,4.256,-19.667,-17.877,-21.674,-14.764,-21.875,-17.003
13.755,12.064,-7.237,-7.998,-9.383,-6.129,-8.64,-8.144
23.433,19.82,4.786,1.531,2.864,2.142,4.895,1.806
24.576,21.611,4.562,2.461,2.924,2.883,4.085,1.929
15.477,14.97,-5.805,-5.17,-7.304,-3.822,-8.233,-6.344
4.602,4.854,-11.878,-13.204,-13.338,-11.058,-12.838,-11.6
1.722,0.927,-6.405,-13.672,-7.811,-11.739,-2.788,-8.441
6.416,5.246,3.177,-6.728,1.936,-5.624,9.39,-1.168
11.858,11.005,7.693,0.796,6.726,1.307,12.707,4.378
17.656,15.496,9.413,5.829,8.619,6.149,12.042,7.962
25.274,19.896,13.89,10.064,12.994,10.363,15.242,11.687
26.899,18.988,14.187,9.993,13.154,10.771,14.89,11.084
18.168,10.189,3.416,1.992,2.583,4.088,2.913,2.197
10.34,3.541,-6.975,-6.237,-7.444,-2.684,-8.996,-6.485
12.183,5.528,-6.076,-7.106,-6.466,-2.791,-9.157,-6.586
17.128,8.851,-1.587,-5.228,-2.081,-0.734,-4.921,-3.136
18.634,8.28,-1.915,-5.944,-2.344,-1.549,-4.561,-2.518
18.353,8.003,-4.25,-7.205,-4.588,-3.215,-5.945,-3.441
16.736,10.147,-5.569,-7.127,-6.1,-3.835,-7.184,-4.273
13.244,11.758,-6.632,-6.845,-7.462,-4.295,-8.604,-5.383
11.622,11.961,-7.912,-7.3,-8.661,-5.065,-9.614,-6.391
13.1,11.637,-10.054,-9.227,-10.316,-6.742,-11.366,-7.839
13.392,9.616,-14.114,-13.062,-14.078,-10.138,-16.059,-11.311
11.284,5.673,-19.199,-17.386,-19.386,-13.922,-22.77,-16.141
8.825,1.528,-22.497,-19.927,-22.972,-15.707,-26.857,-18.678
4.826,-2.84,-22.846,-20.079,-23.204,-15.28,-25.921,-16.911
-0.968,-6.913,-21.4,-18.442,-21.596,-14.019,-23.156,-13.739
-4.219,-7.778,-18.991,-15.132,-19.411,-12.23,-21.331,-12.019
-3.461,-5.598,-16.553,-10.953,-17.066,-9.535,-19.713,-10.556
-3.097,-4.779,-15.254,-8.286,-15.213,-7.164,-17.147,-8.157
-6.506,-7.982,-14.538,-9.004,-13.856,-7.507,-13.27,-6.23
-11.088,-12.591,-13.186,-12.304,-12.428,-10.41,-8.938,-5.696
-12.734,-14.919,-12.142,-15.972,-11.638,-13.181,-7.228,-6.381
-13.587,-16.702,-14.612,-20.231,-14.101,-16.131,-11.42,-9.786
-18.512,-21.389,-21.257,-26.119,-20.353,-21.463,-19.818,-16.638
-25.132,-25.332,-26.591,-30.037,-25.382,-25.992,-25.579,-22.515
-26.897,-22.958,-25.515,-27.575,-24.421,-24.508,-24.811,-22.481
-23.797,-17.504,-21.056,-21.514,-20.095,-19.018,-20.764,-18.076
-20.391,-14.785,-18.636,-17.675,-17.467,-15.143,-17.172,-13.992
-17.749,-13.458,-18.368,-17.033,-17.044,-13.861,-14.444,-12.048
-16.822,-13.109,-20.682,-19.572,-19.546,-15.228,-15.88,-13.548
-20.884,-18.663,-27.856,-26.9,-26.904,-21.138,-24.791,-19.952
-27.321,-27.027,-34.056,-34.758,-33.039,-27.898,-32.765,-26.842
-28.141,-27.352,-29.793,-35.042,-28.575,-28.04,-28.649,-27.17
-21.636,-18.749,-18.095,-27.932,-16.655,-21.713,-18.056,-22.121
-14.784,-10.408,-10.81,-20.785,-9.29,-15.415,-14.952,-18.552
-12.532,-5.98,-10.257,-16.017,-8.893,-11.003,-18.593,-16.893
-12.533,-2.675,-9.473,-10.922,-8.262,-5.977,-18.402,-12.379
-12.792,-2.103,-7.626,-7.083,-6.292,-1.912,-14.412,-5.894
-14.264,-8.099,-9.265,-8.322,-7.656,-2.394,-13.291,-2.529
-16.236,-17.539,-13.308,-12.657,-11.556,-5.795,-14.513,-2.912
-19.081,-24.82,-15.283,-15.701,-13.417,-8.143,-13.917,-3.796
-25.783,-30.099,-14.044,-17.091,-11.913,-9.041,-10.41,-3.2
-34.523,-34.668,-11.421,-18.012,-9.211,-9.828,-6.108,-1.664
-39.105,-35.853,-10.142,-17.848,-8.234,-10.003,-5.065,-0.829
-38.869,-33.457,-11.09,-16.471,-9.359,-8.802,-7.855,-1.641
-37.417,-31.325,-11.036,-14.642,-9.086,-6.64,-8.845,-3.368
-33.94,-29.313,-6.971,-11.958,-4.759,-3.912,-5.217,-5.133
-27.338,-25.781,-2.289,-9.524,-0.035,-2.226,-3.37,-8.39
-22.993,-24.386,-2.909,-11.031,-0.82,-4.477,-8.405,-14.926
-24.684,-27.323,-7.988,-16.475,-6.084,-10.016,-14.451,-22.277
-28.313,-30.653,-12.475,-21.272,-10.56,-14.737,-15.951,-26.302
-30.946,-32.385,-16.576,-23.682,-14.577,-17.313,-18.318,-27.484
-34.069,-34.566,-21.493,-24.691,-19.54,-18.506,-24.56,-27.277
-36.417,-36.58,-22.831,-22.896,-20.957,-16.841,-26.983,-23.153
-35.89,-35.891,-18.889,-17.85,-16.977,-11.752,-22.511,-14.979
-34.687,-33.726,-13.551,-12.781,-11.45,-6.188,-16.253,-6.934
-35.262,-33.332,-8.369,-9.922,-6.088,-2.784,-9.334,-0.247
-37.019,-35.032,-4.169,-9.093,-2.018,-1.814,-2.111,5.754
-39.136,-36.943,-3.756,-10.068,-2.024,-2.606,0.43,9.144
-41.696,-38.304,-6.292,-12.57,-4.858,-4.481,-2.182,8.646
-43.59,-39.604,-8.71,-16.143,-7.341,-7.084,-4.915,5.39
-42.838,-40.524,-10.69,-20.15,-9.374,-9.795,-5.758,0.596
-39.618,-40.323,-11.978,-23.102,-10.621,-11.527,-5.578,-4.63
-36.556,-39.274,-12.068,-23.986,-10.38,-12.259,-6.452,-9.573
-34.271,-36.594,-12.142,-22.82,-10.078,-12.271,-10.684,-14.196
-29.668,-30.613,-12.038,-19.418,-9.901,-10.531,-15.191,-17.501
-22.64,-23.646,-11.026,-14.937,-9.091,-7.349,-15.088,-18.62
-19.021,-20.631,-11.552,-12.638,-9.838,-5.488,-13.459,-19.607
-22.156,-22.538,-15.254,-14.241,-13.535,-6.498,-15.773,-22.812
-29.069,-26.781,-18.462,-18.149,-16.548,-9.457,-19.268,-26.767
-35.427,-31.021,-17.417,-21.88,-15.505,-12.666,-18.837,-28.504
-38.055,-33.326,-13.636,-23.899,-12.023,-14.284,-15.923,-27.48
-37.523,-33.951,-10.803,-24.288,-9.313,-13.895,-14.286,-25.306
-37.3,-35.529,-10.172,-24.105,-8.441,-13.168,-14.491,-23.413
-36.1,-36.98,-9.447,-22.193,-7.608,-11.941,-14.653,-20.257
-30.73,-34.418,-5.612,-16.105,-3.955,-7.71,-12.07,-12.489
-25.379,-29.769,-0.08,-8.151,1.566,-1.513,-6.597,-1.089
-26.174,-28.982,1.45,-4.535,3.284,1.743,-3.19,7.956
-31.443,-32.023,-3.345,-6.856,-1.525,0.273,-5.177,11.324
-35.487,-33.63,-8.738,-10.193,-7.054,-2.433,-6.728,12.177
-36.64,-33.187,-9.165,-11.102,-7.463,-3.636,-2.267,13.753
-36.641,-34.156,-7.789,-11.423,-6.122,-4.734,2.41,14.053
-36.091,-35.485,-9.01,-12.409,-7.59,-6.649,1.243,10.979
-34.593,-33.992,-11.853,-12.685,-10.561,-7.821,-2.843,6.26
-32.201,-31.008,-16.066,-12.537,-14.594,-8.056,-7.771,1.168
-29.748,-29.285,-22.394,-13.422,-20.666,-8.76,-14.225,-4.842
-29.764,-29.18,-27.404,-15.13,-25.615,-10.392,-18.413,-11.197
-32.257,-29.303,-26.613,-16.418,-24.994,-11.919,-16.435,-15.729
-32.789,-28.123,-20.391,-16.765,-18.999,-12.117,-11.124,-17.038
-30.769,-26.145,-13.745,-17.169,-12.481,-11.765,-8.274,-17.253
-29.427,-24.158,-10.432,-18.018,-9.199,-12.164,-10.2,-19.577
-27.512,-21.422,-8.742,-17.484,-7.459,-12.216,-13.853,-22.522
-23.531,-18.768,-5.266,-14.714,-3.858,-10.705,-14.397,-22.103
-21.249,-17.559,-0.265,-11.533,1.251,-8.431,-10.901,-18.353
-22.187,-17.066,4.009,-9.464,5.533,-6.245,-5.641,-13.78
-23.538,-17.923,5.582,-8.819,7.122,-4.697,-1.551,-9.181
-25.836,-22.062,2.223,-9.94,3.932,-4.631,-2.659,-4.786
-31.18,-27.639,-4.371,-11.516,-2.417,-5.024,-7.732,-0.177
-36.742,-31.087,-7.389,-10.837,-5.261,-3.725,-7.45,6.69
-39.295,-33.254,-5.189,-8.956,-3.019,-2.253,0.706,14.968
-40.525,-36.93,-5.183,-10.416,-3.197,-4.412,5.446,19.388
-42.094,-40.179,-11.186,-15.496,-9.639,-9.252,0.176,17.639
-41.925,-38.442,-16.046,-18.476,-14.898,-11.524,-4.824,14.452
-37.822,-31.553,-13.766,-15.976,-12.624,-9.445,-0.417,14.295
-31.12,-23.861,-9.991,-11.706,-8.531,-6.523,5.055,14.543
-26.09,-18.832,-11.485,-9.994,-9.759,-5.533,2.19,11.216
-24.493,-16.031,-14.367,-9.854,-12.637,-5.412,-2.56,6.112
-21.979,-12.744,-12.51,-8.438,-10.892,-4.472,-1.586,2.469
-14.854,-7.779,-7.828,-5.831,-6.292,-3.06,0.613,-0.251
-7.214,-2.709,-4.127,-3.741,-2.803,-2.123,0.077,-3.02
-3.48,0.993,-0.013,-2.218,0.958,-1.188,1.194,-4.582
-0.757,3.067,5.963,-0.715,6.893,0.17,5.947,-5.023
2.032,2.378,10.389,-0.446,11.696,0.423,9.292,-6.95
-0.402,-1.97,9.484,-2.663,10.973,-1.685,7.117,-11.243
-8.424,-8.3,3.536,-6.955,4.805,-5.652,0.538,-16.126
-15.906,-14.082,-3.803,-12.035,-2.609,-10.467,-6.062,-19.95
-20.242,-18.408,-8.466,-16.366,-7.08,-14.725,-9.087,-21.683
-23.267,-22.246,-10.356,-19.229,-9.089,-17.466,-10.526,-21.255
-26.454,-26.282,-12.46,-20.756,-11.762,-18.86,-13.661,-19.497
-29.9,-29.449,-14.73,-20.787,-14.468,-18.758,-15.731,-16.22
-32.617,-31.35,-15.081,-19.762,-14.719,-17.127,-13.981,-11.109
-33.983,-33.235,-14.133,-18.734,-13.35,-15.089,-10.751,-5.146
-33.834,-35.01,-13.304,-17.572,-12.235,-13.37,-7.072,1.12
-30.975,-34.95,-12.569,-15.639,-11.59,-11.5,-2.613,7.244
-26.8,-32.805,-12.133,-13.389,-11.394,-9.196,0.161,11.457
-25.932,-30.235,-12.133,-11.999,-11.338,-7.622,0.285,12.678
-27.787,-27.766,-11.405,-11.884,-10.257,-7.923,0.348,11.852
-26.795,-24.772,-9.306,-11.963,-7.983,-8.808,1.176,10.109
-22.882,-23.705,-7.104,-11.423,-5.894,-8.729,0.815,7.664
-20.186,-26.661,-5.174,-10.148,-4.047,-7.838,-0.131,5.575
-17.728,-27.939,-1.959,-6.878,-0.944,-5.321,1.273,5.934
-13.043,-22.374,1.453,-1.828,2.125,-0.874,3.308,7.973
-8.897,-15.07,1.701,1.253,2.081,2.27,1.944,8.271
-6.317,-10.908,0.412,1.124,0.882,2.465,0.104,6.626
-0.626,-6.612,2.726,1.574,3.544,2.637,3.411,5.792
7.679,-0.912,7.554,4.02,8.587,3.774,8.799,5.446
10.55,1.71,8.888,5.058,9.815,3.12,8.918,3.019
6.975,1.26,6.958,3.943,7.764,0.977,5.413,-0.569
5.327,2.952,7.932,4.147,8.802,1.04,5.821,-2.046
7.447,6.385,11.757,5.673,12.447,3.006,8.56,-1.641
5.761,5.49,10.702,4.21,10.828,2.443,4.746,-2.786
-1.344,0.015,3.597,-0.058,3.531,-0.856,-3.929,-5.32
-4.583,-2.38,0.178,-0.709,0.584,-1.435,-4.973,-4.072
1.047,1.852,4.721,4.284,5.485,2.596,3.875,2.403
7.749,6.51,9.657,8.839,10.342,6.684,11.763,8.919
7.724,6.076,10.174,9.197,10.884,8.076,13.884,12.633
2.936,2.657,9.111,8.094,10.019,8.317,14.226,15.296
-1.404,-0.276,8.052,7.579,8.901,7.979,14.118,16.936
-3.545,-2.412,6.182,6.515,6.857,6.351,12.472,16.16
-3.707,-3.803,4.426,4.536,5.272,4.467,10.496,13.996
-1.443,-3.424,4.276,3.148,5.381,3.79,9.918,12.342
3.35,-0.634,5.391,3.599,6.218,4.677,10.626,11.748
8.646,3.911,6.268,5.362,6.421,6.833,11.109,12.027
11.499,8,5.927,6.152,5.723,8.251,10.623,12.305
12.257,9.854,4.692,4.814,4.627,7.141,9.955,11.566
14.418,10.532,3.831,3.945,3.941,5.844,9.776,10.554
17.47,11.559,4.261,6.194,4.342,7.38,10.289,11.02
16.606,11.95,4.539,9.685,4.63,10.185,10.535,12.391
11.267,10.49,2.592,11.517,2.845,11.575,9.042,12.464
6.031,8.474,0.624,12.68,0.898,12.497,8.11,11.835
4.498,8.106,2.622,15.094,2.711,14.516,11.057,12.916
7.252,10.357,7.637,18.026,7.707,16.989,15.16,15.272
12.1,14.502,11.24,20.143,11.593,19.199,15.178,16.651
15.272,18.465,11.943,21.523,12.582,21.238,12.055,17.291
15.68,21.149,12.55,23.503,13.204,23.713,11.921,19.633
16.141,22.825,14.62,26.314,15.002,26.671,16.12,23.552
18.679,22.659,15.424,26.887,15.444,27.62,19.054,25.13
22.118,20.962,14.37,23.958,14.37,25.525,19.522,23.311
23.759,20.474,15.244,21.921,15.746,24.217,22.78,22.679
21.094,20.518,17.234,22.744,18.133,24.963,27.184,24.884
15.276,17.487,15.41,22.34,16.128,23.856,25.912,26.032
10.917,12.062,11.352,19.4,11.823,20.551,21.936,25.269
8.656,7.506,9.155,16.67,9.67,18.244,21.14,24.665
5.273,4.507,6.692,14.234,7.154,16.712,19.241,23.181
1.309,2.922,2.444,11.067,2.632,14.408,12.804,20.069
-0.551,2.733,0.078,8.546,0.167,12.022,8.006,17.559
-0.428,2.699,1.586,8.054,1.89,10.758,9.838,17.137
0.289,1.813,4.59,8.95,5.088,10.608,14.902,18.18
0.845,0.346,6.233,9.429,6.605,10.135,16.913,18.735
2.05,-0.783,6.971,9.257,7.112,9.034,15.414,17.707
4.698,-1.113,8.433,9.862,8.668,8.978,14.221,15.918
6.568,-1.726,8.864,10.447,9.344,9.573,12.807,13.462
6.014,-3.717,6.662,8.924,7.111,8.658,9.341,10.053
4.783,-6.412,4.123,5.882,4.422,6.28,6.472,6.918
3.434,-8.752,2.592,2.766,2.819,3.491,5.909,4.737
-0.185,-10.684,-0.268,-0.856,-0.196,-0.076,5.099,2.389
-6.021,-12.084,-4.979,-4.886,-5.141,-4.232,3.171,-0.454
-10.707,-12.406,-8.219,-7.669,-8.598,-7.303,2.175,-2.466
-12.818,-12.267,-8.806,-9.002,-9.424,-8.74,1.235,-3.503
-13.562,-12.596,-8.332,-9.286,-9.02,-8.87,-0.903,-4.007
-12.921,-12.835,-7.017,-7.535,-7.34,-7.44,-1.354,-2.919
-10.332,-12.204,-4.759,-3.957,-4.607,-5.062,0.826,-0.539
-6.113,-10.383,-2.073,0.084,-1.839,-2.702,3.085,1.145
-0.335,-7.058,1.153,4.385,1.113,-0.07,5.514,2.184
6.462,-2.84,4.662,8.348,4.297,2.906,9.206,3.549
12.992,1.487,7.876,10.944,7.369,5.802,12.372,4.887
18.105,5.719,10.492,12.735,10.035,8.679,13.007,5.842
18.92,7.705,10.981,13.636,10.47,10.324,10.892,5.985
13.373,4.952,9.182,12.494,8.539,9.295,8.664,5.436
7.352,0.376,9.436,10.994,8.996,7.782,10.949,6.432
9.064,-0.285,14.702,11.964,14.587,9.101,17.912,10.149
15.648,2.557,20.815,13.873,20.491,11.705,23.548,13.679
17.503,3.15,21.144,12.631,20.209,10.948,22.282,13.391
13.746,0.332,15.312,8.408,14.07,6.718,15.333,10.144
11.334,-1.21,10.243,5.504,9.1,3.642,10.014,8.121
12.859,0.837,11.126,5.866,10.101,3.77,11.1,8.82
15.426,4.132,15.607,7.613,14.626,5,15.797,10.301
17.054,6.624,18.839,9.113,17.851,5.967,18.896,11.182
16.887,8.264,18.545,10.328,17.382,7.228,18.221,11.292
14.829,10.094,15.269,11.468,13.899,8.973,15.05,10.39
13.69,13.813,11.342,12.571,10.005,10.627,11.559,8.468
15.557,18.507,8.766,13.17,7.559,11.448,8.769,6.364
19.188,20.824,8.428,13.111,7.136,11.418,7.664,5.57
22.651,20.303,9.676,13.19,8.246,11.403,8.16,6.082
24.051,18.765,10.35,13.674,9.078,11.515,8.213,6.069
22.758,16.949,9.83,14.422,8.842,11.339,7.5,5.555
20.64,15.469,9.387,15.533,8.417,11.288,7.197,6.237
19.919,15.27,10.219,16.688,9.149,11.977,7.738,8.092
21.247,16.809,13.663,18.051,12.712,13.879,10.609,10.457
23.121,19.693,19.003,20.09,18.116,16.717,15.894,12.941
22.996,21.959,21.557,21.541,20.325,18.232,18.123,13.542
20.469,21.678,18.208,20.675,16.706,16.537,12.893,10.711
18.498,20.064,11.859,18.014,10.699,13.14,3.998,6.449
19.877,20.429,7.861,15.975,7.252,11.165,-1.217,4.242
23.058,23.461,8.538,16.199,8.058,11.654,0.593,5.238
24.017,25.934,10.73,17.413,10.015,12.737,5.701,7.116
21.982,25.817,10.766,17.64,9.873,12.772,8.2,7.366
20.608,25.691,10.866,17.952,10.019,12.899,8.189,6.893
22.744,27.348,13.52,19.476,12.755,13.671,8.986,7.094
25.645,27.669,14.489,19.161,13.671,12.189,8.642,6.042
24.803,24.822,10.617,15.021,9.814,7.604,3.645,2.647
21.426,22.508,8.1,11.603,7.561,4.959,-0.398,1.175
20.542,24.001,13.237,13.754,12.911,7.941,5.13,5.347
23.038,26.941,20.432,18.753,20.009,12.499,14.601,10.727
25.237,27.357,20.175,20.61,19.589,13.144,14.364,10.647
25.712,26.641,14.892,19.807,14.414,11.936,6.172,7.51
27.461,29.564,15.142,21.856,14.972,14.632,4.93,8.888
31.816,35.456,22.285,26.988,22.364,20.236,13.642,14.352
34.435,38.228,26.532,29.171,26.763,22.305,19.126,16.255
32.442,36.138,23.183,26.267,23.472,19.431,14.602,12.568
31.316,34.902,19.696,23.801,19.89,17.076,9.712,9.524
35.307,38.586,20.712,25.327,20.733,18.269,10.908,10.158
39.214,43.627,19.676,26.825,19.548,19.454,10.087,9.52
39.705,46.307,14.396,25.817,14.272,18.674,3.585,5.603
40.298,48.067,12.583,25.891,12.694,19.066,0.621,4.061
41.266,49.653,15.974,28.099,16.303,21.207,4.981,7.348
40.054,48.87,17.9,28.805,18.153,21.648,9.32,10.541
37.653,44.802,15.462,26.395,15.434,19.018,8.407,9.941
35.788,39.406,11.32,22.679,11.091,15.221,4.565,7.171
34.619,35.992,8.358,20.015,8.187,12.754,2.546,5.152
34.439,35.519,6.867,18.949,6.967,12.191,3.031,4.228
34.266,34.951,4.693,17.546,5.027,11.497,2.058,2.715
31.686,32.177,1.409,14.885,1.81,9.529,-1.149,0.649
27.699,29.244,0.018,12.924,0.451,7.89,-2.306,-0.196
25.454,27.531,1.533,12.09,1.933,7.046,-0.778,-0.386
24.195,25.26,3.023,10.532,3.088,5.62,-0.355,-1.571
22.814,22.802,3.05,9.066,2.693,4.452,-1.39,-2.601
23.052,23.115,3.024,9.833,2.697,5.363,-1.51,-2.043
24.006,25.649,3.65,11.569,3.714,7.209,-0.5,-0.874
23.003,27.009,4.482,11.877,4.623,7.69,0.456,-0.496
20.994,26.066,4.706,10.903,4.426,6.629,-0.085,-1.448
19.789,23.777,3.297,10.048,2.617,5.505,-2.631,-3.062
19.285,21.63,1.447,10.586,0.787,6.055,-3.733,-2.891
20.228,21.97,2.863,13.598,2.443,9.249,0.921,0.976
21.996,24.87,6.419,17.342,5.98,12.856,6.642,5.281
20.552,26.126,5.11,17.438,4.41,12.623,3.807,4.278
15.616,23.593,-1.201,13.529,-1.911,8.666,-4.571,-0.837
12.043,21.151,-4.874,10.274,-5.239,5.557,-7.248,-3.341
12.004,22.75,-4.575,10.18,-4.655,5.63,-4.707,-1.586
13.592,26.69,-5.271,11.514,-5.276,7.365,-4.99,0.509
14.792,28.181,-7.473,12.318,-7.372,8.49,-7.362,1.011
15.5,26.221,-7.773,12.252,-7.587,8.024,-6.157,1.204
16.733,24.627,-5.592,11.769,-5.58,6.934,-2.623,1.569
17.65,25.529,-3.817,11.064,-4.017,6.517,-2.267,0.983
17.599,27.032,-4.337,10.11,-4.549,6.563,-5.431,-0.644
18.978,27.75,-5.25,9.526,-5.42,6.672,-6.869,-1.493
21.511,28.222,-4.554,9.727,-4.739,7.091,-4.545,-0.666
21.746,28.483,-3.979,9.636,-4.341,7.196,-3.327,-0.113
20.257,27.673,-5.143,8.343,-5.931,5.931,-5.949,-1.674
20.145,26.091,-5.104,7.482,-6.197,4.501,-6.907,-3.238
21.645,25.436,-0.991,9.017,-1.965,5.291,-2.226,-1.732
22.89,25.8,2.94,11.159,2.131,7.352,1.075,0.489
23.291,25.522,0.698,11.036,-0.256,7.864,-4.206,-0.581
23.799,24.111,-5.279,9.299,-6.447,6.87,-12.616,-2.95
23.41,22.296,-8.395,7.907,-9.486,5.829,-15.515,-3.07
20.401,21.104,-7.729,7.025,-8.412,4.852,-13.177,-2.272
17.912,21.412,-6.457,5.895,-6.637,3.519,-10.332,-3.201
20.19,22.686,-5.492,4.61,-5.429,2.016,-8.656,-5.086
24.943,23.311,-4.102,4.178,-4.223,1.064,-7.359,-5.394
26.799,22.305,-3.639,4.556,-4.108,0.871,-6.962,-3.839
24.382,19.697,-5.639,4.084,-6.309,0.597,-8.145,-2.495
19.603,15.765,-8.524,1.602,-9.299,-0.954,-9.449,-2.904
14.178,10.903,-10.098,-2.357,-10.926,-4.207,-10.116,-4.952
9.813,6.441,-10.903,-6.503,-11.582,-8.07,-10.929,-7.516
8.179,4.162,-12.326,-9.661,-12.759,-10.624,-10.693,-9.043
7.455,4.222,-13.668,-11.117,-14.026,-11.071,-7.813,-8.631
4.303,5.247,-13.825,-11.252,-14.255,-10.851,-4.792,-7.482
0.761,6.659,-13.353,-11.094,-13.877,-11.645,-4.8,-7.692
1.045,8.758,-12.808,-11.039,-13.382,-12.9,-6.199,-9.3
4.054,10.448,-12.267,-11.524,-12.741,-13.68,-6.389,-11.037
6.422,9.849,-13.25,-13.675,-13.668,-15.074,-8.018,-13.4
7.07,7.636,-17.492,-17.049,-18.133,-17.771,-14.972,-17.402
5.632,6.306,-22.846,-18.684,-23.618,-19.651,-23.144,-20.909
3.715,6.819,-24.37,-16.563,-24.894,-18.574,-24.262,-20.937
5.873,9.183,-20.219,-11.753,-20.581,-14.937,-18.367,-18.161
12.689,13.678,-12.668,-5.971,-13.26,-9.794,-11.471,-14.31
18.062,18.292,-5.261,-0.754,-6.037,-4.412,-5.66,-9.596
17.995,18.942,-0.787,1.593,-1.372,-1.524,-0.335,-5.505
15.524,15.318,0.334,0.56,-0.059,-2.306,2.951,-4.029
14.035,11.522,-0.924,-1.485,-1.515,-4.277,1.821,-4.302
12.554,9.722,-2.9,-2.456,-3.796,-4.732,-1.785,-3.768
9.845,8.415,-3.01,-2.028,-3.847,-3.599,-2.236,-1.513
7.505,6.271,-1.606,-1.237,-2.159,-2.74,0.599,0.55
7.08,4.462,-1.846,-0.986,-2.315,-2.937,1.564,0.87
8.551,5.489,-2.665,0.197,-3.241,-2.071,1.618,1.625
12.41,9.624,-0.268,3.882,-0.879,1.261,5.034,4.733
17.178,13.651,3.754,8.135,3.137,4.842,8.518,7.734
18.123,14.891,5.302,10.324,4.523,6.632,8.113,8.727
14.684,13.902,4.636,10.33,3.636,6.863,6.818,9.049
11.028,11.98,2.928,8.607,1.898,5.364,5.491,8.335
8.365,9.826,-0.387,5.619,-1.308,2.343,1.651,5.369
5.614,8.106,-4.093,2.603,-5.069,-0.456,-2.045,2.05
3.412,6.591,-5.982,-0.016,-7.172,-2.432,-1.822,0.12
2.272,4.955,-5.501,-2.104,-6.741,-3.771,0.608,-0.988
1.705,4.266,-3.509,-2.689,-4.538,-3.916,1.649,-1.791
2.948,5.816,-1.346,-1.572,-2.135,-2.86,0.831,-2.245
7.728,9.685,0.939,0.684,0.127,-0.833,0.858,-1.988
13.473,14.306,4.002,3.674,2.932,2.149,2.948,-0.857
15.72,17.419,6.213,6.484,5.102,5.212,4.162,0.142
14.991,18.294,5.583,7.91,4.839,7.214,2.496,-0.032
15.256,18.07,3.511,7.689,3.095,7.604,0.386,-0.885
17.355,17.891,2.717,6.939,2.213,6.694,0.249,-0.631
17.885,17.656,3.284,6.879,2.505,5.922,1.502,1.907
14.152,15.866,2.437,6.66,1.492,5.764,1.635,4.808
7.766,10.999,-2.166,4.335,-3.251,4.252,-2.461,4.514
2.092,4.843,-8.848,0.432,-10.005,0.602,-10.038,1.104
-0.681,1.938,-12.861,-2.222,-13.645,-2.522,-14.859,-1.809
0.579,3.628,-10.83,-2.02,-10.983,-2.541,-11.876,-1.923
4.327,6.159,-4.335,-0.197,-4.447,-0.185,-3.22,0.262
5.564,5.673,0.537,0.419,-0.19,1.202,3.336,2.07
2.913,3.363,0.756,-0.902,-0.36,-0.125,3.643,1.253
1.831,3.411,-0.068,-2.084,-1.028,-2.068,1.671,-1.07
4.245,5.545,0.066,-2.811,-0.64,-3.007,0.584,-2.845
5.032,5.554,-1,-4.617,-1.499,-4.137,-1.013,-3.761
1.703,2.626,-2.362,-6.81,-2.469,-6.043,-1.683,-3.954
-3.017,-0.866,-1.084,-7.676,-0.81,-7.568,1.809,-3.415
-6.303,-4.335,0.188,-7.978,0.3,-8.493,5.468,-3.337
-7.594,-8.254,-3.755,-9.779,-4.158,-10.112,1.626,-5.569
-8.253,-11.165,-11.075,-12.802,-11.613,-12.445,-7.861,-9.508
-9.674,-11.615,-15.093,-15.008,-15.464,-13.968,-13.479,-12.548
-11.848,-10.912,-14.286,-15.821,-14.76,-14.26,-12.555,-14.059
-12.889,-10.344,-11.942,-15.061,-12.627,-13.342,-10.246,-14.809
-10.171,-8.551,-9.032,-11.451,-9.72,-10.372,-8.696,-14.198
-4.906,-4.669,-4.612,-5.615,-5.268,-5.863,-5.891,-11.83
-2.292,-1.574,-0.148,-1.147,-0.857,-2.492,-2.45,-9.237
-4.171,-2.868,2.158,-0.397,1.408,-1.828,-0.87,-7.279
-6.856,-6.844,2.556,-1.277,2.01,-1.788,-0.663,-4.438
-8.45,-8.603,1.881,-0.592,1.866,0.017,-0.098,-0.234
-11.197,-7.437,0.687,1.79,0.954,2.633,1.665,3.782
-14.064,-5.757,0.689,4.487,0.634,4.632,5.408,7.655
-12.629,-5.033,1.753,6.122,1.492,5.747,8.792,11.506
-8.207,-6.483,0.513,4.934,0.714,4.78,6.998,12.531
-7.64,-10.227,-3.87,1.067,-3.2,1.272,0.823,9.471
-11.831,-12.8,-7.072,-2.224,-6.601,-2.049,-3.175,5.998
-13.12,-10.539,-5.546,-2.246,-5.451,-2.341,-1.657,5.543
-9.102,-5.977,-2.238,-0.698,-2.03,-0.933,1.453,6.017
-6.873,-4.435,-2.358,-1.201,-1.927,-1.173,0.378,3.36
-8.049,-5.118,-4.149,-3.555,-4.017,-3.003,-3.343,-1.164
-5.866,-3.952,-1.462,-4.367,-1.865,-3.759,-1.961,-2.331
0.137,-1.742,4.327,-2.816,3.8,-3.127,4.764,0.581
2.383,-1.791,6.078,-1.588,5.723,-3.054,8.078,2.685
-1.272,-4.167,3.32,-2.468,2.924,-4.007,5.272,1.316
-5.129,-7.06,1.314,-4.408,0.765,-4.73,2.202,-0.93
-6.283,-9.393,1.25,-6.069,0.735,-4.733,1.055,-2.032
-6.603,-10.05,0.636,-7.302,0.139,-4.684,-1.771,-3.633
-6.682,-8.411,-0.341,-7.858,-0.923,-5.038,-6.157,-6.452
-6.521,-5.841,0.906,-6.948,0.376,-5.306,-7.047,-7.97
-6.747,-3.832,4.688,-4.189,4.22,-4.265,-4.038,-6.416
-6.729,-2.948,7.922,-0.863,7.301,-1.922,-3.437,-3.424
-6.17,-3.824,8.255,0.664,7.528,-0.344,-7.979,-1.224
-5.342,-5.344,7.401,0.549,6.823,-0.145,-11.47,1.06
-4.277,-5.402,7.212,1.069,6.746,0.362,-8.929,4.938
-4.506,-5.443,5.924,1.67,5.333,1.122,-5.074,8.292
-6.97,-8.249,2.518,0.073,1.781,0.394,-5,8.787
-9.274,-12.183,-0.242,-2.506,-1.004,-1.184,-5.553,8.011
-9.063,-13.051,0.282,-2.572,-0.551,-0.669,-2.707,8.46
-7.072,-9.968,3.577,0.595,2.573,2.938,2.019,10.43
-5.509,-6.303,6.837,4.036,5.874,6.445,4.907,12.046
-5.626,-5.548,7.58,4.599,7.013,5.96,4.088,10.584
-6.551,-7.491,6.542,2.71,6.258,2.588,1.823,6.416
-6.595,-9.514,6.095,1.154,5.598,0.459,1.685,3.065
-5.675,-10.509,6.073,0.411,5.33,-0.202,2.367,1.592
-4.559,-11.125,5.253,-0.872,4.774,-1.606,0.729,0.533
-3.189,-11.716,4.832,-2.077,4.748,-3.04,-1.279,0.145
-1.923,-12.353,6.371,-1.676,6.171,-2.762,0.13,1.353
-2.676,-14.041,8.21,-0.623,7.595,-1.815,3.629,2.748
-5.928,-17.665,8.124,-1.078,7.344,-2.314,5.324,2.268
-8.574,-21.509,7.467,-3.121,6.68,-4.288,4.92,-0.192
-9.779,-23.016,7.57,-5.339,6.83,-6.423,3.8,-3.882
-13.036,-22.116,6.795,-6.526,6.475,-7.563,1.986,-7.572
-16.634,-19.432,5.343,-5.672,5.553,-6.461,0.479,-8.586
-14.903,-15.348,5.791,-3.227,5.984,-3.231,0.867,-5.85
-10.344,-12.239,7.672,-1.782,7.41,-0.621,2.159,-2.522
-8.969,-12.275,8.406,-2.907,7.892,-0.945,2.334,-2.05
-10.113,-14.889,7.755,-5.219,7.412,-3.118,1.361,-3.593
-11.462,-18.373,7.179,-6.5,7.088,-3.984,0.527,-3.411
-13.421,-21.203,7.085,-6.373,7.016,-2.304,0.31,-0.438
-15.168,-23.075,5.887,-6.958,5.7,-1.066,-0.593,1.438
-14.482,-24.003,2.498,-9.256,2.26,-3.055,-3.267,-0.4
-12.535,-22.556,-1.128,-10.745,-1.247,-6.069,-6.517,-2.974
-13.979,-18.985,-2.862,-10.193,-2.782,-7.05,-8.619,-3.607
-19.351,-16.652,-3.202,-9.859,-3.029,-6.964,-8.803,-3.535
-22.602,-16.422,-2.559,-10.032,-2.381,-6.982,-6.087,-2.926
-20.308,-15.811,-0.284,-8.514,-0.073,-5.451,-0.346,0.158
-17.362,-15.791,1.143,-6.867,1.323,-3.139,3.814,3.702
-18.669,-19.348,-1.542,-8.537,-1.606,-4.018,1.282,2.953
-21.651,-23.834,-4.786,-11.404,-5.175,-7.529,-3.54,-0.865
-22.499,-24.778,-3.5,-11.271,-3.931,-8.745,-2.641,-2.273
-22.013,-23.29,-0.789,-9.638,-0.91,-7.206,1.465,-1.267
-20.49,-21.927,-1.46,-10.12,-1.398,-7.044,1.596,-2.244
-15.252,-19.301,-2.618,-11.565,-2.685,-8.92,-0.339,-5.493
-7.513,-14.299,-0.102,-10.978,-0.119,-9.745,1.401,-7.643
-4.19,-9.72,2.768,-9.306,3.122,-9.099,4.018,-8.718
-7.715,-7.56,1.348,-8.947,1.939,-8.761,1.273,-11.384
-11.41,-6.171,-1.357,-9.068,-0.854,-8.301,-3.714,-14.801
-10.38,-4.439,-0.374,-8.127,-0.057,-6.959,-3.761,-16.135
-8.242,-3.662,2.547,-7.046,2.794,-6.032,-0.387,-15.336
-8.931,-4.535,3.175,-6.777,3.473,-6.193,0.669,-13.723
-11.144,-5.984,1.116,-6.786,1.519,-6.343,-1.243,-11.689
-12.389,-6.805,-1.318,-6.556,-0.722,-5.443,-3.253,-9.117
-11.637,-6.961,-1.373,-6.066,-0.631,-3.716,-2.674,-5.64
-9.989,-8.263,0.664,-6.27,1.172,-3.167,-0.17,-2.213
-10.846,-12.556,0.292,-8.39,0.334,-5.32,-0.251,-1.299
-15.078,-18.283,-3.558,-11.11,-3.659,-7.919,-3.887,-2.376
-18.613,-21.836,-6.219,-11.961,-6.049,-7.978,-6.758,-2.007
-18.389,-21.29,-5.374,-10.646,-4.906,-6.008,-7.035,0.312
-15.043,-16.607,-2.457,-7.645,-1.846,-3.274,-6.066,2.508
-9.603,-9.776,1.71,-3.543,2.357,0.021,-3.799,3.945
-3.247,-4.427,6.39,-0.475,6.958,2.301,0.009,4.72
1.535,-2.026,9.671,-0.038,10.095,1.916,3.287,4.075
2.304,-1.388,9.987,-1.74,10.331,-0.413,3.68,1.218
-0.309,-1.852,7.41,-4.667,7.817,-3.3,1.382,-3.426
-1.945,-2.86,3.7,-7.654,4.294,-5.84,-1.524,-8.137
0.426,-2.649,2.263,-8.686,2.91,-6.489,-1.938,-10.682
4.986,-0.412,5.667,-6.685,6.027,-4.134,2.24,-9.796
7.151,1.488,10.143,-3.937,10.352,-0.982,6.464,-7.708
3.602,0.01,8.349,-4.114,9.033,-0.893,2.729,-8.658
-2.683,-3.09,1.641,-6.408,2.827,-3.519,-6.555,-12.297
-4.4,-2.706,-0.226,-6.161,0.751,-4.566,-9.326,-13.718
-0.4,1.775,4.871,-2.56,5.421,-2.591,-2.728,-11.733
3.258,5.725,7.964,0.456,8.632,-0.32,2.62,-10.366
4.209,6.93,5.125,1.544,6.003,0.956,0.812,-10.937
5.965,8.465,3.831,3.768,4.336,3.102,-0.841,-9.599
8.709,11.541,7.654,7.751,7.768,6.244,2.55,-5.267
8.785,12.307,9.65,9.853,9.931,7.601,4.191,-2.158
7.039,9.522,6.974,8.966,7.402,6.81,0.791,-1.375
7.535,7.026,5.438,7.934,5.654,6.674,-0.42,0.758
9.455,6.486,7.082,7.889,7.263,7.886,3.629,4.708
7.643,5.305,6.794,6.801,7.327,7.865,5.904,6.297
1.028,1.926,1.461,3.322,2.267,5.089,1.089,3.622
-4.833,-1.52,-4.11,-0.55,-3.388,1.676,-4.86,0.579
-5.837,-2.577,-3.7,-2.103,-3.15,0.024,-3.121,1.018
-4.591,-1.702,-0.04,-2.188,0.522,-0.746,2.607,2.572
-4.909,-0.478,0.169,-3.045,0.817,-1.823,2.795,1.529
-6.334,0.668,-2.115,-3.973,-1.507,-1.997,-0.73,-0.648
-5.935,2.098,-2.048,-3.334,-1.618,-0.789,-0.724,-1.198
-2.47,4.174,1.063,-1.548,1.223,0.276,2.721,-0.378
1.789,6.019,5.703,-0.024,5.517,0.368,6.764,0.886
3.837,5.802,9.831,-0.098,9.379,-0.664,10.558,1.578
4.212,3.697,10.271,-2.461,9.834,-3.228,11.371,-0.167
5.373,2.273,7.047,-5.502,6.802,-6.194,7.902,-3.942
6.58,2.998,4.25,-6.503,4.248,-7.368,4.645,-6.779
5.275,4.65,3.736,-5.429,4.078,-6.811,4.519,-7.605
3.121,5.579,3.774,-4.44,4.36,-6.355,4.843,-7.779
4.243,6.117,3.335,-3.794,3.775,-5.989,3.721,-7.851
7.915,7.308,3.165,-2.17,3.217,-4.504,2.654,-7.178
9.715,8.091,2.904,-0.567,2.771,-2.97,1.964,-6.18
8.402,7.231,1.05,-0.747,1.141,-2.832,0.046,-5.736
6.389,6.239,-1.206,-1.314,-0.787,-2.726,-2.107,-4.786
5.6,7.159,-1.111,0.143,-0.63,-1.022,-1.939,-1.706
6.033,9.547,0.809,3.155,1.109,1.414,0.202,2.791
6.889,10.591,1.054,4.709,1.086,2.308,1.241,5.529
7.935,9.286,-1.306,3.854,-1.533,1.634,0.146,5.085
9.487,9.172,-1.769,4.115,-2.047,2.803,1.274,5.202
10.067,11.562,2.061,6.839,1.962,6.299,6.515,8.214
6.649,11.181,4.726,7.302,4.795,7.019,8.839,9.455
0.401,5.731,2.842,3.802,2.99,3.527,4.257,6.015
-2.884,0.94,1.193,1.395,1.341,1.119,-0.456,2.277
-1.079,0.773,2.45,2.223,2.398,2.017,-0.662,1.026
2.066,2.872,3.258,3.283,2.942,2.85,-0.231,-0.03
3.216,5.219,2.594,3.793,2.332,2.347,-0.806,-1.426
2.44,7.631,2.342,4.676,2.314,2.252,0.157,-1.849
1.178,8.206,1.879,4.523,1.793,2.411,1.321,-2.419
-0.215,5.172,0.549,2.636,0.267,1.515,0.519,-3.817
-2.921,-0.223,-0.182,0.593,-0.497,-0.266,-0.073,-4.524
-6.739,-4.939,-0.787,-1.115,-1.233,-2.12,0.362,-4.901
-8.678,-6.388,-2.877,-2.457,-3.578,-3.001,-0.766,-6.512
-7.261,-4.171,-4.85,-1.714,-5.574,-1.69,-3.362,-7.869
-4.788,-0.574,-3.906,1.773,-4.473,1.462,-4.014,-6.434
-2.846,1.623,0.402,6.032,-0.003,4.712,-0.496,-2.79
-0.457,2.014,6.207,9.279,6.042,7.097,5.28,0.373
1.913,2.072,9.916,11.101,9.949,8.62,7.268,1.357
2.394,2.251,9.9,11.848,9.874,9.438,3.775,1.249
1.533,1.356,8.712,11.868,8.503,9.324,1.501,2.193
0.746,-1.1,6.922,10.359,6.69,7.417,1.851,3.088
-0.481,-3.634,2.567,7.293,2.433,4.281,-1.258,1.799
-2.12,-5.009,-1.795,5.115,-1.887,2.4,-5.647,0.421
-3.089,-5.95,-2.902,4.411,-2.976,1.925,-4.786,1.081
-3.942,-7.237,-3.659,2.121,-3.757,0.15,-2.176,0.961
-4.688,-7.797,-6.797,-2.349,-7.032,-3.04,-3.751,-2.224
-4.425,-6.698,-9.721,-5.492,-10.042,-4.907,-7.051,-6.12
-5.298,-5.387,-10.147,-5.92,-10.39,-5.013,-7.093,-7.974
-8.03,-5.268,-9.126,-5.808,-9.33,-5.279,-4.146,-7.702
-8.781,-5.719,-9.047,-6.732,-9.407,-6.575,-3.315,-7.29
-7.452,-6.109,-11.181,-8.157,-11.687,-8.106,-6.948,-8.218
-7.794,-6.144,-12.387,-8.311,-12.839,-8.092,-8.621,-8.349
-8.336,-4.899,-8.888,-6.526,-9.215,-6.018,-2.801,-5.51
-5.205,-2.775,-4.548,-5.539,-4.715,-4.894,3.325,-3.122
-0.356,-1.508,-5.221,-7.288,-5.052,-6.716,1.577,-4.774
1.633,-1.191,-7.52,-8.583,-7.1,-8.201,-2.074,-7.418
0.067,-1.407,-5.976,-7.082,-5.784,-6.96,-0.113,-7.43
-2.272,-2.773,-3.241,-5.188,-3.435,-5.264,2.955,-6.194
-3.372,-4.713,-2.437,-3.74,-2.571,-4.056,2.588,-5.304
-4.673,-5.982,-1.51,-0.699,-1.224,-1.616,2.12,-3.861
-7.155,-6.358,0.497,3.288,1.097,1.73,3.356,-1.559
-7.825,-5.748,1.879,5.188,2.53,3.733,3.671,0.172
-5.323,-4.853,1.297,3.909,1.855,3.307,1.419,-0.171
-2.979,-4.948,-1.038,1.544,-0.609,1.727,-1.681,-2.012
-2.831,-5.158,-2.477,1.173,-2.219,1.526,-1.963,-2.794
-3.549,-4.103,-1.47,2.952,-1.361,3.133,0.464,-1.737
-4.026,-2.849,-0.613,4.546,-0.515,4.685,0.936,-0.396
-4.319,-2.864,-1.166,5.397,-1.064,5.606,-1.05,0.943
-4.962,-4.416,-0.549,6.041,-0.561,6.219,-0.931,2.64
-6.091,-7.04,2.009,5.914,2.019,6.032,2.546,3.914
-7.395,-9.676,3.74,4.691,4.114,4.976,6.106,4.551
-9.089,-11.661,3.019,2.965,3.832,3.606,7.386,5.036
-10.897,-12.402,1.566,1.969,2.635,2.489,6.909,5.381
-12.212,-11.165,1.108,2.429,2.3,1.985,5.678,5.141
-12.571,-8.834,1.458,3.5,2.599,1.893,3.931,3.658
-11.149,-7.108,2.456,4.189,3.25,1.884,2.566,1.183
-9.636,-6.656,3.512,3.956,3.908,1.301,2.432,-1.066
-10.706,-6.886,3.225,2.757,3.543,-0.264,2.801,-2.651
-11.758,-5.793,2.188,1.968,2.614,-1.323,2.703,-3.825
-8.683,-1.867,1.651,2.679,2.032,-0.573,1.059,-4.739
-3.005,2.991,1.568,3.755,1.817,0.63,-1.798,-5.436
1.27,4.763,2.628,3.138,2.859,0.18,-1.909,-5.67
3.265,2.613,4.822,0.571,4.989,-2.13,1.723,-5.666
4.079,0.21,5.697,-1.638,5.571,-4.347,3.628,-6.218
2.766,-0.455,3.738,-2.231,3.329,-4.992,1.013,-7.37
-2.268,-1.359,0.206,-2.806,-0.116,-4.869,-2.385,-8.39
-8.544,-3.411,-2.522,-3.946,-2.447,-4.818,-3.175,-8.46
-12.031,-5.642,-3.455,-4.431,-3.045,-4.49,-2.527,-7.491
-12.694,-7.822,-4.121,-4.714,-3.587,-4.181,-3.498,-6.83
-12.449,-10.267,-5.546,-6.422,-4.988,-5.066,-6.096,-7.471
-11.782,-13.232,-6.441,-8.909,-5.889,-7.173,-7.04,-7.964
-10.939,-16.202,-6.207,-9.578,-5.569,-8.445,-4.968,-6.359
-10.439,-17.77,-6.33,-8.019,-5.465,-7.356,-3.014,-3.388
-10.568,-17.783,-8.096,-7.158,-7.273,-5.855,-4.749,-1.648
-11.125,-17.722,-10.185,-8.662,-9.885,-6.796,-8.15,-2.008
-10.819,-17.815,-10.329,-10.248,-10.434,-9.546,-7.885,-3.08
-9.917,-16.32,-9.39,-9.604,-9.43,-11.182,-4.397,-3.947
-11.712,-13.119,-9.929,-7.783,-9.86,-10.604,-2.732,-4.779
-16.843,-11.34,-12.418,-7.49,-12.349,-9.74,-4.1,-5.783
-20.772,-13.107,-15.655,-10.01,-15.498,-10.92,-6.368,-7.31
-20.16,-15.77,-17.571,-13.501,-17.33,-13.31,-7.668,-8.977
-16.059,-15.338,-16.09,-14.686,-15.854,-14.072,-6.229,-9.303
-10.743,-12.256,-12.285,-13.145,-12.079,-13.088,-2.626,-8.416
-6.186,-9.585,-9.587,-11.107,-9.423,-12.13,-0.465,-7.994
-3.595,-7.45,-8.752,-9.192,-8.616,-10.529,-1.236,-7.844
-2.307,-4.593,-8.044,-6.795,-8.034,-7.299,-2.817,-6.732
-0.657,-1.938,-7.094,-4.92,-7.355,-4.601,-3.347,-5.365
2.573,0.108,-6.147,-4.122,-6.419,-3.907,-2.633,-5.083
7.315,3.09,-3.711,-2.623,-3.589,-3.182,-0.436,-5.043
11.742,6.381,1.12,0.106,1.408,-1.442,3.234,-3.781
13.047,7.06,5.36,1.283,5.32,-1.077,5.421,-3.204
9.951,4.676,5.434,-1.314,5.198,-3.719,2.943,-6.273
5.64,2.003,3.46,-5.384,3.431,-7.095,-0.755,-10.469
4.59,1.294,4.168,-6.557,4.276,-7.683,0.126,-10.593
5.967,1.907,6.794,-4.378,6.768,-5.538,3.877,-7.307
6.826,2.942,8.17,-1.574,8.035,-3.051,5.907,-4.87
7.814,5.173,8.908,0.803,8.834,-0.612,6.395,-4.012
9.247,7.361,9.248,2.279,9.218,1.401,5.284,-3.805
8.575,6.557,7.224,1.787,7.054,1.197,0.996,-4.615
5.628,3.602,4.169,0.624,3.896,-0.224,-2.833,-5.334
3.565,1.434,2.936,0.752,3.019,-0.102,-2.009,-4.118
3.565,-0.171,2.482,1.258,3.107,1.097,0.077,-2.295
4.474,-2.319,2.085,1.091,2.655,1.451,0.311,-1.93
4.903,-3.887,4.069,0.774,4.26,0.701,1.904,-2.468
2.806,-4.1,7.046,-0.15,7.526,-1.18,5.081,-3.302
-1.064,-3.457,6.079,-2.154,7.213,-3.968,4.671,-4.926
-2.239,-1.412,1.498,-3.535,2.577,-5.72,-0.222,-6.723
0.194,2.426,-1.371,-2.689,-0.796,-4.748,-3.934,-7.289
1.845,5.356,-0.811,-0.85,-0.182,-2.4,-2.277,-6.587
-0.14,4.043,0.168,-0.692,1.206,-1.816,2.249,-5.952
-3.978,-0.76,-0.4,-2.736,0.54,-3.736,4.453,-6.232
-7.054,-5.09,-2.033,-4.749,-1.592,-5.393,2.882,-6.915
-9.477,-6.999,-4.22,-5.632,-4.005,-5.183,-0.144,-7.713
-11.989,-7.906,-7.127,-7.001,-6.758,-5.063,-3.098,-9.588
-12.51,-8.161,-10.144,-8.991,-9.485,-5.929,-5.701,-12.432
-10.304,-6.491,-11.519,-9.765,-10.537,-6.566,-6.93,-14.779
-10.165,-4.637,-11.191,-10.248,-10.044,-7.875,-7.493,-17.087
-13.113,-4.858,-10.367,-11.963,-9.398,-10.492,-9.215,-20.077
-11.77,-4.017,-7.985,-12.188,-7.364,-10.989,-10.223,-21.142
-4.108,1.442,-3.351,-8.655,-2.903,-7.291,-7.809,-18.183
3.125,9.024,1.588,-3.488,2.15,-2.116,-2.649,-12.68
7.422,14.689,5.655,1.356,6.362,2.209,3.292,-6.07
10.453,17.024,8.079,5.292,8.709,5.478,7.334,0.782
9.603,15.629,7.472,7.453,7.916,7.508,7.222,6.054
3.604,11.688,5.487,8.714,5.837,8.985,4.99,9.434
-1.588,7.736,5.664,10.323,6.049,10.522,4.581,12.024
-1.816,4.429,7.908,10.795,8.504,10.796,6.596,13.326
0.178,1.512,9.243,8.988,10.153,8.941,9.022,12.627
2.013,0.186,7.959,6.518,8.993,6.244,9.908,10.972
3.442,1.117,4.603,5.053,5.503,4.598,8.797,9.733
2.783,3.413,1.752,5.264,2.432,5.348,7.7,9.726
0.255,6.37,2.011,7.351,2.512,8.246,8.564,10.87
-0.761,9.102,4.571,10.021,5.075,10.938,10.346,11.745
0.662,10.046,6.901,11.478,7.625,11.868,11.97,11.691
2.821,8.85,8.703,11.878,9.553,12.212,14.575,12.001
4.792,6.309,9.724,11.744,10.37,12.418,17.096,12.621
5.855,2.693,7.666,9.813,8.087,10.681,15.596,11.229
5.185,-1.912,2.312,5.108,2.88,6.291,9.974,7.249
3.406,-6.433,-2.535,-1.035,-1.687,0.686,5.6,2.899
2.751,-8.528,-4.116,-6.113,-3.343,-4.157,5.846,-0.293
4.148,-6.708,-4.968,-8.852,-4.526,-6.977,6.307,-3.462
4.706,-3.243,-8.927,-10.198,-8.527,-8.357,0.813,-8.122
2.075,-1.452,-14.214,-11.203,-13.487,-9.517,-8.207,-13.015
-0.319,-0.407,-14.964,-10.711,-14.108,-9.397,-12.183,-14.944
1.391,2.006,-10.149,-7.971,-9.598,-6.829,-9.015,-13.245
5.278,3.938,-5.198,-5.309,-4.957,-4.016,-4.99,-10.693
8.586,4.02,-3.298,-4.024,-3.142,-2.536,-3.865,-8.568
11.195,4.785,-2.264,-2.105,-2.161,-0.365,-2.977,-5.153
11.376,7.145,-0.891,1.147,-0.827,3.431,-0.931,-0.199
7.388,7.956,-1.186,3.196,-0.963,6.195,-0.852,3.617
2.68,5.386,-2.752,2.6,-2.298,5.865,-3.048,5.037
1.521,2.042,-1.561,1.427,-1.148,4,-2.312,6.319
2.568,0.73,1.97,1.132,2.102,2.689,1.933,8.519
2.462,0.739,1.747,0.256,1.798,1.687,2.619,8.977
1.123,0.275,-2.409,-1.453,-1.998,0.625,-1.797,6.556
-0.354,-0.96,-3.321,-1.877,-2.491,0.508,-3.996,4.388
-1.464,-1.959,0.616,-0.219,1.421,1.915,-1.296,4.838
-0.853,-1.356,4.032,2.4,4.568,3.962,1.623,6.044
1.257,0.489,5.255,4.727,5.771,5.245,3.48,5.711
1.857,1.327,6.546,5.772,7.217,5.19,6.643,4.759
0.225,0.321,6.828,5.179,7.42,4.277,8.769,4.39
-0.599,-0.583,3.799,3.736,4.071,3.492,5.731,3.16
0.559,0.118,-0.124,2.382,-0.003,3.291,0.799,0.217
0.36,0.413,-1.633,0.735,-1.297,2.301,0.189,-2.55
-3.103,-2.221,-2.193,-1.667,-1.671,-0.458,1.599,-4.052
-6.415,-6.204,-3.593,-3.063,-3.247,-2.403,-0.536,-5.038
-7.129,-8.385,-3.479,-1.583,-3.25,-1.051,-3.105,-5.203
-7.507,-8.681,-0.509,1.339,0.005,1.614,-1.361,-3.974
-9.085,-8.952,2.012,2.842,2.734,2.634,0.597,-2.833
-9.603,-9.543,1.522,2.524,2.1,2.451,-1.691,-3.056
-7.284,-9.07,0.293,2.498,0.783,3.373,-4.245,-2.862
-4.426,-7.709,0.53,3.994,1.114,5.743,-2.921,-0.074
-4.062,-7.787,-0.119,5.461,0.462,7.578,-0.878,4.245
-6.268,-9.611,-4.295,5.037,-3.882,7.665,-2.14,7.673
-10.018,-11.054,-10.746,2.737,-10.524,6.321,-5.894,9.525
-14.737,-11.859,-16.581,-0.416,-16.393,3.934,-9.148,10.498
-19.329,-13.905,-19.678,-3.316,-19.381,1.225,-9.253,11.313
-22.658,-17.385,-19.901,-5.436,-19.745,-1.049,-6.567,11.618
-23.923,-19.801,-19.491,-7.022,-19.848,-3.018,-5.756,10.248
-22.197,-18.654,-19.39,-7.387,-20.004,-4.116,-8.262,7.863
-18.817,-14.355,-17.687,-5.377,-17.9,-3.055,-8.738,6.985
-17.485,-10.561,-14.263,-2.71,-13.914,-1.078,-4.544,8.049
-18.645,-10.316,-11.453,-2.32,-10.95,-1.071,0.139,8.613
-18.891,-12.3,-9.583,-3.312,-9.348,-2.597,1.903,7.173
-17.157,-13.571,-7.904,-3.044,-8.015,-3.105,1.542,4.849
-16.305,-14.129,-8.292,-2.895,-8.439,-3.525,-0.608,2.421
-18.027,-15.046,-12.214,-5.81,-12.152,-6.219,-5.428,-0.925
-19.937,-15.277,-16.547,-10.318,-16.466,-9.65,-10.431,-4.418
-18.773,-13.356,-17.007,-12.576,-17.118,-10.873,-11.306,-5.853
-14.244,-9.594,-13.839,-11.901,-14.014,-10.199,-8.574,-5.888
-9.475,-6.011,-11.628,-11.153,-11.785,-10.232,-7.929,-7.799
-7.328,-4.13,-12.764,-12.394,-13.077,-11.771,-12.019,-12.215
-6.548,-3.122,-13.253,-13.966,-13.803,-12.779,-15.281,-15.607
-5.789,-2.519,-9.341,-13.588,-9.972,-12.002,-12.18,-15.34
-7.007,-3.298,-4.659,-11.697,-5.114,-10.305,-6.968,-13.081
-8.949,-4.258,-4.613,-9.972,-4.746,-8.397,-7.71,-11.615
-7.164,-3.287,-7.511,-9.284,-7.511,-6.862,-12.991,-10.931
-2.413,-0.978,-7.978,-9.288,-8.103,-6.494,-14.661,-9.42
1.103,1.514,-5.935,-9.049,-6.225,-6.57,-11.81,-6.773
1.818,3.764,-4.91,-8.262,-5.408,-5.623,-9.283,-3.535
-0.597,4.082,-5.81,-7.742,-6.498,-4.316,-8.411,-0.58
-6.225,1.448,-7.418,-7.656,-7.903,-3.872,-8.89,1.009
